Timestamp,F3 Value,F3 Quality,FC5 Value,FC5 Quality,F7 Value,F7 Quality,T7 Value,T7 Quality,P7 Value,P7 Quality,O1 Value,O1 Quality,O2 Value,O2 Quality,P8 Value,P8 Quality,T8 Value,T8 Quality,F8 Value,F8 Quality,AF4 Value,AF4 Quality,FC6 Value,FC6 Quality,F4 Value,F4 Quality,AF3 Value,AF3 Quality,X Value,Y Value,Z Value
2017-07-31 18:54:35.966647,4551.87878742,0,4272.66666624,0,3937.30302991,0,3916.18181779,0,4291.7272723,0,4814.60606012,0,4201.57575716,0,4331.39393896,0,4985.63636314,0,4183.54545413,0,4444.21212077,0,4242.27272685,0,4856.33333285,0,4476.66666622,0,42.0,42.0,?
2017-07-31 18:54:35.969473,4524.57575712,0,4249.48484806,0,3942.96969658,0,3918.24242385,0,4306.66666624,0,5247.33333281,0,4196.93939352,0,4344.27272684,0,5105.66666616,0,4163.96969655,0,4406.09090865,0,4233.51515109,0,4829.54545406,0,4472.03030258,0,42.0,42.0,?
2017-07-31 18:54:35.972752,4527.66666621,0,4231.45454503,0,3942.45454506,0,3931.63636324,0,4326.75757532,0,5258.66666614,0,4198.48484806,0,4354.57575714,0,5121.12121161,0,4184.57575716,0,4431.33333289,0,4232.48484806,0,4842.42424194,0,4483.36363592,0,42.0,42.0,?
2017-07-31 18:54:35.975797,4521.99999955,0,4250.51515109,0,3932.15151476,0,3916.69696931,0,4314.39393896,0,5245.27272675,0,4189.72727231,0,4347.87878744,0,5118.03030252,0,4203.1212117,0,4416.39393895,0,4237.1212117,0,4830.06060558,0,4473.57575713,0,42.0,42.0,?
2017-07-31 18:54:35.980833,4520.454545,0,4248.45454503,0,3949.15151476,0,3917.72727234,0,4307.18181775,0,5237.54545402,0,4186.63636322,0,4347.36363593,0,5113.9090904,0,4201.06060564,0,4406.60606017,0,4236.60606018,0,4831.09090861,0,4473.06060561,0,42.0,42.0,?
2017-07-31 18:54:35.986088,4532.30302985,0,4244.84848442,0,3962.03030263,0,3932.15151476,0,4320.06060563,0,5235.48484796,0,4187.66666625,0,4357.66666623,0,5127.81818131,0,4196.93939352,0,4425.66666622,0,4235.57575715,0,4849.12121164,0,4491.09090864,0,42.0,42.0,?
2017-07-31 18:54:35.991502,4536.42424197,0,4257.7272723,0,3931.63636324,0,3914.63636324,0,4306.66666624,0,5205.09090857,0,4171.69696928,0,4346.3333329,0,5121.12121161,0,4183.54545413,0,4421.5454541,0,4233.51515109,0,4847.06060558,0,4486.96969652,0,42.0,42.0,?
2017-07-31 18:54:35.993834,4535.39393894,0,4234.03030261,0,3941.93939355,0,3932.66666627,0,4312.84848442,0,5200.96969645,0,4194.36363594,0,4364.36363593,0,5138.63636312,0,4206.72727231,0,4423.09090865,0,4231.45454503,0,4846.54545406,0,4491.60606016,0,42.0,42.0,?
2017-07-31 18:54:35.997705,4535.39393894,0,4246.90909048,0,3954.81818142,0,3935.24242385,0,4303.57575715,0,5190.66666615,0,4192.30302988,0,4362.81818138,0,5140.18181767,0,4203.63636322,0,4424.12121168,0,4238.15151473,0,4850.66666618,0,4501.39393894,0,42.0,42.0,?
2017-07-31 18:54:36.001089,4536.93939349,0,4248.96969654,0,3966.15151475,0,3936.78787839,0,4315.93939351,0,5197.36363584,0,4197.45454503,0,4363.84848441,0,5149.96969645,0,4197.96969655,0,4433.90909047,0,4236.60606018,0,4855.30302982,0,4511.18181773,0,42.0,42.0,?
2017-07-31 18:54:36.003936,4538.48484803,0,4235.06060564,0,3967.18181779,0,3953.27272688,0,4343.24242381,0,5222.09090857,0,4228.87878746,0,4384.96969653,0,5160.27272676,0,4220.63636321,0,4438.03030259,0,4235.06060564,0,4856.33333285,0,4510.66666622,0,42.0,42.0,?
2017-07-31 18:54:36.007084,4529.72727227,0,4246.39393897,0,3935.24242385,0,3932.66666627,0,4320.57575714,0,5208.69696918,0,4216.51515109,0,4365.90909047,0,5126.78787828,0,4204.15151473,0,4412.27272683,0,4238.66666624,0,4840.87878739,0,4489.5454541,0,42.0,42.0,?
2017-07-31 18:54:36.010098,4525.60606015,0,4233.51515109,0,3947.60606021,0,3936.78787839,0,4324.18181775,0,5204.57575706,0,4222.69696927,0,4368.99999956,0,5140.69696918,0,4190.75757534,0,4416.39393895,0,4235.06060564,0,4840.87878739,0,4491.09090864,0,42.0,42.0,?
2017-07-31 18:54:36.013004,4524.57575712,0,4250.51515109,0,3943.99999961,0,3930.60606021,0,4315.93939351,0,5183.96969645,0,4207.75757534,0,4358.18181775,0,5142.24242373,0,4172.21212079,0,4414.84848441,0,4234.03030261,0,4850.15151467,0,4485.42424198,0,42.0,42.0,?
2017-07-31 18:54:36.015978,4518.90909046,0,4252.57575715,0,3934.72727233,0,3920.81818143,0,4305.12121169,0,5164.90909039,0,4175.8181814,0,4341.18181775,0,5118.03030252,0,4182.5151511,0,4406.09090865,0,4231.45454503,0,4839.84848436,0,4476.66666622,0,42.0,42.0,?
2017-07-31 18:54:36.018928,4524.57575712,0,4232.48484806,0,3950.6969693,0,3933.6969693,0,4322.6363632,0,5175.72727221,0,4193.33333291,0,4360.75757532,0,5138.63636312,0,4228.87878746,0,4424.12121168,0,4232.48484806,0,4836.75757527,0,4492.63636319,0,42.0,42.0,?
2017-07-31 18:54:36.023612,4531.78787833,0,4252.57575715,0,3936.27272688,0,3922.87878749,0,4308.7272723,0,5162.33333282,0,4198.48484806,0,4351.99999956,0,5144.30302979,0,4212.39393897,0,4424.12121168,0,4237.63636321,0,4844.99999952,0,4494.18181773,0,42.0,42.0,?
2017-07-31 18:54:36.031257,4533.33333288,0,4240.21212079,0,3959.96969657,0,3940.90909052,0,4321.60606017,0,5159.75757524,0,4209.30302988,0,4359.21212078,0,5146.87878736,0,4197.45454503,0,4439.06060562,0,4235.06060564,0,4863.03030254,0,4495.72727228,0,42.0,42.0,?
2017-07-31 18:54:36.040579,4533.8484844,0,4241.24242382,0,3970.78787839,0,3943.48484809,0,4324.18181775,0,5145.84848433,0,4203.63636322,0,4362.81818138,0,5135.54545403,0,4196.93939352,0,4447.81818137,0,4236.60606018,0,4872.81818133,0,4491.09090864,0,42.0,42.0,?
2017-07-31 18:54:36.047128,4539.51515106,0,4245.36363594,0,3939.36363597,0,3933.18181779,0,4307.18181775,0,5135.54545403,0,4196.93939352,0,4353.54545411,0,5131.93939343,0,4210.33333291,0,4435.45454501,0,4235.06060564,0,4860.45454497,0,4496.24242379,0,42.0,42.0,?
2017-07-31 18:54:36.055327,4542.60606015,0,4232.48484806,0,3947.0909087,0,3946.57575718,0,4317.48484805,0,5153.06060555,0,4221.15151473,0,4374.15151471,0,5164.39393888,0,4237.63636321,0,4442.66666622,0,4232.48484806,0,4859.42424194,0,4515.30302985,0,42.0,42.0,?
2017-07-31 18:54:36.062488,4529.21212076,0,4255.66666624,0,3951.21212082,0,3920.30302991,0,4297.90909048,0,5125.75757525,0,4203.63636322,0,4360.75757532,0,5147.39393888,0,4204.66666625,0,4430.30302986,0,4238.15151473,0,4858.39393891,0,4487.99999955,0,42.0,42.0,?
2017-07-31 18:54:36.072759,4528.69696924,0,4246.39393897,0,3950.18181779,0,3923.393939,0,4303.06060563,0,5104.12121161,0,4202.60606019,0,4355.09090866,0,5140.69696918,0,4186.63636322,0,4433.39393895,0,4237.63636321,0,4860.45454497,0,4479.75757531,0,42.0,42.0,?
2017-07-31 18:54:36.081528,4536.93939349,0,4245.36363594,0,3947.0909087,0,3938.33333294,0,4314.39393896,0,5079.9090904,0,4213.424242,0,4358.69696926,0,5154.09090858,0,4206.21212079,0,4442.15151471,0,4235.06060564,0,4864.57575709,0,4499.33333288,0,42.0,42.0,?
2017-07-31 18:54:36.088730,4534.36363591,0,4254.63636321,0,3952.24242385,0,3926.48484809,0,4299.45454502,0,5034.57575707,0,4197.45454503,0,4349.9393935,0,5142.75757524,0,4215.99999958,0,4430.30302986,0,4231.45454503,0,4860.96969648,0,4499.8484844,0,42.0,42.0,?
2017-07-31 18:54:36.094869,4541.06060561,0,4233.51515109,0,3970.78787839,0,3942.45454506,0,4311.81818139,0,5025.81818132,0,4206.21212079,0,4367.45454502,0,5150.48484797,0,4221.15151473,0,4439.06060562,0,4231.45454503,0,4865.60606012,0,4508.60606016,0,42.0,42.0,?
2017-07-31 18:54:36.102352,4544.66666621,0,4251.54545412,0,3946.57575718,0,3932.66666627,0,4307.18181775,0,4997.48484799,0,4194.87878746,0,4352.51515108,0,5145.33333282,0,4206.72727231,0,4427.21212077,0,4238.15151473,0,4849.63636315,0,4502.93939349,0,42.0,42.0,?
2017-07-31 18:54:36.109670,4534.36363591,0,4245.87878745,0,3954.81818142,0,3930.0909087,0,4312.84848442,0,4970.6969692,0,4205.18181776,0,4353.54545411,0,5155.63636312,0,4210.33333291,0,4428.75757531,0,4234.54545412,0,4850.15151467,0,4493.66666622,0,42.0,42.0,?
2017-07-31 18:54:36.121061,4527.66666621,0,4240.21212079,0,3967.6969693,0,3937.30302991,0,4314.90909048,0,4948.54545405,0,4221.66666624,0,4372.60606017,0,5161.8181813,0,4198.48484806,0,4440.60606016,0,4231.96969655,0,4872.30302982,0,4492.12121167,0,42.0,42.0,?
2017-07-31 18:54:36.126812,4515.30302985,0,4234.03030261,0,3949.66666627,0,3926.99999961,0,4313.87878745,0,4901.66666618,0,4195.90909049,0,4349.9393935,0,5165.42424191,0,4219.60606018,0,4417.42424198,0,4240.21212079,0,4853.75757527,0,4478.21212076,0,42.0,42.0,?
2017-07-31 18:54:36.133108,4515.30302985,0,4234.03030261,0,3949.66666627,0,3943.99999961,0,4313.87878745,0,4880.54545406,0,4208.27272685,0,4356.6363632,0,5165.42424191,0,4219.60606018,0,4425.66666622,0,4240.21212079,0,4847.57575709,0,4483.87878743,0,42.0,42.0,?
2017-07-31 18:54:36.145690,4522.51515106,0,4250.51515109,0,3946.06060567,0,3928.54545415,0,4307.18181775,0,4836.24242376,0,4207.24242382,0,4357.15151472,0,5152.03030252,0,4212.90909049,0,4435.45454501,0,4244.84848442,0,4860.96969648,0,4485.42424198,0,42.0,42.0,?
2017-07-31 18:54:36.148855,4524.06060561,0,4245.87878745,0,3944.51515112,0,3923.90909052,0,4302.54545412,0,4788.33333285,0,4195.90909049,0,4352.51515108,0,5143.78787827,0,4189.21212079,0,4423.60606016,0,4237.63636321,0,4847.06060558,0,4483.36363592,0,42.0,42.0,?
2017-07-31 18:54:36.162733,4519.42424197,0,4234.54545412,0,3948.12121173,0,3940.90909052,0,4315.93939351,0,4759.99999952,0,4204.66666625,0,4360.24242381,0,5167.99999948,0,4199.5151511,0,4418.45454501,0,4236.09090867,0,4838.30302982,0,4485.93939349,0,42.0,42.0,?
2017-07-31 18:54:36.164441,4517.87878743,0,4251.54545412,0,3913.60606021,0,3922.36363597,0,4294.81818139,0,4705.90909044,0,4200.03030261,0,4346.3333329,0,5156.66666615,0,4182.5151511,0,4415.36363592,0,4239.18181776,0,4847.57575709,0,4478.72727228,0,42.0,42.0,?
2017-07-31 18:54:36.171906,4521.48484803,0,4237.1212117,0,3925.96969658,0,3936.78787839,0,4302.0303026,0,4662.63636317,0,4215.48484806,0,4361.27272684,0,5167.48484797,0,4193.84848443,0,4426.69696925,0,4235.57575715,0,4853.24242376,0,4483.87878743,0,42.0,42.0,?
2017-07-31 18:54:36.183569,4519.93939349,0,4249.48484806,0,3938.84848445,0,3939.36363597,0,4298.93939351,0,4611.63636318,0,4202.60606019,0,4359.21212078,0,5166.96969645,0,4200.03030261,0,4422.57575713,0,4240.21212079,0,4846.54545406,0,4474.60606016,0,42.0,42.0,?
2017-07-31 18:54:36.188758,4519.93939349,0,4248.96969654,0,3935.75757536,0,3930.60606021,0,4292.24242381,0,4578.15151469,0,4192.30302988,0,4351.48484805,0,5157.69696918,0,4189.21212079,0,4420.51515107,0,4240.21212079,0,4843.96969649,0,4470.99999955,0,42.0,42.0,?
2017-07-31 18:54:36.195341,4525.09090864,0,4235.57575715,0,3949.66666627,0,3940.90909052,0,4306.66666624,0,4568.87878742,0,4213.424242,0,4369.51515108,0,5173.15151463,0,4205.18181776,0,4426.18181774,0,4238.66666624,0,4849.63636315,0,4481.30302985,0,42.0,42.0,?
2017-07-31 18:54:36.203302,4525.09090864,0,4253.60606018,0,3941.42424203,0,3931.63636324,0,4300.48484805,0,4535.90909046,0,4202.09090867,0,4360.75757532,0,5166.96969645,0,4205.18181776,0,4413.30302986,0,4239.69696927,0,4847.06060558,0,4469.96969652,0,42.0,42.0,?
2017-07-31 18:54:36.211020,4533.8484844,0,4242.27272685,0,3959.45454506,0,3948.63636324,0,4318.51515108,0,4523.54545409,0,4211.87878746,0,4368.99999956,0,5179.33333282,0,4209.30302988,0,4433.90909047,0,4238.66666624,0,4859.42424194,0,4483.87878743,0,42.0,42.0,?
2017-07-31 18:54:36.219572,4541.57575712,0,4250.51515109,0,3969.24242385,0,3949.15151476,0,4313.87878745,0,4495.72727228,0,4217.03030261,0,4368.48484805,0,5181.90909039,0,4207.75757534,0,4452.45454501,0,4243.30302988,0,4872.81818133,0,4501.90909046,0,42.0,42.0,?
2017-07-31 18:54:36.226832,4546.72727227,0,4254.63636321,0,3952.75757536,0,3939.87878748,0,4299.45454502,0,4463.27272683,0,4205.69696928,0,4362.81818138,0,5174.69696918,0,4206.72727231,0,4453.48484804,0,4242.27272685,0,4870.24242376,0,4508.09090864,0,42.0,42.0,?
2017-07-31 18:54:36.234455,4550.33333288,2480.96969672,4239.18181776,0,3956.36363597,0,3955.33333294,0,4316.45454502,0,4460.18181774,0,4217.54545412,0,4381.36363593,0,5190.15151463,0,4219.09090867,0,4455.5454541,0,4238.15151473,0,4865.60606012,0,4509.63636319,0,42.0,42.0,?
2017-07-31 18:54:36.241966,4534.87878743,2480.96969672,4252.06060564,931.393939301,3949.66666627,0,3940.393939,0,4299.96969654,0,4431.33333289,0,4201.57575716,0,4359.21212078,0,5167.48484797,0,4208.27272685,0,4432.87878744,0,4241.24242382,0,4857.87878739,0,4481.30302985,0,42.0,42.0,?
2017-07-31 18:54:36.250747,4536.93939349,2480.96969672,4239.69696927,931.393939301,3954.30302991,0,3945.54545415,0,4304.60606018,0,4414.84848441,0,4204.15151473,0,4355.09090866,0,5164.90909039,0,4214.45454503,0,4439.06060562,0,4241.75757533,0,4859.42424194,0,4480.78787834,3041.45454515,42.0,42.0,?
2017-07-31 18:54:36.258806,4553.93939348,2480.96969672,4247.93939351,931.393939301,3948.63636324,3964.60606021,3946.06060567,0,4315.42424199,0,4394.2424238,0,4217.03030261,0,4365.90909047,0,5179.33333282,0,4207.75757534,0,4446.78787834,0,4242.78787836,0,4860.96969648,0,4496.75757531,3041.45454515,42.0,42.0,?
2017-07-31 18:54:36.266149,4536.93939349,2480.96969672,4257.21212079,931.393939301,3948.63636324,3964.60606021,3933.18181779,90.6666666576,4309.24242381,0,4369.51515108,0,4217.03030261,0,4361.27272684,0,5172.63636312,0,4197.45454503,0,4430.30302986,0,4237.63636321,0,4857.87878739,0,4487.48484804,3041.45454515,42.0,42.0,?
2017-07-31 18:54:36.275778,4530.24242379,2480.96969672,4236.60606018,931.393939301,3968.72727233,3964.60606021,3954.81818142,90.6666666576,4320.57575714,4117.09090868,4372.09090865,0,4232.48484806,0,4375.18181774,0,5186.03030251,0,4219.09090867,0,4444.72727228,0,4235.06060564,0,4868.69696921,0,4493.1515147,3041.45454515,42.0,42.0,?
2017-07-31 18:54:36.281241,4553.93939348,2480.96969672,4254.63636321,931.393939301,3941.93939355,3964.60606021,3947.0909087,90.6666666576,4307.69696927,4117.09090868,4347.87878744,3906.90909052,4215.48484806,0,4361.27272684,0,5179.33333282,0,4191.78787837,0,4443.69696925,0,4241.24242382,0,4864.06060557,0,4497.78787834,3041.45454515,42.0,42.0,?
2017-07-31 18:54:36.289258,4555.48484803,2480.96969672,4247.424242,931.393939301,3942.45454506,3964.60606021,3945.54545415,90.6666666576,4313.36363593,4117.09090868,4334.99999957,3906.90909052,4217.03030261,3127.99999969,4360.24242381,0,5178.8181813,0,4179.93939352,0,4434.42424198,0,4240.21212079,0,4850.15151467,0,4494.69696925,3041.45454515,42.0,42.0,?
2017-07-31 18:54:36.298629,4538.99999955,2480.96969672,4241.75757533,931.393939301,3956.36363597,3964.60606021,3943.99999961,90.6666666576,4309.75757533,4117.09090868,4320.57575714,3906.90909052,4214.96969655,3127.99999969,4363.84848441,2946.66666637,5178.8181813,0,4208.27272685,0,4429.78787834,0,4240.21212079,0,4846.54545406,0,4483.87878743,3041.45454515,42.0,42.0,?
2017-07-31 18:54:36.305161,4535.39393894,2480.96969672,4250.51515109,931.393939301,3950.6969693,3964.60606021,3925.45454506,90.6666666576,4288.63636321,4117.09090868,4294.81818139,3906.90909052,4191.78787837,3127.99999969,4350.45454502,2946.66666637,5165.42424191,2625.21212095,4207.24242382,0,4424.12121168,0,4238.15151473,0,4847.57575709,0,4475.63636319,3041.45454515,42.0,42.0,?
2017-07-31 18:54:36.315392,4538.48484803,2480.96969672,4235.57575715,931.393939301,3970.27272688,3964.60606021,3936.27272688,90.6666666576,4309.75757533,4117.09090868,4303.06060563,3906.90909052,4210.84848443,3127.99999969,4367.96969653,2946.66666637,5183.96969645,2625.21212095,4201.57575716,3432.96969663,4438.03030259,0,4234.54545412,0,4858.39393891,0,4490.06060561,3041.45454515,42.0,42.0,?
2017-07-31 18:54:36.320804,4541.57575712,2480.96969672,4252.57575715,931.393939301,3950.18181779,3964.60606021,3920.81818143,90.6666666576,4299.96969654,4117.09090868,4277.81818139,3906.90909052,4197.96969655,3127.99999969,4352.51515108,2946.66666637,5166.96969645,2625.21212095,4182.5151511,3432.96969663,4435.96969653,3346.42424209,4240.7272723,0,4860.96969648,0,4491.09090864,3041.45454515,42.0,42.0,?
2017-07-31 18:54:36.329403,4552.90909045,2480.96969672,4243.81818139,931.393939301,3940.90909052,3964.60606021,3927.51515112,90.6666666576,4297.90909048,4117.09090868,4247.93939351,3906.90909052,4192.8181814,3127.99999969,4341.18181775,2946.66666637,5163.36363585,2625.21212095,4195.90909049,3432.96969663,4446.27272683,3346.42424209,4238.66666624,8.2424242416,4864.06060557,0,4499.8484844,3041.45454515,42.0,42.0,?
2017-07-31 18:54:36.336674,4548.78787833,2480.96969672,4239.69696927,931.393939301,3959.45454506,3964.60606021,3943.48484809,90.6666666576,4314.39393896,4117.09090868,4228.36363594,3906.90909052,4213.424242,3127.99999969,4355.60606017,2946.66666637,5185.515151,2625.21212095,4212.39393897,3432.96969663,4446.78787834,3346.42424209,4237.1212117,8.2424242416,4863.54545406,2324.36363613,4501.90909046,3041.45454515,42.0,42.0,?
2017-07-31 18:54:36.344410,4527.66666621,2480.96969672,4255.15151473,931.393939301,3942.45454506,3964.60606021,3917.72727234,90.6666666576,4294.81818139,4117.09090868,4188.18181776,3906.90909052,4192.30302988,3127.99999969,4338.09090866,2946.66666637,5161.30302979,2625.21212095,4182.5151511,3437.09090875,4414.33333289,3346.42424209,4236.60606018,8.2424242416,4844.99999952,2324.36363613,4476.66666622,3041.45454515,42.0,42.0,?
2017-07-31 18:54:36.351831,4525.09090864,2480.96969672,4231.96969655,931.393939301,3947.0909087,3964.60606021,3924.42424203,90.6666666576,4294.30302987,4117.09090868,4175.8181814,3906.90909052,4193.84848443,3127.99999969,4341.69696926,2946.66666637,5161.30302979,2625.21212095,4184.57575716,3437.09090875,4425.66666622,3354.66666633,4233.51515109,8.2424242416,4851.1818177,2324.36363613,4475.12121167,3041.45454515,42.0,42.0,?
2017-07-31 18:54:36.362336,4527.66666621,2480.96969672,4246.39393897,931.393939301,3949.15151476,3964.60606021,3923.393939,90.6666666576,4286.57575715,4117.09090868,4158.30302989,3906.90909052,4199.5151511,3127.99999969,4342.21212078,2946.66666637,5166.45454494,2625.21212095,4191.27272685,3437.09090875,4429.27272683,3354.66666633,4239.18181776,0.0,4857.87878739,2324.36363613,4469.45454501,3041.45454515,42.0,42.0,?
2017-07-31 18:54:36.367624,4540.54545409,2480.96969672,4250.51515109,931.393939301,3937.30302991,3964.60606021,3924.42424203,90.6666666576,4295.3333329,4117.09090868,4153.66666625,3906.90909052,4206.21212079,3127.99999969,4348.90909047,2946.66666637,5169.03030251,2625.21212095,4198.48484806,3437.09090875,4425.66666622,3354.66666633,4239.69696927,0.0,4849.63636315,2324.36363613,4470.48484804,3041.45454515,42.0,42.0,?
2017-07-31 18:54:36.376403,4551.36363591,2480.96969672,4240.7272723,931.393939301,3933.6969693,3964.60606021,3935.24242385,90.6666666576,4309.75757533,4117.09090868,4163.45454504,3906.90909052,4218.57575715,3127.99999969,4364.36363593,2946.66666637,5175.21212069,2625.21212095,4201.06060564,3437.09090875,4439.06060562,3354.66666633,4238.66666624,0.0,4854.27272679,2324.36363613,4482.33333289,3041.45454515,42.0,42.0,?
2017-07-31 18:54:36.382861,4528.18181773,2480.96969672,4255.15151473,931.393939301,3940.393939,3964.60606021,3917.21212082,90.6666666576,4285.0303026,4117.09090868,4144.90909049,3906.90909052,4204.15151473,3127.99999969,4341.69696926,2946.66666637,5155.63636312,2625.21212095,4172.72727231,3437.09090875,4422.06060562,3354.66666633,4238.66666624,0.0,4850.15151467,2324.36363613,4464.81818137,3041.45454515,42.0,42.0,?
2017-07-31 18:54:36.390958,4522.51515106,2480.96969672,4238.15151473,931.393939301,3969.24242385,3964.60606021,3928.03030264,90.6666666576,4296.36363593,4117.09090868,4149.03030262,3906.90909052,4209.30302988,3127.99999969,4344.78787835,2946.66666637,5167.48484797,2625.21212095,4185.09090867,3437.09090875,4425.15151471,3354.66666633,4232.99999958,0.0,4848.60606012,2324.36363613,4469.96969652,3041.45454515,42.0,42.0,?
2017-07-31 18:54:36.399758,4540.54545409,2480.96969672,4247.93939351,931.393939301,3942.45454506,3964.60606021,3919.7878784,90.6666666576,4296.87878745,4117.09090868,4143.36363595,3906.90909052,4191.27272685,3127.99999969,4338.09090866,2946.66666637,5157.18181767,2625.21212095,4181.99999958,3437.09090875,4431.33333289,3354.66666633,4236.60606018,0.0,4849.63636315,2324.36363613,4475.63636319,3041.45454515,42.0,42.0,?
2017-07-31 18:54:36.411506,4533.33333288,2480.96969672,4247.93939351,931.393939301,3924.42424203,3964.60606021,3909.99999961,90.6666666576,4289.15151472,4117.09090868,4143.36363595,3906.90909052,4186.1212117,3127.99999969,4328.30302987,2946.66666637,5145.33333282,2625.21212095,4173.75757534,3437.09090875,4421.5454541,3354.66666633,4238.15151473,0.0,4839.33333285,2324.36363613,4462.2424238,3041.45454515,42.0,42.0,?
2017-07-31 18:54:36.418312,4529.72727227,2480.96969672,4234.54545412,931.393939301,3949.15151476,3964.60606021,3935.75757536,90.6666666576,4309.24242381,4117.09090868,4166.54545413,3906.90909052,4217.03030261,3127.99999969,4354.57575714,2946.66666637,5170.57575706,2625.21212095,4202.60606019,3437.09090875,4421.5454541,3354.66666633,4236.09090867,0.0,4836.24242376,2324.36363613,4473.57575713,3041.45454515,42.0,42.0,?
2017-07-31 18:54:36.422493,4543.12121167,2480.96969672,4254.63636321,931.393939301,3934.72727233,3964.60606021,3929.06060567,90.6666666576,4301.51515109,4117.09090868,4158.8181814,3906.90909052,4210.33333291,3127.99999969,4353.03030259,2946.66666637,5165.93939342,2625.21212095,4189.21212079,3437.09090875,4416.90909047,3354.66666633,4237.1212117,0.0,4843.96969649,2324.36363613,4481.81818137,3041.45454515,42.0,42.0,?
2017-07-31 18:54:36.431549,4540.03030258,2480.96969672,4240.21212079,931.393939301,3955.33333294,3964.60606021,3938.33333294,90.6666666576,4313.36363593,4117.09090868,4171.18181776,3906.90909052,4225.78787837,3127.99999969,4366.42424199,2946.66666637,5177.78787827,2625.21212095,4187.66666625,3437.09090875,4432.87878744,3354.66666633,4236.09090867,0.0,4854.7878783,2324.36363613,4483.87878743,3041.45454515,42.0,42.0,?
2017-07-31 18:54:36.438063,4526.12121167,2480.96969672,4248.45454503,931.393939301,3967.6969693,3964.60606021,3934.72727233,90.6666666576,4310.27272684,4117.09090868,4170.15151473,3906.90909052,4223.7272723,3127.99999969,4364.36363593,2946.66666637,5176.75757524,2625.21212095,4195.90909049,3437.09090875,4431.33333289,3354.66666633,4240.7272723,0.0,4846.03030255,2324.36363613,4472.5454541,3041.45454515,42.0,42.0,?
2017-07-31 18:54:36.447246,4529.72727227,2480.96969672,4256.18181776,931.393939301,3949.15151476,3964.60606021,3923.393939,90.6666666576,4293.27272684,4117.09090868,4150.06060565,3906.90909052,4199.5151511,3127.99999969,4343.75757532,2946.66666637,5160.78787827,2625.21212095,4189.72727231,3437.09090875,4421.5454541,3354.66666633,4239.69696927,0.0,4841.90909042,2324.36363613,4470.99999955,3041.45454515,42.0,42.0,?
2017-07-31 18:54:36.452785,4552.90909045,2480.96969672,4237.63636321,931.393939301,3952.24242385,3964.60606021,3946.06060567,90.6666666576,4309.24242381,4117.09090868,4156.75757534,3906.90909052,4220.63636321,3127.99999969,4363.3333329,2946.66666637,5172.63636312,2625.21212095,4196.424242,3437.09090875,4448.33333289,3354.66666633,4236.09090867,0.0,4868.1818177,2324.36363613,4494.69696925,3041.45454515,42.0,42.0,?
2017-07-31 18:54:36.460748,4552.90909045,2480.96969672,4255.66666624,931.393939301,3926.48484809,3964.60606021,3934.21212082,90.6666666576,4294.30302987,4117.09090868,4139.75757534,3906.90909052,4205.69696928,3127.99999969,4347.36363593,2946.66666637,5155.12121161,2625.21212095,4176.33333292,3437.09090875,4436.48484804,3354.66666633,4237.63636321,0.0,4859.42424194,2324.36363613,4487.48484804,3041.45454515,42.0,42.0,?
2017-07-31 18:54:36.469566,4528.69696924,2480.96969672,4246.90909048,931.393939301,3931.12121173,3964.60606021,3932.15151476,90.6666666576,4293.27272684,4117.09090868,4137.69696928,3906.90909052,4198.99999958,3127.99999969,4336.0303026,2946.66666637,5159.24242373,2625.21212095,4178.39393898,3437.09090875,4413.81818138,3354.66666633,4237.1212117,0.0,4831.09090861,2324.36363613,4468.93939349,3041.45454515,42.0,42.0,?
2017-07-31 18:54:36.476770,4515.30302985,2480.96969672,4246.39393897,931.393939301,3942.96969658,3964.60606021,3925.96969658,90.6666666576,4291.21212078,4117.09090868,4139.24242383,3906.90909052,4206.72727231,3127.99999969,4339.12121169,2946.66666637,5163.36363585,2625.21212095,4180.96969655,3437.09090875,4409.69696926,3354.66666633,4240.7272723,0.0,4830.06060558,2324.36363613,4452.45454501,3041.45454515,42.0,42.0,?
2017-07-31 18:54:36.486789,4516.33333288,2480.96969672,4250.51515109,931.393939301,3928.54545415,3964.60606021,3912.06060567,90.6666666576,4283.48484806,4117.09090868,4134.09090868,3906.90909052,4189.72727231,3127.99999969,4326.24242381,2946.66666637,5145.84848433,2625.21212095,4173.24242383,3437.09090875,4401.45454501,3354.66666633,4238.66666624,0.0,4824.39393891,2324.36363613,4444.72727228,3041.45454515,42.0,42.0,?
2017-07-31 18:54:36.495666,4518.90909046,2480.96969672,4232.99999958,931.393939301,3941.93939355,3964.60606021,3936.27272688,90.6666666576,4308.7272723,4117.09090868,4153.15151474,3906.90909052,4201.06060564,3127.99999969,4342.72727229,2946.66666637,5165.42424191,2625.21212095,4181.99999958,3437.09090875,4415.87878744,3354.66666633,4235.06060564,0.0,4831.60606012,2324.36363613,4461.72727228,3041.45454515,42.0,42.0,?
2017-07-31 18:54:36.500666,4513.24242379,2480.96969672,4253.60606018,931.393939301,3925.96969658,3964.60606021,3919.7878784,90.6666666576,4289.15151472,4117.09090868,4129.45454504,3906.90909052,4192.8181814,3127.99999969,4332.93939351,2946.66666637,5151.515151,2625.21212095,4146.96969656,3437.09090875,4414.84848441,3354.66666633,4238.15151473,0.0,4847.57575709,2324.36363613,4450.39393895,3041.45454515,42.0,42.0,?
2017-07-31 18:54:36.509658,4513.75757531,2480.96969672,4241.75757533,931.393939301,3915.66666628,3964.60606021,3907.93939355,90.6666666576,4279.87878745,4117.09090868,4112.96969656,3906.90909052,4184.06060564,3127.99999969,4323.15151472,2946.66666637,5138.63636312,2625.21212095,4144.39393898,3437.09090875,4400.9393935,3354.66666633,4234.54545412,0.0,4838.30302982,2324.36363613,4435.45454501,3041.45454515,42.0,42.0,?
2017-07-31 18:54:36.515649,4519.42424197,2480.96969672,4236.60606018,931.393939301,3917.72727234,3964.60606021,3907.93939355,90.6666666576,4281.93939351,4117.09090868,4111.93939353,3906.90909052,4183.54545413,3127.99999969,4321.09090866,2946.66666637,5142.24242373,2625.21212095,4164.48484807,3437.09090875,4393.72727229,3354.66666633,4236.09090867,0.0,4824.90909043,2324.36363613,4442.15151471,3041.45454515,42.0,42.0,?
2017-07-31 18:54:36.523715,4517.87878743,2480.96969672,4252.57575715,931.393939301,3908.45454506,3964.60606021,3901.75757537,90.6666666576,4264.93939351,4117.09090868,4091.84848444,3906.90909052,4183.03030261,3127.99999969,4316.45454502,2946.66666637,5132.96969646,2625.21212095,4153.15151474,3437.09090875,4399.39393895,3354.66666633,4239.69696927,0.0,4830.57575709,2324.36363613,4447.81818137,3041.45454515,42.0,42.0,?
2017-07-31 18:54:36.535084,4517.36363591,2480.96969672,4234.03030261,931.393939301,3937.81818142,3964.60606021,3932.15151476,90.6666666576,4289.66666624,4117.09090868,4089.78787838,3906.90909052,4221.15151473,3127.99999969,4352.51515108,2946.66666637,5168.515151,2625.21212095,4175.8181814,3437.09090875,4423.60606016,3354.66666633,4237.1212117,0.0,4842.93939346,2324.36363613,4462.2424238,3041.45454515,42.0,42.0,?
2017-07-31 18:54:36.544894,4511.18181773,2480.96969672,4248.45454503,931.393939301,3938.84848445,3964.60606021,3921.33333294,90.6666666576,4288.63636321,4117.09090868,4063.51515111,3906.90909052,4207.75757534,3127.99999969,4341.69696926,2946.66666637,5172.63636312,2625.21212095,4173.24242383,3437.09090875,4407.12121168,3354.66666633,4238.15151473,0.0,4835.72727224,2324.36363613,4448.33333289,3041.45454515,42.0,42.0,?
2017-07-31 18:54:36.550869,4517.36363591,2480.96969672,4245.36363594,931.393939301,3930.60606021,3964.60606021,3916.18181779,90.6666666576,4287.09090866,4117.09090868,4049.09090869,3906.90909052,4194.87878746,3127.99999969,4328.81818139,2946.66666637,5160.78787827,2625.21212095,4163.96969655,3437.09090875,4405.57575714,3354.66666633,4235.06060564,0.0,4837.27272679,2324.36363613,4441.63636319,3041.45454515,42.0,42.0,?
2017-07-31 18:54:36.560878,4528.69696924,2480.96969672,4235.57575715,931.393939301,3937.30302991,3964.60606021,3933.6969693,90.6666666576,4304.60606018,4117.09090868,4050.12121172,3906.90909052,4216.51515109,3127.99999969,4350.45454502,2946.66666637,5167.48484797,2625.21212095,4178.39393898,3437.09090875,4423.09090865,3354.66666633,4235.06060564,0.0,4844.99999952,2324.36363613,4453.99999955,3041.45454515,42.0,42.0,?
2017-07-31 18:54:36.562831,4516.8484844,2480.96969672,4251.54545412,931.393939301,3925.45454506,3964.60606021,3914.63636324,90.6666666576,4292.24242381,4117.09090868,4028.9999996,3906.90909052,4200.03030261,3127.99999969,4331.90909048,2946.66666637,5144.8181813,2625.21212095,4170.66666625,3437.09090875,4393.72727229,3354.66666633,4234.54545412,0.0,4819.75757528,2324.36363613,4444.72727228,3041.45454515,42.0,42.0,?
2017-07-31 18:54:36.572474,4512.21212076,2480.96969672,4238.66666624,931.393939301,3929.06060567,3964.60606021,3921.33333294,90.6666666576,4297.39393896,4117.09090868,4038.27272687,3906.90909052,4197.45454503,3127.99999969,4326.24242381,2946.66666637,5146.87878736,2625.21212095,4172.21212079,3437.09090875,4381.87878744,3354.66666633,4232.48484806,0.0,4807.90909043,2324.36363613,4450.90909046,3041.45454515,42.0,42.0,?
2017-07-31 18:54:36.577933,4516.8484844,2480.96969672,4252.57575715,931.393939301,3917.72727234,3964.60606021,3914.63636324,90.6666666576,4285.54545412,4117.09090868,4035.69696929,3906.90909052,4184.57575716,3127.99999969,4319.0303026,2946.66666637,5142.75757524,2625.21212095,4145.42424201,3437.09090875,4387.54545411,3354.66666633,4239.18181776,0.0,4822.33333285,2324.36363613,4446.78787834,3041.45454515,42.0,42.0,?
2017-07-31 18:54:36.585789,4511.18181773,2480.96969672,4247.93939351,931.393939301,3931.63636324,3964.60606021,3907.93939355,90.6666666576,4286.57575715,4117.09090868,4028.48484808,3906.90909052,4180.45454504,3127.99999969,4316.45454502,2946.66666637,5138.12121161,2625.21212095,4129.45454504,3437.09090875,4401.96969653,3354.66666633,4237.1212117,0.0,4831.60606012,2324.36363613,4441.63636319,3041.45454515,42.0,42.0,?
2017-07-31 18:54:36.595294,4506.54545409,2480.96969672,4235.57575715,931.393939301,3957.393939,3964.60606021,3923.393939,90.6666666576,4305.63636321,4117.09090868,4043.93939353,3906.90909052,4205.18181776,3127.99999969,4334.48484805,2946.66666637,5152.54545403,2625.21212095,4162.93939352,3437.09090875,4411.75757532,3354.66666633,4234.54545412,0.0,4829.54545406,2324.36363613,4450.39393895,3041.45454515,42.0,42.0,?
2017-07-31 18:54:36.602616,4511.18181773,2480.96969672,4253.60606018,931.393939301,3932.66666627,3964.60606021,3911.03030264,90.6666666576,4286.57575715,4117.09090868,4041.87878747,3906.90909052,4198.99999958,3127.99999969,4324.69696926,2946.66666637,5143.27272676,2625.21212095,4172.21212079,3437.09090875,4389.09090865,3354.66666633,4239.18181776,0.0,4813.57575709,2324.36363613,4445.2424238,3041.45454515,42.0,42.0,?
2017-07-31 18:54:36.610102,4534.36363591,2480.96969672,4236.60606018,931.393939301,3920.81818143,3964.60606021,3924.42424203,90.6666666576,4298.42424199,4117.09090868,4054.75757535,3906.90909052,4211.36363594,3127.99999969,4338.60606017,2946.66666637,5158.72727221,2625.21212095,4172.21212079,3437.09090875,4397.33333289,3354.66666633,4238.66666624,0.0,4818.72727225,2324.36363613,4463.78787834,3041.45454515,42.0,42.0,?
2017-07-31 18:54:36.618856,4538.48484803,2480.96969672,4248.96969654,931.393939301,3910.51515112,3964.60606021,3925.96969658,90.6666666576,4300.99999957,4117.09090868,4045.48484808,3906.90909052,4207.24242382,3127.99999969,4336.0303026,2946.66666637,5151.515151,2625.21212095,4152.12121171,3437.09090875,4403.51515107,3354.66666633,4240.21212079,0.0,4832.12121164,2324.36363613,4464.81818137,3041.45454515,42.0,42.0,?
2017-07-31 18:54:36.627308,4506.03030258,2480.96969672,4255.15151473,931.393939301,3933.6969693,3964.60606021,3914.63636324,90.6666666576,4288.63636321,4117.09090868,4031.06060566,3906.90909052,4193.33333291,3127.99999969,4320.06060563,2946.66666637,5130.39393888,2625.21212095,4159.84848443,3437.09090875,4385.99999956,3354.66666633,4238.15151473,0.0,4818.21212073,2324.36363613,4432.87878744,3041.45454515,42.0,42.0,?
2017-07-31 18:54:36.634607,4497.78787834,2480.96969672,4236.09090867,931.393939301,3977.48484809,3964.60606021,3920.30302991,90.6666666576,4299.96969654,4117.09090868,4042.39393899,3906.90909052,4209.30302988,3127.99999969,4340.66666623,2946.66666637,5155.12121161,2625.21212095,4195.90909049,3437.09090875,4398.36363592,3354.66666633,4235.06060564,0.0,4818.21212073,2324.36363613,4434.42424198,3041.45454515,42.0,42.0,?
2017-07-31 18:54:36.644324,4524.06060561,2480.96969672,4253.60606018,931.393939301,3949.15151476,3964.60606021,3900.72727234,90.6666666576,4284.51515109,4117.09090868,4024.87878748,3906.90909052,4199.5151511,3127.99999969,4332.42424199,2946.66666637,5158.2121207,2625.21212095,4170.15151473,3437.09090875,4407.12121168,3354.66666633,4237.1212117,0.0,4832.12121164,2324.36363613,4449.87878743,3041.45454515,42.0,42.0,?
2017-07-31 18:54:36.649911,4534.87878743,2480.96969672,4242.78787836,931.393939301,3956.87878748,3964.60606021,3920.30302991,90.6666666576,4299.45454502,4117.09090868,4030.03030263,3906.90909052,4207.24242382,3127.99999969,4343.75757532,2946.66666637,5166.45454494,2625.21212095,4172.21212079,3437.09090875,4424.12121168,3354.66666633,4238.15151473,0.0,4849.63636315,2324.36363613,4459.66666622,3041.45454515,42.0,42.0,?
2017-07-31 18:54:36.660668,4525.60606015,2480.96969672,4247.93939351,931.393939301,3983.15151475,3964.60606021,3930.60606021,90.6666666576,4306.66666624,4117.09090868,4035.69696929,3906.90909052,4210.84848443,3127.99999969,4354.57575714,2946.66666637,5161.30302979,2625.21212095,4190.24242382,3437.09090875,4430.30302986,3354.66666633,4241.24242382,0.0,4854.27272679,2324.36363613,4458.63636319,3041.45454515,42.0,42.0,?
2017-07-31 18:54:36.665051,4523.03030258,2480.96969672,4254.1212117,931.393939301,3960.48484809,3964.60606021,3913.60606021,90.6666666576,4287.60606018,4117.09090868,4027.96969657,3906.90909052,4198.48484806,3127.99999969,4337.57575714,2946.66666637,5144.8181813,2625.21212095,4175.8181814,3437.09090875,4410.21212077,3354.66666633,4235.57575715,0.0,4834.1818177,2324.36363613,4460.18181774,3041.45454515,42.0,42.0,?
2017-07-31 18:54:36.674101,4530.24242379,2480.96969672,4233.51515109,931.393939301,3959.45454506,3964.60606021,3928.03030264,90.6666666576,4297.39393896,4117.09090868,4045.9999996,3906.90909052,4214.96969655,3127.99999969,4344.78787835,2946.66666637,5163.36363585,2625.21212095,4179.93939352,3437.09090875,4413.30302986,3354.66666633,4232.99999958,0.0,4829.54545406,2324.36363613,4468.93939349,3041.45454515,42.0,42.0,?
2017-07-31 18:54:36.682262,4536.93939349,2480.96969672,4253.09090867,931.393939301,3945.54545415,3964.60606021,3914.63636324,90.6666666576,4285.0303026,4117.09090868,4039.81818141,3906.90909052,4202.60606019,3127.99999969,4332.93939351,2946.66666637,5152.54545403,2625.21212095,4168.09090867,3437.09090875,4408.15151471,3354.66666633,4240.7272723,0.0,4827.484848,2324.36363613,4454.51515107,3041.45454515,42.0,42.0,?
2017-07-31 18:54:36.688238,4543.63636318,2480.96969672,4246.39393897,931.393939301,3934.21212082,3964.60606021,3912.57575718,90.6666666576,4288.63636321,4117.09090868,4040.33333293,3906.90909052,4200.03030261,3127.99999969,4334.48484805,2946.66666637,5147.90909039,2625.21212095,4144.39393898,3437.09090875,4422.57575713,3354.66666633,4238.15151473,0.0,4834.69696921,2324.36363613,4462.2424238,3041.45454515,42.0,42.0,?
2017-07-31 18:54:36.695899,4527.1515147,2480.96969672,4243.30302988,931.393939301,3952.75757536,3964.60606021,3916.18181779,90.6666666576,4290.69696927,4117.09090868,4034.66666626,3906.90909052,4207.24242382,3127.99999969,4337.57575714,2946.66666637,5142.75757524,2625.21212095,4124.30302989,3437.09090875,4428.75757531,3354.66666633,4236.60606018,0.0,4840.36363588,2324.36363613,4460.18181774,3041.45454515,42.0,42.0,?
2017-07-31 18:54:36.707790,4513.75757531,2480.96969672,4252.57575715,931.393939301,3971.81818142,3964.60606021,3911.54545415,90.6666666576,4281.93939351,4117.09090868,4016.12121172,3906.90909052,4208.27272685,3127.99999969,4331.90909048,2946.66666637,5135.03030252,2625.21212095,4156.75757534,3437.09090875,4402.48484804,3354.66666633,4236.09090867,0.0,4820.78787831,2324.36363613,4442.66666622,3041.45454515,42.0,42.0,?
2017-07-31 18:54:36.712346,4546.21212076,2480.96969672,4237.63636321,931.393939301,3955.84848445,3964.60606021,3931.12121173,90.6666666576,4306.15151472,4117.09090868,4033.63636323,3906.90909052,4235.06060564,3127.99999969,4359.72727229,2946.66666637,5164.90909039,2625.21212095,4198.48484806,3437.09090875,4423.60606016,3354.66666633,4232.48484806,0.0,4830.06060558,2324.36363613,4478.72727228,3041.45454515,42.0,42.0,?
2017-07-31 18:54:36.718624,4552.39393894,2480.96969672,4253.60606018,931.393939301,3925.45454506,3964.60606021,3912.57575718,90.6666666576,4294.30302987,4117.09090868,4029.51515111,3906.90909052,4219.09090867,3127.99999969,4347.36363593,2946.66666637,5150.48484797,2625.21212095,4147.99999959,3437.09090875,4426.69696925,3354.66666633,4236.60606018,0.0,4838.30302982,2324.36363613,4482.33333289,3041.45454515,42.0,42.0,?
2017-07-31 18:54:36.727667,4523.03030258,2480.96969672,4245.87878745,931.393939301,3984.18181778,3964.60606021,3916.69696931,90.6666666576,4293.78787836,4117.09090868,4030.03030263,3906.90909052,4215.99999958,3127.99999969,4344.78787835,2946.66666637,5144.8181813,2625.21212095,4139.75757534,3437.09090875,4417.9393935,3354.66666633,4237.63636321,0.0,4840.87878739,2324.36363613,4449.87878743,3041.45454515,42.0,42.0,?
2017-07-31 18:54:36.735053,4532.81818136,2480.96969672,4243.81818139,931.393939301,3994.9999996,3964.60606021,3934.72727233,90.6666666576,4303.57575715,4117.09090868,4037.24242384,3906.90909052,4225.78787837,3127.99999969,4360.75757532,2946.66666637,5168.515151,2625.21212095,4188.69696928,3437.09090875,4434.9393935,3354.66666633,4239.18181776,0.0,4858.90909042,2324.36363613,4459.66666622,3041.45454515,42.0,42.0,?
2017-07-31 18:54:36.745113,4551.36363591,2390.30303006,4257.21212079,931.393939301,3923.90909052,3964.60606021,3915.66666628,90.6666666576,4286.57575715,4117.09090868,4026.42424202,3906.90909052,4197.45454503,3127.99999969,4338.60606017,2946.66666637,5155.63636312,2625.21212095,4183.03030261,3437.09090875,4435.96969653,3354.66666633,4237.1212117,0.0,4849.63636315,2324.36363613,4473.57575713,3041.45454515,42.0,42.0,?
2017-07-31 18:54:36.755463,4535.39393894,2390.30303006,4237.1212117,956.121212026,3960.9999996,3964.60606021,3925.96969658,90.6666666576,4303.06060563,4117.09090868,4044.96969657,3906.90909052,4209.30302988,3127.99999969,4344.78787835,2946.66666637,5152.03030252,2625.21212095,4155.2121208,3437.09090875,4427.72727228,3354.66666633,4234.54545412,0.0,4833.15151467,2324.36363613,4462.75757531,3041.45454515,42.0,42.0,?
2017-07-31 18:54:36.761530,4523.03030258,2390.30303006,4255.66666624,956.121212026,3994.9999996,3964.60606021,3919.7878784,90.6666666576,4292.24242381,4117.09090868,4043.93939353,3906.90909052,4209.30302988,3127.99999969,4337.06060563,2946.66666637,5133.48484797,2625.21212095,4116.06060565,3437.09090875,4419.99999956,3354.66666633,4240.7272723,0.0,4849.12121164,2324.36363613,4451.42424198,2991.9999997,42.0,42.0,?
2017-07-31 18:54:36.765555,4538.48484803,2390.30303006,4253.60606018,956.121212026,3971.30302991,4100.6060602,3920.30302991,90.6666666576,4288.12121169,4117.09090868,4042.39393899,3906.90909052,4198.99999958,3127.99999969,4328.81818139,2946.66666637,5134.515151,2625.21212095,4140.27272686,3437.09090875,4436.99999956,3354.66666633,4237.63636321,0.0,4864.57575709,2324.36363613,4469.45454501,2991.9999997,42.0,42.0,?
2017-07-31 18:54:36.773728,4541.06060561,2390.30303006,4237.63636321,956.121212026,3973.87878748,4100.6060602,3935.75757536,82.424242416,4310.27272684,4117.09090868,4049.09090869,3906.90909052,4206.21212079,3127.99999969,4340.15151472,2946.66666637,5162.84848433,2625.21212095,4205.69696928,3437.09090875,4422.57575713,3354.66666633,4234.54545412,0.0,4830.57575709,2324.36363613,4471.51515107,2991.9999997,42.0,42.0,?
2017-07-31 18:54:36.781763,4530.24242379,2390.30303006,4252.57575715,956.121212026,3971.81818142,4100.6060602,3917.21212082,82.424242416,4296.87878745,4121.2121208,4032.6060602,3906.90909052,4193.84848443,3127.99999969,4325.72727229,2946.66666637,5152.54545403,2625.21212095,4190.75757534,3437.09090875,4385.99999956,3354.66666633,4237.1212117,0.0,4800.1818177,2324.36363613,4454.51515107,2991.9999997,42.0,42.0,?
2017-07-31 18:54:36.790512,4548.27272682,2390.30303006,4241.75757533,956.121212026,3984.6969693,4100.6060602,3930.0909087,82.424242416,4303.06060563,4121.2121208,4049.6060602,4042.9090905,4218.06060564,3127.99999969,4345.81818138,2946.66666637,5161.30302979,2625.21212095,4166.54545413,3437.09090875,4431.84848441,3354.66666633,4237.63636321,0.0,4841.90909042,2324.36363613,4480.78787834,2991.9999997,42.0,42.0,?
2017-07-31 18:54:36.796650,4561.1515147,2390.30303006,4255.66666624,956.121212026,3985.21212081,4100.6060602,3929.57575718,82.424242416,4301.51515109,4121.2121208,4059.9090905,4042.9090905,4231.96969655,3152.72727241,4357.15151472,2946.66666637,5161.30302979,2625.21212095,4171.69696928,3437.09090875,4465.33333289,3354.66666633,4242.78787836,0.0,4882.60606012,2324.36363613,4489.03030258,2991.9999997,42.0,42.0,?
2017-07-31 18:54:36.805796,4545.69696924,2390.30303006,4253.60606018,956.121212026,3993.45454506,4100.6060602,3925.45454506,82.424242416,4300.99999957,4121.2121208,4066.6060602,4042.9090905,4230.424242,3152.72727241,4353.03030259,2959.03030273,5163.87878736,2625.21212095,4203.63636322,3437.09090875,4439.06060562,3354.66666633,4239.18181776,0.0,4866.12121163,2324.36363613,4477.18181773,2991.9999997,42.0,42.0,?
2017-07-31 18:54:36.816641,4538.48484803,2390.30303006,4239.69696927,956.121212026,4015.09090869,4100.6060602,3940.90909052,82.424242416,4313.87878745,4121.2121208,4083.09090868,4042.9090905,4232.99999958,3152.72727241,4357.66666623,2959.03030273,5195.30302978,2695.272727,4228.87878746,3437.09090875,4422.06060562,3354.66666633,4232.48484806,0.0,4836.75757527,2324.36363613,4481.30302985,2991.9999997,42.0,42.0,?
2017-07-31 18:54:36.821525,4546.21212076,2390.30303006,4256.69696927,956.121212026,3982.12121172,4100.6060602,3922.87878749,82.424242416,4294.30302987,4121.2121208,4074.33333293,4042.9090905,4207.75757534,3152.72727241,4333.45454502,2959.03030273,5157.18181767,2695.272727,4184.06060564,3284.60606028,4421.03030259,3354.66666633,4234.03030261,0.0,4831.09090861,2324.36363613,4473.57575713,2991.9999997,42.0,42.0,?
2017-07-31 18:54:36.830068,4555.99999954,2390.30303006,4244.84848442,956.121212026,3961.51515112,4100.6060602,3924.93939355,82.424242416,4302.54545412,4121.2121208,4094.93939353,4042.9090905,4221.15151473,3152.72727241,4341.18181775,2959.03030273,5132.45454494,2695.272727,4178.39393898,3284.60606028,4435.96969653,3367.03030269,4238.15151473,0.0,4848.60606012,2324.36363613,4487.48484804,2991.9999997,42.0,42.0,?
2017-07-31 18:54:36.838862,4545.69696924,2390.30303006,4252.57575715,956.121212026,3968.21212082,4100.6060602,3922.36363597,82.424242416,4306.15151472,4121.2121208,4109.36363595,4042.9090905,4228.87878746,3152.72727241,4347.87878744,2959.03030273,5169.54545403,2695.272727,4209.30302988,3284.60606028,4425.66666622,3367.03030269,4245.36363594,4.1212121208,4853.24242376,2324.36363613,4489.03030258,2991.9999997,42.0,42.0,?
2017-07-31 18:54:36.845738,4529.21212076,2390.30303006,4255.15151473,956.121212026,3991.39393899,4100.6060602,3918.24242385,82.424242416,4299.96969654,4121.2121208,4099.06060565,4042.9090905,4209.30302988,3152.72727241,4337.06060563,2959.03030273,5188.60606009,2695.272727,4221.15151473,3284.60606028,4408.66666623,3367.03030269,4239.18181776,4.1212121208,4838.81818133,2377.9393937,4468.93939349,2991.9999997,42.0,42.0,?
2017-07-31 18:54:36.853192,4535.90909046,2390.30303006,4242.78787836,956.121212026,4012.51515111,4100.6060602,3933.6969693,82.424242416,4311.81818139,4121.2121208,4104.72727232,4042.9090905,4211.36363594,3152.72727241,4348.39393896,2959.03030273,5172.63636312,2695.272727,4222.69696927,3280.48484816,4430.81818138,3367.03030269,4230.424242,4.1212121208,4850.15151467,2377.9393937,4480.78787834,2991.9999997,42.0,42.0,?
2017-07-31 18:54:36.861214,4551.87878742,2390.30303006,4256.69696927,956.121212026,3976.96969657,4100.6060602,3919.27272688,82.424242416,4295.84848442,4121.2121208,4107.81818141,4042.9090905,4206.21212079,3152.72727241,4336.0303026,2959.03030273,5171.09090857,2695.272727,4204.15151473,3280.48484816,4438.03030259,3371.15151481,4238.15151473,4.1212121208,4865.0909086,2377.9393937,4492.63636319,2991.9999997,42.0,42.0,?
2017-07-31 18:54:36.868597,4554.96969651,2390.30303006,4242.78787836,956.121212026,3964.60606021,4100.6060602,3930.60606021,82.424242416,4302.54545412,4121.2121208,4133.57575716,4042.9090905,4220.63636321,3152.72727241,4343.24242381,2959.03030273,5231.36363584,2695.272727,4234.03030261,3280.48484816,4441.63636319,3371.15151481,4243.81818139,4.1212121208,4861.99999951,2377.9393937,4499.8484844,2991.9999997,42.0,42.0,?
2017-07-31 18:54:36.878443,4536.42424197,2390.30303006,4247.93939351,956.121212026,3988.81818142,4100.6060602,3939.36363597,82.424242416,4310.27272684,4121.2121208,4146.96969656,4042.9090905,4228.36363594,3152.72727241,4361.78787835,2959.03030273,5224.66666614,2695.272727,4252.06060564,3280.48484816,4439.06060562,3371.15151481,4242.78787836,4.1212121208,4850.66666618,2377.9393937,4486.96969652,2991.9999997,42.0,42.0,?
2017-07-31 18:54:36.883524,4530.7575753,2390.30303006,4258.24242382,956.121212026,3998.60606021,4100.6060602,3928.54545415,82.424242416,4309.75757533,4121.2121208,4150.06060565,4042.9090905,4235.57575715,3152.72727241,4364.87878744,2959.03030273,5198.39393887,2695.272727,4225.27272685,3280.48484816,4425.15151471,3371.15151481,4234.03030261,4.1212121208,4839.84848436,2377.9393937,4469.96969652,2991.9999997,42.0,42.0,?
2017-07-31 18:54:36.894610,4548.27272682,2390.30303006,4243.81818139,956.121212026,3992.93939354,4100.6060602,3939.87878748,82.424242416,4325.72727229,4121.2121208,4174.27272686,4042.9090905,4263.90909048,3152.72727241,4374.15151471,2959.03030273,5256.60606008,2695.272727,4232.48484806,3280.48484816,4429.78787834,3371.15151481,4235.06060564,4.1212121208,4851.69696921,2377.9393937,4482.33333289,2991.9999997,42.0,42.0,?
2017-07-31 18:54:36.898540,4545.18181773,2390.30303006,4257.21212079,956.121212026,3969.24242385,4100.6060602,3929.57575718,82.424242416,4310.27272684,4121.2121208,4167.57575716,4042.9090905,4246.39393897,3152.72727241,4360.75757532,2959.03030273,5258.66666614,2695.272727,4231.96969655,3280.48484816,4422.57575713,3371.15151481,4244.33333291,4.1212121208,4860.45454497,2377.9393937,4481.30302985,2991.9999997,42.0,42.0,?
2017-07-31 18:54:36.906908,4525.60606015,2390.30303006,4249.99999958,956.121212026,3985.21212081,4100.6060602,3930.60606021,82.424242416,4312.3333329,4121.2121208,4159.33333292,4042.9090905,4245.87878745,3152.72727241,4364.36363593,2959.03030273,5243.7272722,2695.272727,4238.15151473,3280.48484816,4426.69696925,3371.15151481,4239.18181776,4.1212121208,4855.81818133,2377.9393937,4471.51515107,2991.9999997,42.0,42.0,?
2017-07-31 18:54:36.918328,4530.24242379,2390.30303006,4241.24242382,956.121212026,3999.12121172,4100.6060602,3938.33333294,82.424242416,4321.60606017,4121.2121208,4150.06060565,4042.9090905,4262.87878745,3152.72727241,4373.12121168,2959.03030273,5278.75757523,2695.272727,4257.21212079,3280.48484816,4443.69696925,3371.15151481,4237.1212117,4.1212121208,4861.484848,2377.9393937,4482.33333289,2991.9999997,42.0,42.0,?
2017-07-31 18:54:36.925809,4547.24242379,2390.30303006,4267.51515109,956.121212026,3962.03030263,4100.6060602,3916.69696931,82.424242416,4292.75757533,4121.2121208,4122.24242383,4042.9090905,4231.45454503,3152.72727241,4348.39393896,2959.03030273,5261.24242372,2695.272727,4239.18181776,3280.48484816,4434.42424198,3371.15151481,4240.21212079,4.1212121208,4863.54545406,2377.9393937,4489.5454541,2991.9999997,42.0,42.0,?
2017-07-31 18:54:36.929978,4550.84848439,2390.30303006,4271.12121169,956.121212026,3949.66666627,4100.6060602,3907.42424203,82.424242416,4282.45454503,4121.2121208,4121.72727232,4042.9090905,4206.21212079,3152.72727241,4336.54545411,2959.03030273,5212.30302978,2695.272727,4219.09090867,3280.48484816,4427.72727228,3371.15151481,4237.63636321,4.1212121208,4857.36363588,2377.9393937,4482.8484844,2991.9999997,42.0,42.0,?
2017-07-31 18:54:36.937440,4559.60606015,2390.30303006,4200.54545413,956.121212026,4047.03030263,4100.6060602,3986.75757536,82.424242416,4363.3333329,4121.2121208,4188.18181776,4042.9090905,4277.81818139,3152.72727241,4410.72727229,2959.03030273,5281.33333281,2695.272727,4310.78787836,3280.48484816,4483.36363592,3371.15151481,4240.21212079,4.1212121208,4882.60606012,2377.9393937,4520.96969652,2991.9999997,42.0,42.0,?
2017-07-31 18:54:36.948443,4537.454545,2390.30303006,4295.3333329,956.121212026,3986.75757536,4100.6060602,3929.06060567,82.424242416,4299.45454502,4121.2121208,4136.66666625,4042.9090905,4225.78787837,3152.72727241,4359.72727229,2959.03030273,5247.84848432,2695.272727,4263.39393897,3280.48484816,4427.21212077,3371.15151481,4243.81818139,4.1212121208,4856.33333285,2377.9393937,4474.60606016,2991.9999997,42.0,42.0,?
2017-07-31 18:54:36.955002,4508.09090864,2390.30303006,4365.90909047,956.121212026,3839.42424204,4100.6060602,3803.8787875,82.424242416,4175.8181814,4121.2121208,4049.6060602,4042.9090905,4100.6060602,3152.72727241,4219.60606018,2959.03030273,5126.27272676,2695.272727,4120.18181777,3280.48484816,4328.81818139,3371.15151481,4235.57575715,4.1212121208,4795.03030255,2377.9393937,4404.03030259,2991.9999997,42.0,42.0,?
2017-07-31 18:54:36.961477,4592.0606056,2390.30303006,4056.81818141,956.121212026,4118.63636322,4100.6060602,4084.63636323,82.424242416,4463.78787834,4121.2121208,4303.57575715,4042.9090905,4379.30302987,3152.72727241,4481.81818137,2959.03030273,5418.36363582,2695.272727,4400.42424198,3280.48484816,4577.12121166,3371.15151481,4227.84848443,4.1212121208,4931.54545405,2377.9393937,4613.69696924,2991.9999997,42.0,42.0,?
2017-07-31 18:54:36.968916,4611.63636318,2390.30303006,4107.30302989,956.121212026,4187.66666625,4100.6060602,4127.9090905,82.424242416,4513.24242379,4121.2121208,4347.36363593,4042.9090905,4450.90909046,3152.72727241,4574.03030257,2959.03030273,5477.60606006,2695.272727,4466.87878743,3280.48484816,4616.27272681,3371.15151481,4236.60606018,4.1212121208,4971.21212072,2377.9393937,4636.87878742,2991.9999997,42.0,42.0,?
2017-07-31 18:54:36.976434,4534.36363591,2390.30303006,4336.0303026,956.121212026,3924.42424203,4100.6060602,3855.39393901,82.424242416,4238.15151473,4121.2121208,4120.69696928,4042.9090905,4174.78787837,3152.72727241,4310.78787836,2959.03030273,5167.99999948,2695.272727,4196.93939352,3280.48484816,4379.81818138,3371.15151481,4238.66666624,4.1212121208,4840.87878739,2377.9393937,4440.09090865,2991.9999997,42.0,42.0,?
2017-07-31 18:54:36.986497,4551.36363591,2390.30303006,4175.30302989,956.121212026,4026.93939354,4100.6060602,3968.21212082,82.424242416,4339.6363632,4121.2121208,4217.54545412,4042.9090905,4266.48484806,3152.72727241,4386.51515108,2959.03030273,5285.96969644,2695.272727,4300.48484805,3280.48484816,4477.69696925,3371.15151481,4234.54545412,4.1212121208,4888.27272678,2377.9393937,4517.36363591,2991.9999997,42.0,42.0,?
2017-07-31 18:54:36.992857,4567.84848439,2390.30303006,4196.424242,956.121212026,4054.75757535,4100.6060602,4000.15151475,82.424242416,4370.54545411,4121.2121208,4251.03030261,4042.9090905,4305.63636321,3152.72727241,4419.99999956,2959.03030273,5368.39393886,2695.272727,4338.09090866,3280.48484816,4504.99999955,3371.15151481,4239.18181776,4.1212121208,4898.57575709,2377.9393937,4551.36363591,2991.9999997,42.0,42.0,?
2017-07-31 18:54:37.000519,4575.0606056,2390.30303006,4200.03030261,956.121212026,4014.06060566,4100.6060602,3977.9999996,82.424242416,4350.45454502,4121.2121208,4236.09090867,4042.9090905,4270.09090866,3152.72727241,4390.6363632,2959.03030273,5321.51515098,2695.272727,4313.36363593,3280.48484816,4478.21212076,3371.15151481,4235.06060564,4.1212121208,4875.90909042,2377.9393937,4546.21212076,2991.9999997,42.0,42.0,?
2017-07-31 18:54:37.010364,4577.12121166,2390.30303006,4132.03030262,956.121212026,4093.9090905,4100.6060602,4060.93939353,82.424242416,4429.27272683,4121.2121208,4306.66666624,4042.9090905,4358.69696926,3152.72727241,4483.87878743,2959.03030273,5384.87878734,2695.272727,4397.33333289,3280.48484816,4539.51515106,3371.15151481,4233.51515109,4.1212121208,4915.06060557,2377.9393937,4580.21212075,2991.9999997,42.0,42.0,?
2017-07-31 18:54:37.015972,4525.09090864,2390.30303006,4256.69696927,956.121212026,3981.60606021,4100.6060602,3933.18181779,82.424242416,4298.93939351,4121.2121208,4210.84848443,4042.9090905,4249.99999958,3152.72727241,4375.18181774,2959.03030273,5268.45454493,2695.272727,4262.87878745,3280.48484816,4438.03030259,3371.15151481,4239.69696927,4.1212121208,4870.75757527,2377.9393937,4475.12121167,2991.9999997,42.0,42.0,?
2017-07-31 18:54:37.023903,4550.33333288,2390.30303006,4195.39393897,956.121212026,3981.09090869,4100.6060602,3946.06060567,82.424242416,4316.96969654,4121.2121208,4239.69696927,4042.9090905,4251.54545412,3152.72727241,4374.15151471,2959.03030273,5278.24242371,2695.272727,4240.7272723,3280.48484816,4466.87878743,3371.15151481,4234.03030261,4.1212121208,4887.24242375,2377.9393937,4503.96969652,2991.9999997,42.0,42.0,?
2017-07-31 18:54:37.033213,4564.7575753,2390.30303006,4218.57575715,956.121212026,3987.78787839,4100.6060602,3955.33333294,82.424242416,4327.27272684,4121.2121208,4252.06060564,4042.9090905,4253.60606018,3152.72727241,4378.78787835,2959.03030273,5315.84848432,2695.272727,4255.66666624,3280.48484816,4463.27272683,3371.15151481,4236.09090867,4.1212121208,4873.84848436,2377.9393937,4515.30302985,2991.9999997,42.0,42.0,?
2017-07-31 18:54:37.041626,4504.99999955,2390.30303006,4336.54545411,956.121212026,3896.60606022,4100.6060602,3828.60606022,82.424242416,4196.424242,4121.2121208,4142.84848443,4042.9090905,4121.72727232,3152.72727241,4243.30302988,2959.03030273,5206.1212116,2695.272727,4169.63636322,3280.48484816,4328.81818139,3371.15151481,4240.21212079,4.1212121208,4784.72727225,2377.9393937,4407.12121168,2991.9999997,42.0,42.0,?
2017-07-31 18:54:37.048417,4519.42424197,2390.30303006,4222.69696927,956.121212026,3992.42424203,4100.6060602,3919.27272688,82.424242416,4291.21212078,4121.2121208,4223.7272723,4042.9090905,4212.39393897,3152.72727241,4326.24242381,2959.03030273,5280.81818129,2695.272727,4258.75757533,3280.48484816,4408.15151471,3371.15151481,4230.93939352,4.1212121208,4827.484848,2377.9393937,4463.27272683,2991.9999997,42.0,42.0,?
2017-07-31 18:54:37.054779,4548.78787833,2390.30303006,4213.424242,956.121212026,3975.93939354,4100.6060602,3946.57575718,82.424242416,4324.69696926,4121.2121208,4257.7272723,4042.9090905,4255.15151473,3152.72727241,4366.9393935,2959.03030273,5307.60606008,2695.272727,4270.09090866,3280.48484816,4456.06060561,3371.15151481,4232.99999958,4.1212121208,4864.06060557,2377.9393937,4501.90909046,2991.9999997,42.0,42.0,?
2017-07-31 18:54:37.064682,4527.1515147,2390.30303006,4260.30302988,956.121212026,3896.60606022,4100.6060602,3874.96969658,82.424242416,4249.48484806,4121.2121208,4209.8181814,4042.9090905,4188.69696928,3152.72727241,4298.93939351,2959.03030273,5231.36363584,2695.272727,4198.99999958,3280.48484816,4391.15151471,3371.15151481,4234.03030261,4.1212121208,4819.24242376,2377.9393937,4454.51515107,2991.9999997,42.0,42.0,?
2017-07-31 18:54:37.071973,4524.06060561,2390.30303006,4226.30302988,956.121212026,3967.6969693,4100.6060602,3910.51515112,82.424242416,4284.51515109,4121.2121208,4250.51515109,4042.9090905,4228.36363594,3152.72727241,4341.69696926,2959.03030273,5260.7272722,2695.272727,4232.99999958,3280.48484816,4409.18181774,3371.15151481,4232.99999958,4.1212121208,4823.8787874,2377.9393937,4464.81818137,2991.9999997,42.0,42.0,?
2017-07-31 18:54:37.079976,4533.33333288,2390.30303006,4243.30302988,956.121212026,3969.24242385,4100.6060602,3909.99999961,82.424242416,4292.75757533,4121.2121208,4253.09090867,4042.9090905,4229.90909049,3152.72727241,4344.78787835,2959.03030273,5271.54545402,2695.272727,4251.03030261,3280.48484816,4416.39393895,3371.15151481,4236.09090867,4.1212121208,4837.7878783,2377.9393937,4469.96969652,2991.9999997,42.0,42.0,?
2017-07-31 18:54:37.087778,4528.69696924,2390.30303006,4235.57575715,956.121212026,3944.51515112,4100.6060602,3907.93939355,82.424242416,4289.66666624,4121.2121208,4252.57575715,4042.9090905,4218.06060564,3152.72727241,4331.39393896,2959.03030273,5276.69696917,2695.272727,4259.78787836,3280.48484816,4419.99999956,3371.15151481,4233.51515109,4.1212121208,4844.484848,2377.9393937,4473.06060561,2991.9999997,42.0,42.0,?
2017-07-31 18:54:37.095408,4526.63636318,2390.30303006,4231.96969655,956.121212026,3960.48484809,4100.6060602,3916.18181779,82.424242416,4291.21212078,4121.2121208,4269.06060563,4042.9090905,4222.18181776,3152.72727241,4342.72727229,2959.03030273,5273.09090856,2695.272727,4246.90909048,3280.48484816,4440.09090865,3371.15151481,4236.60606018,4.1212121208,4861.484848,2377.9393937,4473.57575713,2991.9999997,42.0,42.0,?
2017-07-31 18:54:37.101794,4538.48484803,2390.30303006,4239.18181776,956.121212026,3963.06060566,4100.6060602,3913.0909087,82.424242416,4290.18181775,4121.2121208,4269.57575715,4042.9090905,4220.1212117,3152.72727241,4346.3333329,2959.03030273,5268.96969644,2695.272727,4240.7272723,3280.48484816,4440.09090865,3371.15151481,4237.63636321,4.1212121208,4862.51515103,2377.9393937,4470.99999955,2991.9999997,42.0,42.0,?
2017-07-31 18:54:37.111431,4544.66666621,2390.30303006,4234.03030261,956.121212026,3946.06060567,4100.6060602,3916.18181779,82.424242416,4294.81818139,4121.2121208,4265.45454503,4042.9090905,4218.57575715,3152.72727241,4342.72727229,2959.03030273,5294.21212068,2695.272727,4286.57575715,3280.48484816,4417.9393935,3371.15151481,4234.54545412,4.1212121208,4835.21212073,2377.9393937,4482.8484844,2991.9999997,42.0,42.0,?
2017-07-31 18:54:37.118790,4534.87878743,2390.30303006,4241.24242382,956.121212026,3942.45454506,4100.6060602,3903.30302991,82.424242416,4281.93939351,4121.2121208,4258.75757533,4042.9090905,4202.09090867,3152.72727241,4326.24242381,2959.03030273,5286.99999947,2695.272727,4305.12121169,3280.48484816,4399.90909047,3371.15151481,4235.57575715,4.1212121208,4820.27272679,2377.9393937,4483.36363592,2991.9999997,42.0,42.0,?
2017-07-31 18:54:37.125404,4524.06060561,2390.30303006,4239.18181776,956.121212026,3962.54545415,4100.6060602,3900.21212082,82.424242416,4282.96969654,4121.2121208,4269.06060563,4042.9090905,4201.06060564,3152.72727241,4331.39393896,2959.03030273,5260.7272722,2695.272727,4265.96969654,3280.48484816,4421.03030259,3371.15151481,4231.96969655,4.1212121208,4838.30302982,2377.9393937,4468.93939349,2991.9999997,42.0,42.0,?
2017-07-31 18:54:37.135373,4525.60606015,2390.30303006,4238.66666624,956.121212026,3961.51515112,4100.6060602,3901.75757537,82.424242416,4294.30302987,4121.2121208,4279.87878745,4042.9090905,4211.36363594,3152.72727241,4337.57575714,2959.03030273,5271.54545402,2695.272727,4244.33333291,3280.48484816,4429.27272683,3371.15151481,4231.96969655,4.1212121208,4847.57575709,2377.9393937,4460.69696925,2991.9999997,42.0,42.0,?
2017-07-31 18:54:37.143935,4538.48484803,2390.30303006,4239.18181776,956.121212026,3940.90909052,4100.6060602,3895.57575719,82.424242416,4297.39393896,4121.2121208,4286.06060563,4042.9090905,4217.03030261,3152.72727241,4330.36363593,2959.03030273,5300.90909038,2695.272727,4253.09090867,3280.48484816,4409.69696926,3371.15151481,4234.54545412,4.1212121208,4839.84848436,2377.9393937,4472.03030258,2991.9999997,42.0,42.0,?
2017-07-31 18:54:37.150879,4538.48484803,2390.30303006,4232.99999958,956.121212026,3944.51515112,4100.6060602,3897.12121173,82.424242416,4297.39393896,4121.2121208,4299.45454502,4042.9090905,4229.39393897,3152.72727241,4337.57575714,2959.03030273,5297.30302977,2695.272727,4261.33333291,3280.48484816,4408.15151471,3371.15151481,4234.54545412,4.1212121208,4836.75757527,2377.9393937,4480.78787834,2991.9999997,42.0,42.0,?
2017-07-31 18:54:37.158324,4534.36363591,2390.30303006,4239.18181776,956.121212026,3970.27272688,4100.6060602,3903.81818143,82.424242416,4290.18181775,4121.2121208,4307.69696927,4042.9090905,4232.48484806,3152.72727241,4344.78787835,2959.03030273,5275.15151462,2695.272727,4269.57575715,3280.48484816,4422.06060562,3371.15151481,4236.09090867,4.1212121208,4841.90909042,2377.9393937,4468.42424198,2991.9999997,42.0,42.0,?
2017-07-31 18:54:37.168904,4526.63636318,2390.30303006,4243.30302988,956.121212026,3972.84848445,4100.6060602,3905.36363597,82.424242416,4288.12121169,4121.2121208,4315.42424199,4042.9090905,4217.54545412,3152.72727241,4334.99999957,2959.03030273,5274.63636311,2695.272727,4257.7272723,3280.48484816,4421.03030259,3371.15151481,4233.51515109,4.1212121208,4840.36363588,2377.9393937,4458.12121168,2991.9999997,42.0,42.0,?
2017-07-31 18:54:37.173524,4530.7575753,2390.30303006,4237.63636321,956.121212026,3942.96969658,4100.6060602,3900.21212082,82.424242416,4289.15151472,4121.2121208,4326.75757532,4042.9090905,4208.78787837,3152.72727241,4327.27272684,2959.03030273,5264.33333281,2695.272727,4223.21212079,3280.48484816,4411.75757532,3371.15151481,4233.51515109,4.1212121208,4843.45454497,2377.9393937,4459.15151471,2991.9999997,42.0,42.0,?
2017-07-31 18:54:37.182679,4530.7575753,2390.30303006,4235.57575715,956.121212026,3933.18181779,4100.6060602,3903.30302991,82.424242416,4285.54545412,4121.2121208,4332.93939351,4042.9090905,4214.45454503,3152.72727241,4333.45454502,2959.03030273,5254.54545402,2695.272727,4241.75757533,3280.48484816,4400.42424198,3371.15151481,4235.57575715,4.1212121208,4834.69696921,2377.9393937,4457.60606016,2991.9999997,42.0,42.0,?
2017-07-31 18:54:37.188465,4525.60606015,2390.30303006,4235.57575715,956.121212026,3942.96969658,4100.6060602,3914.63636324,82.424242416,4287.09090866,4121.2121208,4337.57575714,4042.9090905,4215.99999958,3152.72727241,4337.06060563,2959.03030273,5292.66666614,2695.272727,4312.3333329,3280.48484816,4398.87878744,3371.15151481,4235.57575715,4.1212121208,4818.21212073,2377.9393937,4462.2424238,2991.9999997,42.0,42.0,?
2017-07-31 18:54:37.197953,4535.90909046,2390.30303006,4239.69696927,956.121212026,3937.81818142,4100.6060602,3909.99999961,82.424242416,4286.57575715,4121.2121208,4339.6363632,4042.9090905,4205.69696928,3152.72727241,4330.87878745,2959.03030273,5310.69696917,2695.272727,4310.27272684,3280.48484816,4426.18181774,3371.15151481,4239.69696927,4.1212121208,4839.84848436,2377.9393937,4476.66666622,2991.9999997,42.0,42.0,?
2017-07-31 18:54:37.204331,4535.39393894,2390.30303006,4234.54545412,956.121212026,3953.78787839,4100.6060602,3903.81818143,82.424242416,4285.54545412,4121.2121208,4346.3333329,4042.9090905,4204.66666625,3152.72727241,4331.90909048,2959.03030273,5284.93939341,2695.272727,4261.84848442,3280.48484816,4434.42424198,3371.15151481,4237.63636321,4.1212121208,4852.72727224,2377.9393937,4467.39393895,2991.9999997,42.0,42.0,?
2017-07-31 18:54:37.211345,4518.39393894,2390.30303006,4232.48484806,956.121212026,3974.90909051,4100.6060602,3908.45454506,82.424242416,4283.48484806,4121.2121208,4356.12121169,4042.9090905,4211.87878746,3152.72727241,4337.57575714,2959.03030273,5272.57575705,2695.272727,4262.87878745,3280.48484816,4415.87878744,3371.15151481,4236.60606018,4.1212121208,4837.7878783,2377.9393937,4447.30302986,2991.9999997,42.0,42.0,?
2017-07-31 18:54:37.220750,4517.87878743,2390.30303006,4237.1212117,956.121212026,3948.63636324,4100.6060602,3908.96969658,82.424242416,4281.93939351,4121.2121208,4365.90909047,4042.9090905,4210.33333291,3152.72727241,4332.93939351,2959.03030273,5281.33333281,2695.272727,4275.24242381,3280.48484816,4414.33333289,3371.15151481,4237.63636321,4.1212121208,4833.66666618,2377.9393937,4450.90909046,2991.9999997,42.0,42.0,?
2017-07-31 18:54:37.227329,4528.69696924,2390.30303006,4235.57575715,956.121212026,3922.87878749,4100.6060602,3906.90909052,82.424242416,4290.18181775,4121.2121208,4384.96969653,4042.9090905,4212.39393897,3152.72727241,4332.93939351,2959.03030273,5290.60606008,2695.272727,4281.424242,3280.48484816,4431.33333289,3371.15151481,4232.48484806,4.1212121208,4845.51515103,2377.9393937,4466.87878743,2991.9999997,42.0,42.0,?
2017-07-31 18:54:37.234687,4530.7575753,2390.30303006,4236.60606018,956.121212026,3935.75757536,4100.6060602,3903.81818143,82.424242416,4295.3333329,4121.2121208,4401.96969653,4042.9090905,4219.09090867,3152.72727241,4337.06060563,2959.03030273,5286.48484796,2695.272727,4296.36363593,3280.48484816,4445.2424238,3371.15151481,4235.57575715,4.1212121208,4860.96969648,2377.9393937,4470.99999955,2991.9999997,42.0,42.0,?
2017-07-31 18:54:37.242356,4524.57575712,2320.24242401,4235.06060564,956.121212026,3965.12121172,4100.6060602,3905.87878749,82.424242416,4296.87878745,4121.2121208,4411.2424238,4042.9090905,4228.87878746,3152.72727241,4338.09090866,2959.03030273,5288.0303025,2695.272727,4290.69696927,3280.48484816,4438.5454541,3371.15151481,4238.66666624,4.1212121208,4853.75757527,2377.9393937,4461.72727228,2991.9999997,42.0,42.0,?
2017-07-31 18:54:37.251034,4520.96969652,2320.24242401,4234.03030261,1050.9090908,3974.90909051,4100.6060602,3908.45454506,82.424242416,4296.36363593,4121.2121208,4411.2424238,4042.9090905,4228.87878746,3152.72727241,4341.18181775,2959.03030273,5289.57575705,2695.272727,4283.99999957,3280.48484816,4419.48484804,3371.15151481,4239.18181776,4.1212121208,4833.15151467,2377.9393937,4456.57575713,2991.9999997,42.0,42.0,?
2017-07-31 18:54:37.259166,4529.72727227,2320.24242401,4237.63636321,1050.9090908,3956.36363597,4100.6060602,3904.84848446,82.424242416,4290.69696927,4121.2121208,4416.90909047,4042.9090905,4218.06060564,3152.72727241,4345.30302987,2959.03030273,5291.12121159,2695.272727,4300.99999957,3280.48484816,4423.60606016,3371.15151481,4241.75757533,4.1212121208,4836.75757527,2377.9393937,4465.33333289,3123.87878757,42.0,42.0,?
2017-07-31 18:54:37.268335,4540.03030258,2320.24242401,4234.54545412,1050.9090908,3951.72727233,61.818181812,3905.87878749,82.424242416,4298.42424199,4121.2121208,4446.27272683,4042.9090905,4238.15151473,3152.72727241,4359.21212078,2959.03030273,5308.63636311,2695.272727,4303.06060563,3280.48484816,4446.27272683,3371.15151481,4236.09090867,4.1212121208,4861.484848,2377.9393937,4473.06060561,3123.87878757,42.0,42.0,?
2017-07-31 18:54:37.276079,4547.7575753,2320.24242401,4237.1212117,1050.9090908,3958.42424203,61.818181812,3906.90909052,148.363636349,4304.60606018,4121.2121208,4457.09090865,4042.9090905,4268.0303026,3152.72727241,4370.54545411,2959.03030273,5324.60606007,2695.272727,4300.99999957,3280.48484816,4448.33333289,3371.15151481,4239.18181776,4.1212121208,4871.27272679,2377.9393937,4477.69696925,3123.87878757,42.0,42.0,?
2017-07-31 18:54:37.282486,4550.84848439,2320.24242401,4240.21212079,1050.9090908,3953.78787839,61.818181812,3908.45454506,148.363636349,4296.36363593,12.3636363624,4442.15151471,4042.9090905,4265.96969654,3152.72727241,4373.6363632,2959.03030273,5323.57575704,2695.272727,4329.84848442,3280.48484816,4432.87878744,3371.15151481,4244.33333291,4.1212121208,4854.27272679,2377.9393937,4486.96969652,3123.87878757,42.0,42.0,?
2017-07-31 18:54:37.290334,4551.36363591,2320.24242401,4235.57575715,1050.9090908,3950.6969693,61.818181812,3912.57575718,148.363636349,4295.84848442,12.3636363624,4449.87878743,3981.09090869,4254.1212117,3152.72727241,4377.75757532,2959.03030273,5324.09090856,2695.272727,4334.99999957,3280.48484816,4437.51515107,3371.15151481,4240.21212079,4.1212121208,4851.1818177,2377.9393937,4491.09090864,3123.87878757,42.0,42.0,?
2017-07-31 18:54:37.299311,4542.60606015,2320.24242401,4236.09090867,1050.9090908,3959.45454506,61.818181812,3910.51515112,148.363636349,4297.90909048,12.3636363624,4464.81818137,3981.09090869,4243.81818139,3210.4242421,4368.48484805,2959.03030273,5324.60606007,2695.272727,4312.84848442,3280.48484816,4445.75757531,3371.15151481,4239.69696927,4.1212121208,4859.93939345,2377.9393937,4472.5454541,3123.87878757,42.0,42.0,?
2017-07-31 18:54:37.305797,4521.48484803,2320.24242401,4236.09090867,1050.9090908,3969.24242385,61.818181812,3912.06060567,148.363636349,4295.84848442,12.3636363624,4459.66666622,3981.09090869,4233.51515109,3210.4242421,4355.09090866,3020.84848455,5318.42424189,2695.272727,4316.45454502,3280.48484816,4428.75757531,3371.15151481,4240.7272723,4.1212121208,4840.87878739,2377.9393937,4447.81818137,3123.87878757,42.0,42.0,?
2017-07-31 18:54:37.313948,4524.06060561,2320.24242401,4238.15151473,1050.9090908,3939.87878748,61.818181812,3912.06060567,148.363636349,4290.69696927,12.3636363624,4452.45454501,3981.09090869,4222.18181776,3210.4242421,4347.36363593,3020.84848455,5312.75757523,2699.39393912,4302.0303026,3280.48484816,4418.96969653,3371.15151481,4240.7272723,4.1212121208,4833.66666618,2377.9393937,4463.27272683,3123.87878757,42.0,42.0,?
2017-07-31 18:54:37.323519,4534.87878743,2320.24242401,4239.18181776,1050.9090908,3920.30302991,61.818181812,3903.81818143,148.363636349,4285.0303026,12.3636363624,4456.06060561,3981.09090869,4215.99999958,3210.4242421,4336.0303026,3020.84848455,5295.75757523,2699.39393912,4260.30302988,3404.12121178,4413.30302986,3371.15151481,4235.57575715,4.1212121208,4838.30302982,2377.9393937,4482.8484844,3123.87878757,42.0,42.0,?
2017-07-31 18:54:37.328768,4530.7575753,2320.24242401,4232.99999958,1050.9090908,3956.87878748,61.818181812,3908.45454506,148.363636349,4284.51515109,12.3636363624,4458.12121168,3981.09090869,4215.99999958,3210.4242421,4329.3333329,3020.84848455,5286.99999947,2699.39393912,4269.06060563,3404.12121178,4401.45454501,3404.12121178,4232.99999958,4.1212121208,4820.78787831,2377.9393937,4468.42424198,3123.87878757,42.0,42.0,?
2017-07-31 18:54:37.337504,4541.06060561,2320.24242401,4235.06060564,1050.9090908,3957.393939,61.818181812,3911.54545415,148.363636349,4281.93939351,12.3636363624,4448.33333289,3981.09090869,4205.69696928,3210.4242421,4322.6363632,3020.84848455,5282.87878735,2699.39393912,4296.36363593,3404.12121178,4404.54545411,3404.12121178,4238.66666624,12.3636363624,4816.66666619,2377.9393937,4465.33333289,3123.87878757,42.0,42.0,?
2017-07-31 18:54:37.344325,4541.06060561,2320.24242401,4235.57575715,1050.9090908,3932.66666627,61.818181812,3907.93939355,148.363636349,4278.84848442,12.3636363624,4445.75757531,3981.09090869,4201.06060564,3210.4242421,4320.06060563,3020.84848455,5252.99999947,2699.39393912,4276.78787836,3404.12121178,4408.66666623,3404.12121178,4236.09090867,12.3636363624,4825.42424194,2299.63636341,4470.48484804,3123.87878757,42.0,42.0,?
2017-07-31 18:54:37.355696,4520.454545,2320.24242401,4235.06060564,1050.9090908,3955.84848445,61.818181812,3908.96969658,148.363636349,4282.96969654,12.3636363624,4457.09090865,3981.09090869,4210.33333291,3210.4242421,4323.15151472,3020.84848455,5248.36363584,2699.39393912,4261.84848442,3395.87878754,4407.6363632,3404.12121178,4236.60606018,12.3636363624,4829.03030255,2299.63636341,4456.06060561,3123.87878757,42.0,42.0,?
2017-07-31 18:54:37.362331,4514.78787834,2320.24242401,4236.60606018,1050.9090908,3968.72727233,61.818181812,3909.99999961,148.363636349,4288.63636321,12.3636363624,4474.60606016,3981.09090869,4222.69696927,3210.4242421,4327.78787836,3020.84848455,5295.24242371,2699.39393912,4287.09090866,3395.87878754,4413.30302986,3404.12121178,4239.69696927,12.3636363624,4829.03030255,2299.63636341,4444.21212077,3123.87878757,42.0,42.0,?
2017-07-31 18:54:37.367789,4531.27272682,2320.24242401,4230.424242,1050.9090908,3936.78787839,61.818181812,3911.03030264,148.363636349,4295.84848442,12.3636363624,4489.5454541,3981.09090869,4235.06060564,3210.4242421,4337.06060563,3020.84848455,5325.12121159,2699.39393912,4304.09090866,3395.87878754,4426.18181774,3404.12121178,4238.15151473,12.3636363624,4836.75757527,2299.63636341,4456.06060561,3123.87878757,42.0,42.0,?
2017-07-31 18:54:37.375231,4545.69696924,2320.24242401,4234.03030261,1050.9090908,3927.51515112,61.818181812,3904.33333294,148.363636349,4295.3333329,12.3636363624,4487.99999955,3981.09090869,4244.84848442,3210.4242421,4350.96969653,3020.84848455,5300.90909038,2699.39393912,4293.78787836,3395.87878754,4438.5454541,3404.12121178,4240.7272723,12.3636363624,4856.33333285,2299.63636341,4471.51515107,3123.87878757,42.0,42.0,?
2017-07-31 18:54:37.384221,4542.60606015,2320.24242401,4238.15151473,1050.9090908,3946.57575718,61.818181812,3897.12121173,148.363636349,4290.69696927,12.3636363624,4492.63636319,3981.09090869,4256.18181776,3210.4242421,4367.96969653,3020.84848455,5294.21212068,2699.39393912,4279.87878745,3395.87878754,4438.03030259,3404.12121178,4239.69696927,12.3636363624,4858.39393891,2299.63636341,4469.45454501,3123.87878757,42.0,42.0,?
2017-07-31 18:54:37.393160,4541.06060561,2320.24242401,4233.51515109,1050.9090908,3931.63636324,61.818181812,3891.96969658,148.363636349,4290.18181775,12.3636363624,4507.57575713,3981.09090869,4249.99999958,3210.4242421,4368.48484805,3020.84848455,5321.51515098,2699.39393912,4275.75757533,3395.87878754,4426.69696925,3404.12121178,4239.69696927,12.3636363624,4840.87878739,2299.63636341,4466.36363592,3123.87878757,42.0,42.0,?
2017-07-31 18:54:37.400093,4548.27272682,2320.24242401,4231.96969655,1050.9090908,3894.03030264,61.818181812,3889.393939,148.363636349,4287.09090866,12.3636363624,4479.75757531,3981.09090869,4228.87878746,3210.4242421,4356.6363632,3020.84848455,5306.06060553,2699.39393912,4275.24242381,3395.87878754,4414.84848441,3404.12121178,4239.69696927,12.3636363624,4833.15151467,2299.63636341,4467.39393895,3123.87878757,42.0,42.0,?
2017-07-31 18:54:37.407764,4536.42424197,2320.24242401,4230.424242,1050.9090908,3908.45454506,61.818181812,3900.72727234,148.363636349,4291.21212078,12.3636363624,4402.48484804,3981.09090869,4228.87878746,3210.4242421,4358.18181775,3020.84848455,5281.33333281,2699.39393912,4277.81818139,3395.87878754,4410.72727229,3404.12121178,4237.63636321,12.3636363624,4839.84848436,2299.63636341,4459.66666622,3123.87878757,42.0,42.0,?
2017-07-31 18:54:37.415792,4507.57575713,2320.24242401,4237.63636321,1050.9090908,3962.03030263,61.818181812,3912.06060567,148.363636349,4291.21212078,12.3636363624,4315.93939351,3981.09090869,4232.48484806,3210.4242421,4351.99999956,3020.84848455,5292.66666614,2699.39393912,4276.78787836,3395.87878754,4404.54545411,3404.12121178,4240.21212079,12.3636363624,4832.12121164,2299.63636341,4438.5454541,3123.87878757,42.0,42.0,?
2017-07-31 18:54:37.423167,4495.72727228,2320.24242401,4237.63636321,1050.9090908,3964.60606021,61.818181812,3917.21212082,148.363636349,4282.45454503,12.3636363624,4238.66666624,3981.09090869,4215.99999958,3210.4242421,4328.81818139,3020.84848455,5301.42424189,2699.39393912,4269.57575715,3395.87878754,4381.87878744,3404.12121178,4234.54545412,12.3636363624,4797.60606013,2299.63636341,4424.12121168,3123.87878757,42.0,42.0,?
2017-07-31 18:54:37.430771,4518.39393894,2320.24242401,4230.93939352,1050.9090908,3910.51515112,61.818181812,3911.54545415,148.363636349,4273.69696927,12.3636363624,4166.03030261,3981.09090869,4200.03030261,3210.4242421,4312.3333329,3020.84848455,5284.4242419,2699.39393912,4245.36363594,3395.87878754,4380.3333329,3404.12121178,4229.90909049,12.3636363624,4799.15151467,2299.63636341,4441.12121168,3123.87878757,42.0,42.0,?
2017-07-31 18:54:37.440223,4542.60606015,2320.24242401,4231.96969655,1050.9090908,3880.63636325,61.818181812,3892.4848481,148.363636349,4264.424242,12.3636363624,4103.69696929,3981.09090869,4198.99999958,3210.4242421,4308.7272723,3020.84848455,5259.18181766,2699.39393912,4225.27272685,3395.87878754,4401.96969653,3404.12121178,4237.1212117,12.3636363624,4830.06060558,2299.63636341,4459.15151471,3123.87878757,42.0,42.0,?
2017-07-31 18:54:37.445301,4516.8484844,2320.24242401,4229.39393897,1050.9090908,3922.87878749,61.818181812,3896.60606022,148.363636349,4264.424242,12.3636363624,4055.78787838,3981.09090869,4211.87878746,3210.4242421,4314.90909048,3020.84848455,5259.69696917,2699.39393912,4245.87878745,3395.87878754,4397.84848441,3404.12121178,4237.63636321,12.3636363624,4819.24242376,2299.63636341,4440.09090865,3123.87878757,42.0,42.0,?
2017-07-31 18:54:37.453222,4492.12121167,2320.24242401,4232.48484806,1050.9090908,3960.9999996,61.818181812,3912.06060567,148.363636349,4272.15151472,12.3636363624,4006.84848445,3981.09090869,4215.48484806,3210.4242421,4324.69696926,3020.84848455,5266.90909038,2699.39393912,4264.424242,3395.87878754,4389.09090865,3404.12121178,4234.54545412,12.3636363624,4810.99999952,2299.63636341,4420.51515107,3123.87878757,42.0,42.0,?
2017-07-31 18:54:37.462564,4518.39393894,2320.24242401,4233.51515109,1050.9090908,3929.06060567,61.818181812,3905.87878749,148.363636349,4278.33333291,12.3636363624,3970.78787839,3981.09090869,4218.57575715,3210.4242421,4334.99999957,3020.84848455,5268.96969644,2699.39393912,4272.15151472,3395.87878754,4414.33333289,3404.12121178,4234.54545412,12.3636363624,4837.7878783,2299.63636341,4441.12121168,3123.87878757,42.0,42.0,?
2017-07-31 18:54:37.469796,4535.39393894,2320.24242401,4228.87878746,1050.9090908,3905.87878749,61.818181812,3893.51515113,148.363636349,4282.45454503,12.3636363624,3947.60606021,3981.09090869,4238.66666624,3210.4242421,4345.30302987,3020.84848455,5282.36363584,2699.39393912,4294.81818139,3395.87878754,4439.57575713,3404.12121178,4238.66666624,12.3636363624,4854.27272679,2299.63636341,4464.81818137,3123.87878757,42.0,42.0,?
2017-07-31 18:54:37.477221,4520.96969652,2320.24242401,4235.57575715,1050.9090908,3927.51515112,61.818181812,3891.45454507,148.363636349,4285.0303026,12.3636363624,3906.393939,3981.09090869,4236.60606018,3210.4242421,4341.18181775,3020.84848455,5301.93939341,2699.39393912,4296.87878745,3395.87878754,4429.78787834,3404.12121178,4242.78787836,12.3636363624,4846.03030255,2299.63636341,4459.66666622,3123.87878757,42.0,42.0,?
2017-07-31 18:54:37.487293,4524.57575712,2320.24242401,4236.09090867,1050.9090908,3933.6969693,61.818181812,3902.7878784,148.363636349,4296.36363593,12.3636363624,3868.7878784,3981.09090869,4227.84848443,3210.4242421,4344.78787835,3020.84848455,5317.39393886,2699.39393912,4298.42424199,3395.87878754,4417.9393935,3404.12121178,4239.18181776,12.3636363624,4827.484848,2299.63636341,4456.06060561,3123.87878757,42.0,42.0,?
2017-07-31 18:54:37.492828,4549.81818136,2320.24242401,4230.424242,1050.9090908,3915.66666628,61.818181812,3912.57575718,148.363636349,4303.57575715,12.3636363624,3849.72727234,3981.09090869,4244.84848442,3210.4242421,4360.75757532,3020.84848455,5308.12121159,2699.39393912,4306.15151472,3395.87878754,4441.12121168,3404.12121178,4240.7272723,12.3636363624,4842.93939346,2299.63636341,4470.99999955,3123.87878757,42.0,42.0,?
2017-07-31 18:54:37.500255,4546.21212076,2320.24242401,4230.424242,1050.9090908,3907.42424203,61.818181812,3908.96969658,148.363636349,4305.63636321,12.3636363624,3830.66666628,3981.09090869,4253.09090867,3210.4242421,4361.78787835,3020.84848455,5297.81818129,2699.39393912,4297.90909048,3395.87878754,4449.87878743,3404.12121178,4239.18181776,12.3636363624,4865.60606012,2299.63636341,4467.90909046,3123.87878757,42.0,42.0,?
2017-07-31 18:54:37.508852,4527.1515147,2320.24242401,4228.87878746,1050.9090908,3898.15151476,61.818181812,3900.21212082,148.363636349,4308.21212078,12.3636363624,3797.69696932,3981.09090869,4238.66666624,3210.4242421,4353.03030259,3020.84848455,5305.0303025,2699.39393912,4297.90909048,3395.87878754,4422.06060562,3404.12121178,4235.57575715,12.3636363624,4842.93939346,2299.63636341,4456.06060561,3123.87878757,42.0,42.0,?
2017-07-31 18:54:37.516245,4523.03030258,2320.24242401,4229.39393897,1050.9090908,3901.24242385,61.818181812,3893.51515113,148.363636349,4292.24242381,12.3636363624,3758.03030265,3981.09090869,4222.69696927,3210.4242421,4338.09090866,3020.84848455,5295.24242371,2699.39393912,4282.96969654,3395.87878754,4412.27272683,3404.12121178,4240.7272723,12.3636363624,4825.42424194,2299.63636341,4455.03030258,3123.87878757,42.0,42.0,?
2017-07-31 18:54:37.526880,4518.90909046,2320.24242401,4227.33333291,1050.9090908,3934.72727233,61.818181812,3902.27272688,148.363636349,4286.06060563,12.3636363624,3742.5757572,3981.09090869,4226.8181814,3210.4242421,4332.93939351,3020.84848455,5279.78787826,2699.39393912,4262.87878745,3395.87878754,4414.33333289,3404.12121178,4239.69696927,12.3636363624,4830.57575709,2299.63636341,4449.36363592,3123.87878757,42.0,42.0,?
2017-07-31 18:54:37.532169,4529.21212076,2320.24242401,4231.96969655,1050.9090908,3932.66666627,61.818181812,3909.48484809,148.363636349,4289.66666624,12.3636363624,3736.39393902,3981.09090869,4231.96969655,3210.4242421,4340.15151472,3020.84848455,5275.66666614,2699.39393912,4281.424242,3395.87878754,4405.57575714,3404.12121178,4238.66666624,12.3636363624,4829.54545406,2299.63636341,4452.96969652,3123.87878757,42.0,42.0,?
2017-07-31 18:54:37.539283,4538.48484803,2320.24242401,4234.54545412,1050.9090908,3908.96969658,61.818181812,3908.96969658,148.363636349,4282.45454503,12.3636363624,3712.18181781,3981.09090869,4222.69696927,3210.4242421,4333.45454502,3020.84848455,5275.15151462,2699.39393912,4282.96969654,3395.87878754,4409.18181774,3404.12121178,4239.69696927,12.3636363624,4827.484848,2299.63636341,4461.72727228,3123.87878757,42.0,42.0,?
2017-07-31 18:54:37.554885,4521.99999955,2320.24242401,4226.30302988,1050.9090908,3921.84848446,61.818181812,3917.72727234,148.363636349,4288.63636321,12.3636363624,3691.06060569,3981.09090869,4218.06060564,3210.4242421,4327.27272684,3020.84848455,5262.78787826,2699.39393912,4263.90909048,3395.87878754,4418.45454501,3404.12121178,4237.1212117,12.3636363624,4831.60606012,2299.63636341,4453.48484804,3123.87878757,42.0,42.0,?
2017-07-31 18:54:37.561003,4506.54545409,2320.24242401,4234.54545412,1050.9090908,3935.75757536,61.818181812,3913.0909087,148.363636349,4287.60606018,12.3636363624,3672.51515115,3981.09090869,4213.93939352,3210.4242421,4327.27272684,3020.84848455,5240.63636311,2699.39393912,4278.33333291,3395.87878754,4403.51515107,3404.12121178,4239.18181776,12.3636363624,4823.36363588,2299.63636341,4438.03030259,3123.87878757,42.0,42.0,?
2017-07-31 18:54:37.565792,4517.36363591,2320.24242401,4236.09090867,1050.9090908,3932.66666627,61.818181812,3906.393939,148.363636349,4280.39393897,12.3636363624,3655.51515115,3981.09090869,4214.96969655,3210.4242421,4326.24242381,3020.84848455,5255.57575705,2699.39393912,4301.51515109,3395.87878754,4391.66666623,3404.12121178,4236.60606018,12.3636363624,4806.36363588,2299.63636341,4442.66666622,3123.87878757,42.0,42.0,?
2017-07-31 18:54:37.571695,4536.42424197,2320.24242401,4229.39393897,1050.9090908,3930.60606021,61.818181812,3923.90909052,148.363636349,4290.69696927,12.3636363624,3646.24242388,3981.09090869,4222.18181776,3210.4242421,4329.84848442,3020.84848455,5302.45454492,2699.39393912,4304.60606018,3395.87878754,4409.69696926,3404.12121178,4235.57575715,12.3636363624,4814.09090861,2299.63636341,4462.75757531,3123.87878757,42.0,42.0,?
2017-07-31 18:54:37.586448,4535.39393894,2320.24242401,4243.30302988,1050.9090908,3920.81818143,61.818181812,3919.7878784,148.363636349,4286.57575715,12.3636363624,3622.54545418,3981.09090869,4211.36363594,3210.4242421,4326.75757532,3020.84848455,5292.66666614,2699.39393912,4278.33333291,3395.87878754,4421.5454541,3404.12121178,4238.15151473,12.3636363624,4834.69696921,2299.63636341,4460.18181774,3123.87878757,42.0,42.0,?
2017-07-31 18:54:37.597356,4543.63636318,2320.24242401,4224.75757534,1050.9090908,3944.51515112,61.818181812,3912.06060567,148.363636349,4285.0303026,12.3636363624,3606.57575722,3981.09090869,4228.87878746,3210.4242421,4337.06060563,3020.84848455,5293.69696917,2699.39393912,4292.24242381,3395.87878754,4438.03030259,3404.12121178,4241.75757533,12.3636363624,4844.484848,2299.63636341,4474.09090864,3123.87878757,42.0,42.0,?
2017-07-31 18:54:37.603836,4533.8484844,2320.24242401,4237.1212117,1050.9090908,3925.45454506,61.818181812,3914.63636324,148.363636349,4286.06060563,12.3636363624,3593.18181782,3981.09090869,4234.54545412,3210.4242421,4352.51515108,3020.84848455,5260.7272722,2699.39393912,4280.90909048,3395.87878754,4426.69696925,3404.12121178,4238.66666624,12.3636363624,4837.27272679,2299.63636341,4458.63636319,3123.87878757,42.0,42.0,?
2017-07-31 18:54:37.612938,4533.8484844,2320.24242401,4237.1212117,1050.9090908,3925.45454506,61.818181812,3914.63636324,148.363636349,4286.06060563,12.3636363624,3593.18181782,3981.09090869,4234.54545412,3210.4242421,4352.51515108,3020.84848455,5260.7272722,2699.39393912,4280.90909048,3395.87878754,4426.69696925,3404.12121178,4238.66666624,12.3636363624,4837.27272679,2299.63636341,4458.63636319,3123.87878757,42.0,42.0,?
2017-07-31 18:54:37.614801,4533.8484844,2320.24242401,4237.1212117,1050.9090908,3925.45454506,61.818181812,3914.63636324,148.363636349,4286.06060563,12.3636363624,3593.18181782,3981.09090869,4234.54545412,3210.4242421,4352.51515108,3020.84848455,5260.7272722,2699.39393912,4280.90909048,3395.87878754,4426.69696925,3404.12121178,4238.66666624,12.3636363624,4837.27272679,2299.63636341,4458.63636319,3123.87878757,42.0,42.0,?
2017-07-31 18:54:37.619232,4538.48484803,2320.24242401,4232.48484806,1050.9090908,3941.42424203,61.818181812,3922.36363597,148.363636349,4293.27272684,12.3636363624,3587.51515116,3981.09090869,4237.1212117,3210.4242421,4344.27272684,3020.84848455,5303.99999947,2699.39393912,4293.78787836,3395.87878754,4443.69696925,3404.12121178,4240.21212079,12.3636363624,4854.27272679,2299.63636341,4476.1515147,3123.87878757,42.0,42.0,?
2017-07-31 18:54:37.626591,4525.60606015,2320.24242401,4234.03030261,1050.9090908,3965.12121172,61.818181812,3928.03030264,148.363636349,4292.75757533,12.3636363624,3576.69696934,3981.09090869,4232.99999958,3210.4242421,4342.72727229,3020.84848455,5323.06060553,2699.39393912,4294.30302987,3395.87878754,4431.84848441,3404.12121178,4238.66666624,12.3636363624,4839.33333285,2299.63636341,4464.81818137,3123.87878757,42.0,42.0,?
2017-07-31 18:54:37.637791,4535.39393894,2320.24242401,4235.06060564,1050.9090908,3938.33333294,61.818181812,3925.96969658,148.363636349,4288.63636321,12.3636363624,3565.36363601,3981.09090869,4228.87878746,3210.4242421,4348.90909047,3020.84848455,5291.12121159,2699.39393912,4283.99999957,3395.87878754,4425.66666622,3404.12121178,4238.66666624,12.3636363624,4837.27272679,2299.63636341,4461.72727228,3123.87878757,42.0,42.0,?
2017-07-31 18:54:37.642423,4546.72727227,2320.24242401,4225.78787837,1050.9090908,3914.12121173,61.818181812,3931.63636324,148.363636349,4294.30302987,12.3636363624,3570.51515116,3981.09090869,4236.60606018,3210.4242421,4352.51515108,3020.84848455,5293.18181765,2699.39393912,4312.3333329,3395.87878754,4423.60606016,3404.12121178,4235.57575715,12.3636363624,4834.69696921,2299.63636341,4470.99999955,3123.87878757,42.0,42.0,?
2017-07-31 18:54:37.651585,4525.09090864,2320.24242401,4231.45454503,1050.9090908,3948.12121173,61.818181812,3935.24242385,148.363636349,4290.69696927,12.3636363624,3568.4545451,3981.09090869,4232.48484806,3210.4242421,4346.84848441,3020.84848455,5306.57575705,2699.39393912,4306.66666624,3395.87878754,4414.33333289,3404.12121178,4234.54545412,12.3636363624,4827.484848,2299.63636341,4456.57575713,3123.87878757,42.0,42.0,?
2017-07-31 18:54:37.658803,4531.27272682,2320.24242401,4239.18181776,1050.9090908,3957.393939,61.818181812,3931.12121173,148.363636349,4283.48484806,12.3636363624,3558.66666631,3981.09090869,4228.87878746,3210.4242421,4346.84848441,3020.84848455,5278.24242371,2699.39393912,4266.99999957,3395.87878754,4439.06060562,3404.12121178,4239.69696927,12.3636363624,4855.81818133,2299.63636341,4467.39393895,3123.87878757,42.0,42.0,?
2017-07-31 18:54:37.664703,4560.12121167,2320.24242401,4228.36363594,1050.9090908,3936.27272688,61.818181812,3936.78787839,148.363636349,4294.81818139,12.3636363624,3564.33333298,3981.09090869,4248.96969654,3210.4242421,4359.21212078,3020.84848455,5283.39393887,2699.39393912,4288.12121169,3395.87878754,4460.69696925,3404.12121178,4240.21212079,12.3636363624,4868.1818177,2299.63636341,4494.69696925,3123.87878757,42.0,42.0,?
2017-07-31 18:54:37.674600,4551.87878742,2320.24242401,4232.99999958,1050.9090908,3929.06060567,61.818181812,3931.12121173,148.363636349,4293.78787836,12.3636363624,3559.69696934,3981.09090869,4248.96969654,3210.4242421,4356.6363632,3020.84848455,5301.93939341,2699.39393912,4317.99999957,3395.87878754,4434.42424198,3404.12121178,4240.7272723,12.3636363624,4839.84848436,2299.63636341,4479.24242379,3123.87878757,42.0,42.0,?
2017-07-31 18:54:37.684997,4535.39393894,2320.24242401,4235.57575715,1050.9090908,3937.30302991,61.818181812,3929.06060567,148.363636349,4288.63636321,12.3636363624,3547.33333298,3981.09090869,4238.15151473,3210.4242421,4357.15151472,3020.84848455,5289.06060553,2699.39393912,4317.99999957,3395.87878754,4412.78787835,3404.12121178,4238.66666624,12.3636363624,4825.42424194,2299.63636341,4466.87878743,3123.87878757,42.0,42.0,?
2017-07-31 18:54:37.688801,4545.18181773,2320.24242401,4237.1212117,1050.9090908,3949.66666627,61.818181812,3932.15151476,148.363636349,4290.69696927,12.3636363624,3541.1515148,3981.09090869,4240.7272723,3210.4242421,4361.27272684,3020.84848455,5280.81818129,2699.39393912,4295.84848442,3395.87878754,4432.87878744,3404.12121178,4237.63636321,12.3636363624,4847.57575709,2299.63636341,4486.45454501,3123.87878757,42.0,42.0,?
2017-07-31 18:54:37.696501,4538.48484803,2320.24242401,4239.69696927,1050.9090908,3957.393939,61.818181812,3924.93939355,148.363636349,4290.18181775,12.3636363624,3525.69696934,3981.09090869,4235.06060564,3210.4242421,4348.39393896,3020.84848455,5294.21212068,2699.39393912,4278.84848442,3395.87878754,4442.66666622,3404.12121178,4243.81818139,12.3636363624,4859.42424194,2299.63636341,4474.60606016,3123.87878757,42.0,42.0,?
2017-07-31 18:54:37.704755,4515.81818137,2320.24242401,4226.8181814,1050.9090908,3937.81818142,61.818181812,3930.60606021,148.363636349,4296.87878745,12.3636363624,3514.87878753,3981.09090869,4234.54545412,3210.4242421,4350.45454502,3020.84848455,5291.12121159,2699.39393912,4286.57575715,3395.87878754,4432.87878744,3404.12121178,4242.27272685,12.3636363624,4850.66666618,2299.63636341,4446.78787834,3123.87878757,42.0,42.0,?
2017-07-31 18:54:37.712211,4520.96969652,2320.24242401,4227.33333291,1050.9090908,3904.84848446,61.818181812,3936.78787839,148.363636349,4295.3333329,12.3636363624,3508.69696935,3981.09090869,4239.18181776,3210.4242421,4362.81818138,3020.84848455,5254.54545402,2699.39393912,4281.93939351,3395.87878754,4431.84848441,3404.12121178,4238.15151473,12.3636363624,4848.60606012,2299.63636341,4454.51515107,3123.87878757,42.0,42.0,?
2017-07-31 18:54:37.721038,4531.27272682,2320.24242401,4235.57575715,1050.9090908,3913.60606021,61.818181812,3931.12121173,148.363636349,4285.54545412,12.3636363624,3497.87878753,3981.09090869,4236.09090867,3210.4242421,4353.03030259,3020.84848455,5260.21212069,2699.39393912,4266.99999957,3395.87878754,4429.27272683,3404.12121178,4237.63636321,12.3636363624,4839.33333285,2299.63636341,4470.48484804,3123.87878757,42.0,42.0,?
2017-07-31 18:54:37.730066,4529.72727227,2320.24242401,4233.51515109,1050.9090908,3926.99999961,61.818181812,3926.48484809,148.363636349,4291.21212078,12.3636363624,3496.8484845,3981.09090869,4238.66666624,3210.4242421,4348.90909047,3020.84848455,5306.57575705,2699.39393912,4294.81818139,3395.87878754,4431.84848441,3404.12121178,4240.7272723,12.3636363624,4837.7878783,2299.63636341,4475.63636319,3123.87878757,42.0,42.0,?
2017-07-31 18:54:37.735254,4526.63636318,2320.24242401,4235.57575715,1050.9090908,3920.81818143,61.818181812,3927.51515112,148.363636349,4300.99999957,12.3636363624,3500.96969662,3981.09090869,4240.7272723,3210.4242421,4361.78787835,3020.84848455,5315.3333328,2699.39393912,4334.99999957,3395.87878754,4429.27272683,3404.12121178,4243.30302988,12.3636363624,4843.45454497,2299.63636341,4467.90909046,3123.87878757,42.0,42.0,?
2017-07-31 18:54:37.743179,4516.8484844,2320.24242401,4236.60606018,1050.9090908,3923.90909052,61.818181812,3933.6969693,148.363636349,4299.45454502,12.3636363624,3497.87878753,3981.09090869,4234.03030261,3210.4242421,4361.78787835,3020.84848455,5296.27272674,2699.39393912,4323.66666623,3395.87878754,4411.2424238,3404.12121178,4234.03030261,12.3636363624,4827.484848,2299.63636341,4458.12121168,3123.87878757,42.0,42.0,?
2017-07-31 18:54:37.750917,4520.96969652,2311.99999977,4236.09090867,1050.9090908,3923.90909052,61.818181812,3931.12121173,148.363636349,4288.12121169,12.3636363624,3495.30302995,3981.09090869,4234.03030261,3210.4242421,4348.90909047,3020.84848455,5288.0303025,2699.39393912,4299.45454502,3395.87878754,4414.33333289,3404.12121178,4237.1212117,12.3636363624,4829.54545406,2299.63636341,4465.8484844,3123.87878757,42.0,42.0,?
2017-07-31 18:54:37.759193,4536.93939349,2311.99999977,4234.54545412,951.999999905,3922.36363597,61.818181812,3928.54545415,148.363636349,4287.60606018,12.3636363624,3500.4545451,3981.09090869,4240.7272723,3210.4242421,4354.06060563,3020.84848455,5280.81818129,2699.39393912,4289.15151472,3395.87878754,4442.15151471,3404.12121178,4246.90909048,12.3636363624,4854.7878783,2299.63636341,4476.66666622,3123.87878757,42.0,42.0,?
2017-07-31 18:54:37.768567,4532.30302985,2311.99999977,4230.424242,951.999999905,3930.0909087,61.818181812,3936.27272688,148.363636349,4296.87878745,12.3636363624,3507.1515148,3981.09090869,4240.7272723,3210.4242421,4366.42424199,3020.84848455,5273.60606008,2699.39393912,4282.96969654,3395.87878754,4453.48484804,3404.12121178,4241.24242382,12.3636363624,4859.42424194,2299.63636341,4476.66666622,3181.57575726,42.0,42.0,?
2017-07-31 18:54:37.779707,4528.18181773,2311.99999977,4234.03030261,951.999999905,3922.87878749,24.7272727248,3928.54545415,148.363636349,4289.66666624,12.3636363624,3504.06060571,3981.09090869,4228.87878746,3210.4242421,4353.54545411,3020.84848455,5283.39393887,2699.39393912,4298.93939351,3395.87878754,4433.90909047,3404.12121178,4238.15151473,12.3636363624,4846.54545406,2299.63636341,4482.33333289,3181.57575726,42.0,42.0,?
2017-07-31 18:54:37.785057,4541.57575712,2311.99999977,4233.51515109,951.999999905,3924.93939355,24.7272727248,3923.393939,214.303030282,4285.54545412,12.3636363624,3500.96969662,3981.09090869,4227.84848443,3210.4242421,4350.45454502,3020.84848455,5294.21212068,2699.39393912,4321.60606017,3395.87878754,4429.27272683,3404.12121178,4238.66666624,12.3636363624,4844.484848,2299.63636341,4493.66666622,3181.57575726,42.0,42.0,?
2017-07-31 18:54:37.791969,4560.12121167,2311.99999977,4234.03030261,951.999999905,3951.72727233,24.7272727248,3935.24242385,214.303030282,4295.84848442,90.6666666576,3504.06060571,3981.09090869,4244.84848442,3210.4242421,4368.99999956,3020.84848455,5299.36363583,2699.39393912,4316.96969654,3395.87878754,4458.12121168,3404.12121178,4242.27272685,12.3636363624,4869.21212073,2299.63636341,4506.03030258,3181.57575726,42.0,42.0,?
2017-07-31 18:54:37.798811,4572.99999954,2311.99999977,4238.15151473,951.999999905,3943.48484809,24.7272727248,3935.24242385,214.303030282,4297.39393896,90.6666666576,3506.63636329,4183.03030261,4247.424242,3210.4242421,4370.54545411,3020.84848455,5299.36363583,2699.39393912,4297.39393896,3395.87878754,4465.33333289,3404.12121178,4240.7272723,12.3636363624,4878.484848,2299.63636341,4510.1515147,3181.57575726,42.0,42.0,?
2017-07-31 18:54:37.807427,4553.93939348,2311.99999977,4235.57575715,951.999999905,3935.24242385,24.7272727248,3932.15151476,214.303030282,4291.21212078,90.6666666576,3504.06060571,4183.03030261,4228.87878746,3255.75757543,4359.21212078,3020.84848455,5287.51515099,2699.39393912,4304.09090866,3395.87878754,4434.42424198,3404.12121178,4233.51515109,12.3636363624,4843.96969649,2299.63636341,4491.60606016,3181.57575726,42.0,42.0,?
2017-07-31 18:54:37.813739,4541.06060561,2311.99999977,4233.51515109,951.999999905,3939.87878748,24.7272727248,3931.12121173,214.303030282,4282.96969654,90.6666666576,3492.72727238,4183.03030261,4217.54545412,3255.75757543,4355.09090866,3082.66666636,5266.90909038,2699.39393912,4312.3333329,3395.87878754,4431.84848441,3404.12121178,4240.21212079,12.3636363624,4838.30302982,2299.63636341,4487.99999955,3181.57575726,42.0,42.0,?
2017-07-31 18:54:37.821002,4541.06060561,2311.99999977,4233.51515109,951.999999905,3939.87878748,24.7272727248,3922.36363597,214.303030282,4282.96969654,90.6666666576,3486.5454542,4183.03030261,4238.66666624,3255.75757543,4363.84848441,3082.66666636,5266.90909038,2703.51515124,4294.30302987,3395.87878754,4451.93939349,3404.12121178,4240.21212079,12.3636363624,4864.06060557,2299.63636341,4499.33333288,3181.57575726,42.0,42.0,?
2017-07-31 18:54:37.832354,4560.63636318,2311.99999977,4230.93939352,951.999999905,3920.81818143,24.7272727248,3917.21212082,214.303030282,4282.96969654,90.6666666576,3476.24242389,4183.03030261,4252.06060564,3255.75757543,4362.30302987,3082.66666636,5283.39393887,2703.51515124,4271.12121169,3511.27272692,4457.09090865,3404.12121178,4242.27272685,12.3636363624,4872.30302982,2299.63636341,4491.60606016,3181.57575726,42.0,42.0,?
2017-07-31 18:54:37.836693,4553.93939348,2311.99999977,4237.63636321,951.999999905,3937.81818142,24.7272727248,3921.33333294,214.303030282,4278.84848442,90.6666666576,3452.5454542,4183.03030261,4229.39393897,3255.75757543,4346.3333329,3082.66666636,5279.27272674,2703.51515124,4266.48484806,3511.27272692,4452.96969652,3453.57575723,4241.24242382,12.3636363624,4862.51515103,2299.63636341,4479.24242379,3181.57575726,42.0,42.0,?
2017-07-31 18:54:37.845473,4529.21212076,2311.99999977,4238.66666624,951.999999905,3974.90909051,24.7272727248,3923.393939,214.303030282,4276.78787836,90.6666666576,3444.81818147,4183.03030261,4221.66666624,3255.75757543,4348.39393896,3082.66666636,5258.15151463,2703.51515124,4283.48484806,3511.27272692,4438.03030259,3453.57575723,4233.51515109,12.3636363624,4844.484848,2299.63636341,4480.78787834,3181.57575726,42.0,42.0,?
2017-07-31 18:54:37.856107,4534.36363591,2311.99999977,4237.63636321,951.999999905,3958.93939354,24.7272727248,3913.60606021,214.303030282,4272.15151472,90.6666666576,3446.36363602,4183.03030261,4229.90909049,3255.75757543,4355.60606017,3082.66666636,5251.96969644,2703.51515124,4297.39393896,3511.27272692,4423.60606016,3453.57575723,4237.1212117,12.3636363624,4840.87878739,2332.60606037,4493.1515147,3181.57575726,42.0,42.0,?
2017-07-31 18:54:37.860562,4549.30302985,2311.99999977,4232.48484806,951.999999905,3939.87878748,24.7272727248,3913.0909087,214.303030282,4274.21212078,90.6666666576,3436.57575723,4183.03030261,4226.8181814,3255.75757543,4351.99999956,3082.66666636,5276.69696917,2703.51515124,4304.09090866,3523.63636328,4424.63636319,3453.57575723,4242.27272685,12.3636363624,4842.93939346,2332.60606037,4493.1515147,3181.57575726,42.0,42.0,?
2017-07-31 18:54:37.869753,4538.48484803,2311.99999977,4229.90909049,951.999999905,3972.33333294,24.7272727248,3923.90909052,214.303030282,4277.30302988,90.6666666576,3429.87878754,4183.03030261,4216.51515109,3255.75757543,4344.78787835,3082.66666636,5289.06060553,2703.51515124,4289.66666624,3523.63636328,4434.42424198,3453.57575723,4241.24242382,12.3636363624,4843.96969649,2332.60606037,4476.1515147,3181.57575726,42.0,42.0,?
2017-07-31 18:54:37.878890,4526.12121167,2311.99999977,4239.18181776,951.999999905,3973.36363597,24.7272727248,3918.75757537,214.303030282,4266.99999957,90.6666666576,3431.42424208,4183.03030261,4200.54545413,3255.75757543,4328.81818139,3082.66666636,5261.75757523,2703.51515124,4259.27272685,3523.63636328,4430.30302986,3453.57575723,4240.21212079,12.3636363624,4840.36363588,2332.60606037,4465.8484844,3181.57575726,42.0,42.0,?
2017-07-31 18:54:37.884400,4518.39393894,2311.99999977,4236.09090867,951.999999905,3940.393939,24.7272727248,3912.06060567,214.303030282,4265.96969654,90.6666666576,3428.84848451,4183.03030261,4189.72727231,3255.75757543,4320.57575714,3082.66666636,5247.33333281,2703.51515124,4268.54545412,3523.63636328,4414.84848441,3453.57575723,4233.51515109,12.3636363624,4818.72727225,2332.60606037,4465.8484844,3181.57575726,42.0,42.0,?
2017-07-31 18:54:37.893309,4523.54545409,2311.99999977,4232.48484806,951.999999905,3931.63636324,24.7272727248,3917.72727234,214.303030282,4275.75757533,90.6666666576,3419.06060572,4183.03030261,4187.66666625,3255.75757543,4329.3333329,3082.66666636,5252.48484796,2703.51515124,4283.48484806,3523.63636328,4422.06060562,3453.57575723,4235.06060564,12.3636363624,4821.81818134,2332.60606037,4469.45454501,3181.57575726,42.0,42.0,?
2017-07-31 18:54:37.899589,4549.81818136,2311.99999977,4236.09090867,951.999999905,3935.24242385,24.7272727248,3925.96969658,214.303030282,4277.81818139,90.6666666576,3425.2424239,4183.03030261,4200.54545413,3255.75757543,4338.60606017,3082.66666636,5262.27272675,2703.51515124,4265.96969654,3523.63636328,4441.63636319,3453.57575723,4241.24242382,12.3636363624,4850.66666618,2332.60606037,4480.78787834,3181.57575726,42.0,42.0,?
2017-07-31 18:54:37.907551,4547.7575753,2311.99999977,4237.1212117,951.999999905,3956.36363597,24.7272727248,3927.51515112,214.303030282,4279.87878745,90.6666666576,3443.27272693,4183.03030261,4217.03030261,3255.75757543,4338.60606017,3082.66666636,5281.84848432,2703.51515124,4277.30302988,3523.63636328,4434.9393935,3453.57575723,4241.75757533,12.3636363624,4849.12121164,2332.60606037,4480.27272682,3181.57575726,42.0,42.0,?
2017-07-31 18:54:37.915629,4514.78787834,2311.99999977,4239.18181776,951.999999905,3995.51515112,24.7272727248,3921.84848446,214.303030282,4277.30302988,90.6666666576,3442.2424239,4183.03030261,4208.78787837,3255.75757543,4334.48484805,3082.66666636,5279.27272674,2703.51515124,4306.66666624,3523.63636328,4416.39393895,3453.57575723,4239.18181776,12.3636363624,4823.36363588,2332.60606037,4461.72727228,3181.57575726,42.0,42.0,?
2017-07-31 18:54:37.925142,4522.51515106,2311.99999977,4236.09090867,951.999999905,3973.87878748,24.7272727248,3916.18181779,214.303030282,4271.12121169,90.6666666576,3438.12121178,4183.03030261,4201.06060564,3255.75757543,4336.54545411,3082.66666636,5254.0303025,2703.51515124,4287.60606018,3523.63636328,4425.15151471,3453.57575723,4233.51515109,12.3636363624,4827.484848,2332.60606037,4467.90909046,3181.57575726,42.0,42.0,?
2017-07-31 18:54:37.930450,4568.36363591,2311.99999977,4236.09090867,951.999999905,3910.51515112,24.7272727248,3903.81818143,214.303030282,4266.99999957,90.6666666576,3442.2424239,4183.03030261,4213.93939352,3255.75757543,4340.66666623,3082.66666636,5245.27272675,2703.51515124,4252.06060564,3523.63636328,4453.99999955,3453.57575723,4238.66666624,12.3636363624,4860.45454497,2332.60606037,4494.69696925,3181.57575726,42.0,42.0,?
2017-07-31 18:54:37.938361,4567.33333288,2311.99999977,4237.63636321,951.999999905,3933.18181779,24.7272727248,3902.7878784,214.303030282,4269.57575715,90.6666666576,3448.42424208,4183.03030261,4220.1212117,3255.75757543,4341.18181775,3082.66666636,5271.0303025,2703.51515124,4255.15151473,3523.63636328,4450.90909046,3453.57575723,4243.81818139,12.3636363624,4857.87878739,2332.60606037,4484.39393895,3181.57575726,42.0,42.0,?
2017-07-31 18:54:37.948375,4521.48484803,2311.99999977,4235.57575715,951.999999905,3985.21212081,24.7272727248,3913.0909087,214.303030282,4270.60606018,90.6666666576,3456.66666632,4183.03030261,4210.84848443,3255.75757543,4337.57575714,3082.66666636,5286.48484796,2703.51515124,4275.75757533,3523.63636328,4413.81818138,3453.57575723,4238.66666624,12.3636363624,4821.30302982,2332.60606037,4451.42424198,3181.57575726,42.0,42.0,?
2017-07-31 18:54:37.953950,4509.63636319,2311.99999977,4237.1212117,951.999999905,3947.60606021,24.7272727248,3904.84848446,214.303030282,4264.424242,90.6666666576,3461.30302996,4183.03030261,4207.75757534,3255.75757543,4334.48484805,3082.66666636,5263.30302978,2703.51515124,4278.84848442,3523.63636328,4398.87878744,3453.57575723,4238.66666624,12.3636363624,4808.93939346,2332.60606037,4448.8484844,3181.57575726,42.0,42.0,?
2017-07-31 18:54:37.962079,4529.72727227,2311.99999977,4234.03030261,951.999999905,3913.60606021,24.7272727248,3903.30302991,214.303030282,4276.27272685,90.6666666576,3472.12121177,4183.03030261,4211.87878746,3255.75757543,4339.12121169,3082.66666636,5264.33333281,2703.51515124,4271.12121169,3523.63636328,4417.42424198,3453.57575723,4239.18181776,12.3636363624,4824.90909043,2332.60606037,4463.27272683,3181.57575726,42.0,42.0,?
2017-07-31 18:54:37.971829,4548.78787833,2311.99999977,4235.06060564,951.999999905,3940.90909052,24.7272727248,3917.21212082,214.303030282,4293.78787836,90.6666666576,3486.03030268,4183.03030261,4213.424242,3255.75757543,4347.36363593,3082.66666636,5292.66666614,2703.51515124,4275.24242381,3523.63636328,4434.9393935,3453.57575723,4238.66666624,12.3636363624,4845.51515103,2332.60606037,4474.60606016,3181.57575726,42.0,42.0,?
2017-07-31 18:54:37.977391,4554.454545,2311.99999977,4235.57575715,951.999999905,3950.18181779,24.7272727248,3915.66666628,214.303030282,4290.69696927,90.6666666576,3495.30302995,4183.03030261,4211.87878746,3255.75757543,4351.99999956,3082.66666636,5293.18181765,2703.51515124,4287.60606018,3523.63636328,4437.51515107,3453.57575723,4239.18181776,12.3636363624,4850.66666618,2332.60606037,4476.66666622,3181.57575726,42.0,42.0,?
2017-07-31 18:54:37.985032,4544.66666621,2311.99999977,4227.84848443,951.999999905,3927.51515112,24.7272727248,3910.51515112,214.303030282,4290.69696927,90.6666666576,3513.33333298,4183.03030261,4215.99999958,3255.75757543,4349.9393935,3082.66666636,5289.06060553,2703.51515124,4278.33333291,3523.63636328,4436.99999956,3453.57575723,4238.15151473,12.3636363624,4842.42424194,2332.60606037,4468.42424198,3181.57575726,42.0,42.0,?
2017-07-31 18:54:37.994550,4533.8484844,2311.99999977,4232.99999958,951.999999905,3919.27272688,24.7272727248,3913.0909087,214.303030282,4297.90909048,90.6666666576,3525.69696934,4183.03030261,4218.57575715,3255.75757543,4345.30302987,3082.66666636,5282.87878735,2703.51515124,4255.66666624,3523.63636328,4440.09090865,3453.57575723,4242.27272685,12.3636363624,4845.51515103,2332.60606037,4466.36363592,3181.57575726,42.0,42.0,?
2017-07-31 18:54:38.002507,4532.30302985,2311.99999977,4238.15151473,951.999999905,3932.15151476,24.7272727248,3915.15151476,214.303030282,4303.06060563,90.6666666576,3530.8484845,4183.03030261,4222.69696927,3255.75757543,4350.96969653,3082.66666636,5267.93939341,2703.51515124,4261.33333291,3523.63636328,4440.60606016,3453.57575723,4239.18181776,12.3636363624,4847.57575709,2332.60606037,4475.12121167,3181.57575726,42.0,42.0,?
2017-07-31 18:54:38.010777,4538.99999955,2311.99999977,4232.48484806,951.999999905,3937.81818142,24.7272727248,3913.60606021,214.303030282,4302.54545412,90.6666666576,3541.1515148,4183.03030261,4229.39393897,3255.75757543,4358.18181775,3082.66666636,5280.30302978,2703.51515124,4283.48484806,3523.63636328,4434.9393935,3453.57575723,4236.09090867,12.3636363624,4841.90909042,2332.60606037,4470.48484804,3181.57575726,42.0,42.0,?
2017-07-31 18:54:38.016363,4538.48484803,2311.99999977,4232.99999958,951.999999905,3925.45454506,24.7272727248,3912.06060567,214.303030282,4300.99999957,90.6666666576,3554.03030267,4183.03030261,4230.424242,3255.75757543,4351.99999956,3082.66666636,5303.99999947,2703.51515124,4279.87878745,3523.63636328,4431.84848441,3453.57575723,4240.21212079,12.3636363624,4852.21212073,2332.60606037,4450.39393895,3181.57575726,42.0,42.0,?
2017-07-31 18:54:38.024573,4531.27272682,2311.99999977,4233.51515109,951.999999905,3915.15151476,24.7272727248,3912.57575718,214.303030282,4304.09090866,90.6666666576,3564.84848449,4183.03030261,4230.93939352,3255.75757543,4347.87878744,3082.66666636,5300.39393886,2703.51515124,4260.81818139,3523.63636328,4437.51515107,3453.57575723,4240.21212079,12.3636363624,4856.84848436,2332.60606037,4450.39393895,3181.57575726,42.0,42.0,?
2017-07-31 18:54:38.033128,4537.454545,2311.99999977,4235.06060564,951.999999905,3903.30302991,24.7272727248,3905.87878749,214.303030282,4297.39393896,90.6666666576,3563.30302995,4183.03030261,4226.8181814,3255.75757543,4343.75757532,3082.66666636,5272.57575705,2703.51515124,4246.39393897,3523.63636328,4441.63636319,3453.57575723,4239.69696927,12.3636363624,4848.60606012,2332.60606037,4468.93939349,3181.57575726,42.0,42.0,?
2017-07-31 18:54:38.043054,4540.54545409,2311.99999977,4232.99999958,951.999999905,3895.57575719,24.7272727248,3906.90909052,214.303030282,4296.36363593,90.6666666576,3565.87878752,4183.03030261,4223.21212079,3255.75757543,4341.18181775,3082.66666636,5253.51515099,2703.51515124,4253.09090867,3523.63636328,4426.18181774,3453.57575723,4236.60606018,12.3636363624,4837.27272679,2332.60606037,4461.72727228,3181.57575726,42.0,42.0,?
2017-07-31 18:54:38.048563,4535.39393894,2311.99999977,4229.90909049,951.999999905,3912.57575718,24.7272727248,3916.69696931,214.303030282,4309.24242381,90.6666666576,3583.39393904,4183.03030261,4214.96969655,3255.75757543,4341.18181775,3082.66666636,5264.84848432,2703.51515124,4259.27272685,3523.63636328,4410.21212077,3453.57575723,4234.54545412,12.3636363624,4829.03030255,2332.60606037,4447.81818137,3181.57575726,42.0,42.0,?
2017-07-31 18:54:38.056872,4530.24242379,2311.99999977,4232.99999958,951.999999905,3936.78787839,24.7272727248,3913.0909087,214.303030282,4302.0303026,90.6666666576,3589.57575722,4183.03030261,4200.54545413,3255.75757543,4325.21212078,3082.66666636,5280.81818129,2703.51515124,4243.30302988,3523.63636328,4408.15151471,3453.57575723,4237.1212117,12.3636363624,4822.84848437,2332.60606037,4450.39393895,3181.57575726,42.0,42.0,?
2017-07-31 18:54:38.064022,4525.09090864,2311.99999977,4231.96969655,951.999999905,3936.27272688,24.7272727248,3916.69696931,214.303030282,4293.27272684,90.6666666576,3596.78787843,4183.03030261,4211.87878746,3255.75757543,4326.75757532,3082.66666636,5273.09090856,2703.51515124,4228.36363594,3523.63636328,4416.90909047,3453.57575723,4237.63636321,12.3636363624,4822.33333285,2332.60606037,4455.5454541,3181.57575726,42.0,42.0,?
2017-07-31 18:54:38.074456,4534.36363591,2311.99999977,4237.1212117,951.999999905,3925.96969658,24.7272727248,3920.81818143,214.303030282,4300.48484805,90.6666666576,3608.12121176,4183.03030261,4222.69696927,3255.75757543,4344.78787835,3082.66666636,5262.78787826,2703.51515124,4222.18181776,3523.63636328,4432.87878744,3453.57575723,4241.75757533,12.3636363624,4838.30302982,2332.60606037,4464.81818137,3181.57575726,42.0,42.0,?
2017-07-31 18:54:38.081250,4538.48484803,2311.99999977,4238.66666624,951.999999905,3935.24242385,24.7272727248,3915.66666628,214.303030282,4302.0303026,90.6666666576,3613.27272691,4183.03030261,4212.39393897,3255.75757543,4345.81818138,3082.66666636,5282.36363584,2703.51515124,4249.99999958,3523.63636328,4422.06060562,3453.57575723,4240.21212079,12.3636363624,4828.51515103,2332.60606037,4463.27272683,3181.57575726,42.0,42.0,?
2017-07-31 18:54:38.088718,4531.78787833,2311.99999977,4229.90909049,951.999999905,3955.33333294,24.7272727248,3926.99999961,214.303030282,4297.39393896,90.6666666576,3625.63636327,4183.03030261,4214.45454503,3255.75757543,4346.3333329,3082.66666636,5289.06060553,2703.51515124,4298.42424199,3523.63636328,4400.42424198,3453.57575723,4236.60606018,12.3636363624,4805.84848437,2332.60606037,4451.93939349,3181.57575726,42.0,42.0,?
2017-07-31 18:54:38.098126,4531.27272682,2311.99999977,4237.1212117,951.999999905,3953.78787839,24.7272727248,3931.12121173,214.303030282,4295.3333329,90.6666666576,3636.96969661,4183.03030261,4215.48484806,3255.75757543,4342.72727229,3082.66666636,5272.06060553,2703.51515124,4284.51515109,3523.63636328,4408.15151471,3453.57575723,4240.7272723,12.3636363624,4818.72727225,2332.60606037,4450.39393895,3181.57575726,42.0,42.0,?
2017-07-31 18:54:38.102526,4543.12121167,2311.99999977,4237.63636321,951.999999905,3935.75757536,24.7272727248,3916.69696931,214.303030282,4296.87878745,90.6666666576,3643.15151479,4183.03030261,4205.18181776,3255.75757543,4330.36363593,3082.66666636,5273.60606008,2703.51515124,4209.30302988,3523.63636328,4440.60606016,3453.57575723,4236.60606018,12.3636363624,4845.51515103,2332.60606037,4467.90909046,3181.57575726,42.0,42.0,?
2017-07-31 18:54:38.110367,4542.60606015,2311.99999977,4231.96969655,951.999999905,3932.66666627,24.7272727248,3911.54545415,214.303030282,4295.3333329,90.6666666576,3654.99999963,4183.03030261,4202.60606019,3255.75757543,4328.30302987,3082.66666636,5271.0303025,2703.51515124,4197.96969655,3523.63636328,4448.33333289,3453.57575723,4233.51515109,12.3636363624,4848.09090861,2332.60606037,4475.12121167,3181.57575726,42.0,42.0,?
2017-07-31 18:54:38.119650,4518.39393894,2311.99999977,4234.03030261,951.999999905,3942.45454506,24.7272727248,3917.21212082,214.303030282,4293.78787836,90.6666666576,3666.84848448,4183.03030261,4201.57575716,3255.75757543,4330.87878745,3082.66666636,5264.33333281,2703.51515124,4261.33333291,3523.63636328,4406.09090865,3453.57575723,4237.63636321,12.3636363624,4814.09090861,2332.60606037,4449.87878743,3181.57575726,42.0,42.0,?
2017-07-31 18:54:38.132091,4513.75757531,2311.99999977,4231.45454503,951.999999905,3947.0909087,24.7272727248,3922.36363597,214.303030282,4303.57575715,90.6666666576,3677.15151478,4183.03030261,4203.63636322,3255.75757543,4337.57575714,3082.66666636,5266.39393887,2703.51515124,4278.84848442,3523.63636328,4394.75757532,3453.57575723,4239.69696927,12.3636363624,4805.84848437,2332.60606037,4435.45454501,3181.57575726,42.0,42.0,?
2017-07-31 18:54:38.136400,4534.36363591,2311.99999977,4233.51515109,951.999999905,3930.0909087,24.7272727248,3919.7878784,214.303030282,4300.48484805,90.6666666576,3681.78787842,4183.03030261,4198.48484806,3255.75757543,4333.45454502,3082.66666636,5258.66666614,2703.51515124,4223.7272723,3523.63636328,4425.66666622,3453.57575723,4238.66666624,12.3636363624,4834.1818177,2332.60606037,4448.8484844,3181.57575726,42.0,42.0,?
2017-07-31 18:54:38.140888,4539.51515106,2311.99999977,4232.99999958,951.999999905,3909.48484809,24.7272727248,3914.63636324,214.303030282,4289.15151472,90.6666666576,3685.39393903,4183.03030261,4192.30302988,3255.75757543,4319.54545411,3082.66666636,5261.75757523,2703.51515124,4202.09090867,3523.63636328,4418.45454501,3453.57575723,4234.54545412,12.3636363624,4829.03030255,2332.60606037,4456.06060561,3181.57575726,42.0,42.0,?
2017-07-31 18:54:38.148885,4532.81818136,2311.99999977,4231.96969655,951.999999905,3914.63636324,24.7272727248,3915.15151476,214.303030282,4291.21212078,90.6666666576,3699.30302993,4183.03030261,4203.63636322,3255.75757543,4322.12121169,3082.66666636,5280.30302978,2703.51515124,4232.48484806,3523.63636328,4398.87878744,3453.57575723,4238.66666624,12.3636363624,4816.15151467,2332.60606037,4456.06060561,3181.57575726,42.0,42.0,?
2017-07-31 18:54:38.157822,4529.21212076,2311.99999977,4239.18181776,951.999999905,3942.45454506,24.7272727248,3925.96969658,214.303030282,4295.84848442,90.6666666576,3720.93939357,4183.03030261,4215.99999958,3255.75757543,4339.6363632,3082.66666636,5266.90909038,2703.51515124,4244.33333291,3523.63636328,4403.51515107,3453.57575723,4242.27272685,12.3636363624,4822.84848437,2332.60606037,4447.81818137,3181.57575726,42.0,42.0,?
2017-07-31 18:54:38.165160,4521.99999955,2311.99999977,4237.1212117,951.999999905,3978.51515112,24.7272727248,3938.33333294,214.303030282,4302.54545412,90.6666666576,3739.99999963,4183.03030261,4225.78787837,3255.75757543,4352.51515108,3082.66666636,5258.66666614,2703.51515124,4258.24242382,3523.63636328,4406.60606017,3453.57575723,4237.1212117,12.3636363624,4820.27272679,2332.60606037,4438.5454541,3181.57575726,42.0,42.0,?
2017-07-31 18:54:38.174959,4536.42424197,2311.99999977,4234.54545412,951.999999905,3964.09090869,24.7272727248,3928.54545415,214.303030282,4297.39393896,90.6666666576,3741.54545417,4183.03030261,4223.21212079,3255.75757543,4345.30302987,3082.66666636,5279.27272674,2703.51515124,4257.21212079,3523.63636328,4421.03030259,3453.57575723,4238.66666624,12.3636363624,4834.1818177,2332.60606037,4457.09090865,3181.57575726,42.0,42.0,?
2017-07-31 18:54:38.181171,4553.93939348,2311.99999977,4235.57575715,951.999999905,3928.54545415,24.7272727248,3921.33333294,214.303030282,4289.66666624,90.6666666576,3744.12121175,4183.03030261,4220.63636321,3255.75757543,4343.24242381,3082.66666636,5289.57575705,2703.51515124,4229.90909049,3523.63636328,4444.72727228,3453.57575723,4237.1212117,12.3636363624,4857.87878739,2332.60606037,4476.1515147,3181.57575726,42.0,42.0,?
2017-07-31 18:54:38.189762,4536.93939349,2311.99999977,4236.60606018,951.999999905,3947.60606021,24.7272727248,3931.63636324,214.303030282,4299.45454502,90.6666666576,3752.8787875,4183.03030261,4231.45454503,3255.75757543,4358.18181775,3082.66666636,5297.81818129,2703.51515124,4268.0303026,3523.63636328,4433.39393895,3453.57575723,4236.09090867,12.3636363624,4838.30302982,2332.60606037,4474.09090864,3181.57575726,42.0,42.0,?
2017-07-31 18:54:38.196249,4525.60606015,2311.99999977,4241.24242382,951.999999905,3986.75757536,24.7272727248,3935.75757536,214.303030282,4303.06060563,90.6666666576,3750.30302993,4183.03030261,4225.78787837,3255.75757543,4362.30302987,3082.66666636,5293.18181765,2703.51515124,4319.54545411,3523.63636328,4414.33333289,3453.57575723,4239.18181776,12.3636363624,4815.12121164,2332.60606037,4468.42424198,3181.57575726,42.0,42.0,?
2017-07-31 18:54:38.203904,4545.69696924,2311.99999977,4234.54545412,951.999999905,3982.63636324,24.7272727248,3937.30302991,214.303030282,4299.96969654,90.6666666576,3750.30302993,4183.03030261,4208.27272685,3255.75757543,4358.69696926,3082.66666636,5292.66666614,2703.51515124,4296.36363593,3523.63636328,4436.99999956,3453.57575723,4238.66666624,12.3636363624,4841.39393891,2332.60606037,4470.48484804,3181.57575726,42.0,42.0,?
2017-07-31 18:54:38.213578,4561.66666621,2311.99999977,4233.51515109,951.999999905,3945.54545415,24.7272727248,3930.0909087,214.303030282,4296.87878745,90.6666666576,3754.42424205,4183.03030261,4204.15151473,3255.75757543,4354.57575714,3082.66666636,5303.48484795,2703.51515124,4263.39393897,3523.63636328,4455.5454541,3453.57575723,4239.69696927,12.3636363624,4861.99999951,2332.60606037,4477.18181773,3181.57575726,42.0,42.0,?
2017-07-31 18:54:38.220276,4541.57575712,2311.99999977,4238.66666624,951.999999905,3950.6969693,24.7272727248,3922.87878749,214.303030282,4297.90909048,90.6666666576,3767.30302993,4183.03030261,4221.66666624,3255.75757543,4353.03030259,3082.66666636,5307.60606008,2703.51515124,4280.90909048,3523.63636328,4428.75757531,3453.57575723,4238.15151473,12.3636363624,4829.54545406,2332.60606037,4473.06060561,3181.57575726,42.0,42.0,?
2017-07-31 18:54:38.227006,4519.42424197,2311.99999977,4238.15151473,951.999999905,3974.90909051,24.7272727248,3929.57575718,214.303030282,4303.06060563,90.6666666576,3788.93939356,4183.03030261,4229.39393897,3255.75757543,4353.03030259,3082.66666636,5303.48484795,2703.51515124,4298.42424199,3523.63636328,4409.69696926,3453.57575723,4239.18181776,12.3636363624,4807.90909043,2332.60606037,4463.27272683,3181.57575726,42.0,42.0,?
2017-07-31 18:54:38.237200,4526.63636318,2311.99999977,4237.1212117,951.999999905,3957.393939,24.7272727248,3924.93939355,214.303030282,4302.0303026,90.6666666576,3792.03030265,4183.03030261,4211.87878746,3255.75757543,4347.87878744,3082.66666636,5276.69696917,2703.51515124,4273.18181775,3523.63636328,4427.72727228,3453.57575723,4241.24242382,12.3636363624,4835.21212073,2332.60606037,4457.09090865,3181.57575726,42.0,42.0,?
2017-07-31 18:54:38.243894,4544.66666621,2311.99999977,4232.48484806,951.999999905,3942.96969658,24.7272727248,3914.12121173,214.303030282,4303.57575715,90.6666666576,3798.72727235,4183.03030261,4207.24242382,3255.75757543,4339.6363632,3082.66666636,5268.96969644,2703.51515124,4244.33333291,3523.63636328,4442.66666622,3453.57575723,4236.09090867,12.3636363624,4852.72727224,2332.60606037,4458.63636319,3181.57575726,42.0,42.0,?
