Timestamp,F3 Value,F3 Quality,FC5 Value,FC5 Quality,F7 Value,F7 Quality,T7 Value,T7 Quality,P7 Value,P7 Quality,O1 Value,O1 Quality,O2 Value,O2 Quality,P8 Value,P8 Quality,T8 Value,T8 Quality,F8 Value,F8 Quality,AF4 Value,AF4 Quality,FC6 Value,FC6 Quality,F4 Value,F4 Quality,AF3 Value,AF3 Quality,X Value,Y Value,Z Value
2017-08-01 19:34:01.772303,4551.36363591,0,4160.87878746,0,3871.36363598,0,3830.15151477,0,4226.30302988,0,4415.87878744,0,4144.39393898,0,4283.48484806,0,4949.06060557,0,4247.93939351,0,4416.90909047,0,4200.03030261,0,4851.1818177,0,4457.09090865,0,42.0,42.0,?
2017-08-01 19:34:01.777838,4578.66666621,0,4168.09090867,0,3910.51515112,0,3918.75757537,0,4279.36363594,0,4503.96969652,0,4192.8181814,0,4366.42424199,0,4981.51515102,0,4228.36363594,0,4439.06060562,0,4180.45454504,0,4855.81818133,0,4486.96969652,0,42.0,42.0,?
2017-08-01 19:34:01.783051,4575.0606056,0,4168.09090867,0,3912.57575718,0,3946.57575718,0,4285.0303026,0,4508.60606016,0,4197.45454503,0,4373.12121168,0,4976.87878738,0,4244.33333291,0,4441.63636319,0,4182.5151511,0,4851.69696921,0,4490.06060561,0,42.0,42.0,?
2017-08-01 19:34:01.788482,4580.72727227,0,4171.69696928,0,3916.18181779,0,3891.96969658,0,4285.0303026,0,4512.21212076,0,4198.99999958,0,4373.12121168,0,4970.18181768,0,4251.03030261,0,4447.30302986,0,4185.09090867,0,4859.42424194,0,4491.09090864,0,42.0,42.0,?
2017-08-01 19:34:01.790628,4576.09090863,0,4167.57575716,0,3917.72727234,0,3862.0909087,0,4281.424242,0,4515.30302985,0,4203.1212117,0,4371.06060562,0,4974.30302981,0,4245.87878745,0,4445.75757531,0,4183.54545413,0,4856.33333285,0,4485.42424198,0,42.0,42.0,?
2017-08-01 19:34:01.793771,4577.63636318,0,4168.09090867,0,3915.15151476,0,3925.45454506,0,4283.99999957,0,4517.36363591,0,4202.09090867,0,4370.54545411,0,4977.90909041,0,4244.84848442,0,4442.66666622,0,4182.5151511,0,4852.21212073,0,4487.99999955,0,42.0,42.0,?
2017-08-01 19:34:01.797531,4581.24242378,0,4168.60606019,0,3908.45454506,0,3966.66666627,0,4287.60606018,0,4516.33333288,0,4201.06060564,0,4370.54545411,0,4978.93939344,0,4243.30302988,0,4444.21212077,0,4183.54545413,0,4855.30302982,0,4489.03030258,0,42.0,42.0,?
2017-08-01 19:34:01.800092,4574.03030257,0,4166.54545413,0,3902.7878784,0,3920.30302991,0,4283.99999957,0,4515.30302985,0,4208.27272685,0,4374.15151471,0,4985.63636314,0,4248.96969654,0,4444.21212077,0,4185.09090867,0,4856.33333285,0,4482.8484844,0,42.0,42.0,?
2017-08-01 19:34:01.807936,4576.09090863,0,4169.63636322,0,3904.84848446,0,3884.24242385,0,4280.90909048,0,4516.33333288,0,4207.24242382,0,4374.66666623,0,4983.57575708,0,4254.1212117,0,4444.21212077,0,4184.06060564,0,4858.39393891,0,4486.45454501,0,42.0,42.0,?
2017-08-01 19:34:01.813078,4575.0606056,0,4167.06060564,0,3905.87878749,0,3898.15151476,0,4279.36363594,0,4513.24242379,0,4195.39393897,0,4371.06060562,0,4977.3939389,0,4243.81818139,0,4439.57575713,0,4182.5151511,0,4854.27272679,0,4486.96969652,0,42.0,42.0,?
2017-08-01 19:34:01.816021,4575.0606056,0,4166.54545413,0,3898.15151476,0,3906.393939,0,4276.27272685,0,4506.03030258,0,4190.75757534,0,4362.30302987,0,4965.03030253,0,4230.424242,0,4437.51515107,0,4183.54545413,0,4857.36363588,0,4484.39393895,0,42.0,42.0,?
2017-08-01 19:34:01.819398,4577.63636318,0,4166.03030261,0,3894.03030264,0,3904.33333294,0,4279.36363594,0,4499.33333288,0,4192.8181814,0,4353.03030259,0,4949.06060557,0,4236.60606018,0,4439.57575713,0,4185.60606019,0,4859.42424194,0,4486.96969652,0,42.0,42.0,?
2017-08-01 19:34:01.822106,4571.96969651,0,4162.42424201,0,3904.33333294,0,3900.72727234,0,4280.39393897,0,4497.78787834,0,4195.90909049,0,4361.27272684,0,4963.9999995,0,4251.54545412,0,4442.66666622,0,4185.09090867,0,4853.24242376,0,4489.5454541,0,42.0,42.0,?
2017-08-01 19:34:01.825407,4579.18181772,0,4167.06060564,0,3913.60606021,0,3893.51515113,0,4271.12121169,0,4500.36363591,0,4193.33333291,0,4369.51515108,0,4982.54545405,0,4250.51515109,0,4447.30302986,0,4185.09090867,0,4858.39393891,0,4491.60606016,0,42.0,42.0,?
2017-08-01 19:34:01.828027,4581.7575753,0,4166.03030261,0,3913.0909087,0,3880.63636325,0,4263.90909048,0,4498.81818137,0,4189.72727231,0,4361.27272684,0,4973.27272678,0,4245.36363594,0,4448.8484844,0,4183.03030261,0,4857.36363588,0,4488.51515107,0,42.0,42.0,?
2017-08-01 19:34:01.832343,4578.15151469,0,4164.48484807,0,3909.48484809,0,3885.27272688,0,4266.99999957,0,4495.72727228,0,4187.15151473,0,4353.03030259,0,4961.93939344,0,4245.36363594,0,4446.78787834,0,4180.96969655,0,4856.84848436,0,4489.5454541,0,42.0,42.0,?
2017-08-01 19:34:01.835560,4578.15151469,0,4168.60606019,0,3906.90909052,0,3914.12121173,0,4269.06060563,0,4494.69696925,0,4183.03030261,0,4356.6363632,0,4967.09090859,0,4243.30302988,0,4444.72727228,0,4181.48484807,0,4860.96969648,0,4490.57575713,0,42.0,42.0,?
2017-08-01 19:34:01.842159,4576.09090863,0,4165.5151511,0,3915.66666628,0,3917.72727234,0,4268.0303026,0,4493.66666622,0,4183.54545413,0,4360.75757532,0,4977.90909041,0,4243.30302988,0,4445.2424238,0,4184.06060564,0,4857.36363588,0,4484.90909046,0,42.0,42.0,?
2017-08-01 19:34:01.849791,4582.78787833,0,4168.09090867,0,3924.42424203,0,3883.21212082,0,4270.09090866,0,4497.78787834,0,4187.66666625,0,4357.66666623,0,4976.36363587,0,4245.87878745,0,4450.39393895,0,4186.1212117,0,4861.484848,0,4491.60606016,0,42.0,42.0,?
2017-08-01 19:34:01.857499,4581.24242378,0,4170.15151473,0,3917.72727234,0,3885.27272688,0,4273.18181775,0,4499.8484844,0,4187.15151473,0,4358.18181775,0,4971.72727223,0,4248.96969654,0,4449.36363592,0,4185.09090867,0,4860.45454497,0,4493.66666622,0,42.0,42.0,?
2017-08-01 19:34:01.865065,4576.60606015,0,4168.09090867,0,3913.0909087,0,3920.30302991,0,4277.81818139,0,4495.21212076,0,4186.1212117,0,4361.78787835,0,4975.33333284,0,4248.45454503,0,4447.30302986,0,4185.60606019,0,4855.81818133,0,4487.99999955,0,42.0,42.0,?
2017-08-01 19:34:01.874862,4579.69696924,0,4168.09090867,0,3918.75757537,0,3920.81818143,0,4279.36363594,0,4493.66666622,0,4190.75757534,0,4362.81818138,0,4978.93939344,0,4236.60606018,0,4448.8484844,0,4187.15151473,0,4859.93939345,0,4491.60606016,0,42.0,42.0,?
2017-08-01 19:34:01.882940,4572.99999954,0,4167.06060564,0,3916.69696931,0,3898.15151476,0,4273.69696927,0,4498.81818137,0,4195.39393897,0,4364.87878744,0,4977.90909041,0,4223.7272723,0,4437.51515107,0,4186.1212117,0,4856.84848436,0,4487.48484804,0,42.0,42.0,?
2017-08-01 19:34:01.889211,4578.66666621,0,4169.1212117,0,3912.06060567,0,3879.0909087,0,4273.18181775,0,4495.72727228,0,4191.78787837,0,4362.30302987,0,4970.6969692,0,4227.84848443,0,4434.42424198,0,4183.54545413,0,4859.42424194,0,4482.8484844,0,42.0,42.0,?
2017-08-01 19:34:01.899280,4578.66666621,2670.54545428,4168.09090867,0,3921.84848446,0,3896.60606022,0,4273.18181775,0,4490.06060561,0,4185.09090867,0,4354.06060563,0,4962.96969647,0,4244.84848442,0,4446.78787834,0,4186.1212117,0,4861.99999951,0,4487.48484804,0,42.0,42.0,?
2017-08-01 19:34:01.905006,4580.21212075,2670.54545428,4172.21212079,0.0,3926.99999961,0,3901.75757537,0,4277.30302988,0,4496.75757531,0,4186.63636322,0,4361.27272684,0,4976.36363587,0,4245.36363594,0,4449.87878743,0,4191.27272685,0,4859.42424194,0,4494.69696925,4026.42424202,42.0,42.0,?
2017-08-01 19:34:01.922845,4580.21212075,2670.54545428,4172.21212079,0.0,3926.99999961,0,3901.75757537,0,4277.30302988,0,4496.75757531,0,4186.63636322,0,4361.27272684,0,4976.36363587,0,4245.36363594,0,4449.87878743,0,4191.27272685,0,4859.42424194,0,4494.69696925,4026.42424202,42.0,42.0,?
2017-08-01 19:34:01.925476,4576.60606015,2670.54545428,4167.57575716,0.0,3930.0909087,3498.90909056,3908.45454506,65.9393939328,4278.84848442,0,4496.24242379,0,4198.48484806,0,4374.66666623,0,4983.06060556,0,4257.7272723,0,4455.5454541,0,4185.60606019,0,4861.99999951,0,4492.63636319,4026.42424202,42.0,42.0,?
2017-08-01 19:34:01.931184,4576.60606015,2670.54545428,4167.57575716,0.0,3930.0909087,3498.90909056,3908.45454506,65.9393939328,4278.84848442,0,4496.24242379,0,4198.48484806,0,4374.66666623,0,4983.06060556,0,4257.7272723,0,4455.5454541,0,4185.60606019,0,4861.99999951,0,4492.63636319,4026.42424202,42.0,42.0,?
2017-08-01 19:34:01.936611,4579.69696924,2670.54545428,4168.60606019,0.0,3924.42424203,3498.90909056,3924.93939355,65.9393939328,4275.24242381,4047.03030263,4499.33333288,0,4200.54545413,0,4373.12121168,0,4995.93939344,0,4246.39393897,0,4450.90909046,0,4187.15151473,0,4860.45454497,0,4490.57575713,4026.42424202,42.0,42.0,?
2017-08-01 19:34:01.943265,4575.57575712,2670.54545428,4166.54545413,0.0,3923.393939,3498.90909056,3877.03030264,65.9393939328,4278.84848442,4047.03030263,4501.39393894,3766.78787841,4198.48484806,0,4371.06060562,0,4992.84848435,0,4242.78787836,0,4446.27272683,0,4188.18181776,0,4853.75757527,0,4487.99999955,4026.42424202,42.0,42.0,?
2017-08-01 19:34:01.951764,4579.18181772,2670.54545428,4169.1212117,0.0,3929.06060567,3498.90909056,3885.27272688,65.9393939328,4282.45454503,4047.03030263,4498.81818137,3766.78787841,4195.39393897,3070.30303,4367.96969653,0,4979.96969647,0,4249.48484806,0,4453.48484804,0,4186.1212117,0,4857.87878739,0,4492.12121167,4026.42424202,42.0,42.0,?
2017-08-01 19:34:01.962366,4574.54545409,2670.54545428,4164.99999958,0.0,3926.99999961,3498.90909056,3930.0909087,65.9393939328,4279.87878745,4047.03030263,4495.72727228,3766.78787841,4190.75757534,3070.30303,4360.24242381,2616.96969671,4963.9999995,0,4243.30302988,0,4453.99999955,0,4184.06060564,0,4856.84848436,0,4491.60606016,4026.42424202,42.0,42.0,?
2017-08-01 19:34:01.973580,4574.03030257,2670.54545428,4164.48484807,0.0,3922.36363597,3498.90909056,3911.03030264,65.9393939328,4279.87878745,4047.03030263,4496.75757531,3766.78787841,4187.66666625,3070.30303,4357.66666623,2616.96969671,4961.42424193,2954.90909061,4240.21212079,0,4451.42424198,0,4188.18181776,0,4860.96969648,0,4491.60606016,4026.42424202,42.0,42.0,?
2017-08-01 19:34:01.975724,4578.15151469,2670.54545428,4169.1212117,0.0,3925.45454506,3498.90909056,3885.27272688,65.9393939328,4279.87878745,4047.03030263,4498.30302985,3766.78787841,4191.78787837,3070.30303,4366.9393935,2616.96969671,4978.42424193,2954.90909061,4255.15151473,49.4545454496,4454.51515107,0,4191.27272685,0,4864.57575709,0,4494.18181773,4026.42424202,42.0,42.0,?
2017-08-01 19:34:01.982327,4571.454545,2670.54545428,4167.57575716,0.0,3925.96969658,3498.90909056,3899.69696931,65.9393939328,4278.33333291,4047.03030263,4495.72727228,3766.78787841,4199.5151511,3070.30303,4371.06060562,2616.96969671,4981.51515102,2954.90909061,4258.24242382,49.4545454496,4452.96969652,1941.0909089,4188.69696928,0,4854.27272679,0,4490.06060561,4026.42424202,42.0,42.0,?
2017-08-01 19:34:01.992111,4577.63636318,2670.54545428,4170.15151473,0.0,3922.87878749,3498.90909056,3909.48484809,65.9393939328,4273.69696927,4047.03030263,4491.09090864,3766.78787841,4197.96969655,3070.30303,4365.39393896,2616.96969671,4978.42424193,2954.90909061,4247.93939351,49.4545454496,4450.90909046,1941.0909089,4189.21212079,1310.54545441,4856.84848436,0,4489.03030258,4026.42424202,42.0,42.0,?
2017-08-01 19:34:01.998618,4579.69696924,2670.54545428,4168.60606019,0.0,3924.42424203,3498.90909056,3906.393939,65.9393939328,4270.60606018,4047.03030263,4489.03030258,3766.78787841,4191.78787837,3070.30303,4364.36363593,2616.96969671,4993.87878738,2954.90909061,4248.45454503,49.4545454496,4450.39393895,1941.0909089,4190.24242382,1310.54545441,4859.93939345,2118.30303009,4487.48484804,4026.42424202,42.0,42.0,?
2017-08-01 19:34:02.005253,4576.60606015,2670.54545428,4168.09090867,0.0,3925.96969658,3498.90909056,3914.63636324,65.9393939328,4272.15151472,4047.03030263,4485.93939349,3766.78787841,4186.1212117,3070.30303,4365.90909047,2616.96969671,4992.33333283,2954.90909061,4255.15151473,49.4545454496,4453.48484804,1941.0909089,4188.18181776,1310.54545441,4858.90909042,2118.30303009,4490.57575713,4026.42424202,42.0,42.0,?
2017-08-01 19:34:02.013989,4581.24242378,2670.54545428,4169.63636322,0.0,3930.0909087,3498.90909056,3914.63636324,65.9393939328,4274.21212078,4047.03030263,4484.39393895,3766.78787841,4181.99999958,3070.30303,4360.75757532,2616.96969671,4970.6969692,2954.90909061,4253.09090867,49.4545454496,4460.18181774,1932.84848466,4188.69696928,1310.54545441,4862.51515103,2118.30303009,4498.30302985,4026.42424202,42.0,42.0,?
2017-08-01 19:34:02.021089,4578.15151469,2670.54545428,4166.03030261,0.0,3934.21212082,3498.90909056,3879.60606022,65.9393939328,4271.12121169,4047.03030263,4492.12121167,3766.78787841,4184.57575716,3070.30303,4360.24242381,2616.96969671,4976.87878738,2954.90909061,4251.03030261,49.4545454496,4460.69696925,1932.84848466,4189.21212079,1310.54545441,4860.45454497,2118.30303009,4492.63636319,4026.42424202,42.0,42.0,?
2017-08-01 19:34:02.031181,4578.15151469,2670.54545428,4167.06060564,0.0,3929.57575718,3498.90909056,3858.99999961,65.9393939328,4267.51515109,4047.03030263,4497.27272682,3766.78787841,4188.18181776,3070.30303,4364.36363593,2616.96969671,4981.51515102,2954.90909061,4254.1212117,49.4545454496,4458.12121168,1932.84848466,4190.24242382,1310.54545441,4863.03030254,2118.30303009,4489.5454541,4026.42424202,42.0,42.0,?
2017-08-01 19:34:02.037935,4575.0606056,2670.54545428,4164.48484807,0.0,3928.03030264,3498.90909056,3897.12121173,65.9393939328,4275.24242381,4047.03030263,4495.21212076,3766.78787841,4189.21212079,3070.30303,4368.48484805,2616.96969671,4969.15151465,2954.90909061,4250.51515109,49.4545454496,4451.93939349,1932.84848466,4188.69696928,1310.54545441,4861.484848,2118.30303009,4489.03030258,4026.42424202,42.0,42.0,?
2017-08-01 19:34:02.049702,4572.48484803,2670.54545428,4163.96969655,0.0,3932.15151476,3498.90909056,3941.93939355,65.9393939328,4281.93939351,4047.03030263,4497.27272682,3766.78787841,4192.30302988,3070.30303,4369.51515108,2616.96969671,4978.42424193,2954.90909061,4239.18181776,49.4545454496,4446.78787834,1932.84848466,4185.60606019,1310.54545441,4857.87878739,2118.30303009,4490.57575713,4026.42424202,42.0,42.0,?
2017-08-01 19:34:02.052837,4578.15151469,2670.54545428,4168.60606019,0.0,3930.60606021,3498.90909056,3922.36363597,65.9393939328,4279.87878745,4047.03030263,4501.39393894,3766.78787841,4192.30302988,3070.30303,4361.27272684,2616.96969671,4977.90909041,2954.90909061,4243.30302988,49.4545454496,4451.93939349,1932.84848466,4188.69696928,1310.54545441,4863.03030254,2118.30303009,4496.24242379,4026.42424202,42.0,42.0,?
2017-08-01 19:34:02.064825,4576.09090863,2670.54545428,4163.45454504,0.0,3928.54545415,3498.90909056,3871.36363598,65.9393939328,4277.81818139,4047.03030263,4499.33333288,3766.78787841,4190.75757534,3070.30303,4358.18181775,2616.96969671,4963.48484799,2954.90909061,4260.81818139,49.4545454496,4458.12121168,1932.84848466,4192.8181814,1310.54545441,4860.45454497,2118.30303009,4492.63636319,4026.42424202,42.0,42.0,?
2017-08-01 19:34:02.068952,4579.18181772,2670.54545428,4163.96969655,0.0,3929.57575718,3498.90909056,3872.90909052,65.9393939328,4277.30302988,4047.03030263,4495.72727228,3766.78787841,4192.30302988,3070.30303,4363.84848441,2616.96969671,4972.75757526,2954.90909061,4258.24242382,49.4545454496,4461.21212077,1932.84848466,4191.27272685,1310.54545441,4862.51515103,2118.30303009,4493.1515147,4026.42424202,42.0,42.0,?
2017-08-01 19:34:02.076101,4576.60606015,2670.54545428,4167.57575716,0.0,3929.06060567,3498.90909056,3905.87878749,65.9393939328,4273.69696927,4047.03030263,4493.1515147,3766.78787841,4192.8181814,3070.30303,4363.84848441,2616.96969671,4991.3030298,2954.90909061,4246.90909048,49.4545454496,4456.06060561,1932.84848466,4187.66666625,1310.54545441,4861.99999951,2118.30303009,4495.72727228,4026.42424202,42.0,42.0,?
2017-08-01 19:34:02.084092,4569.39393894,2670.54545428,4166.54545413,0.0,3924.93939355,3498.90909056,3928.54545415,65.9393939328,4268.54545412,4047.03030263,4489.5454541,3766.78787841,4189.21212079,3070.30303,4361.27272684,2616.96969671,4984.09090859,2954.90909061,4249.99999958,49.4545454496,4449.87878743,1932.84848466,4188.18181776,1310.54545441,4853.24242376,2118.30303009,4492.12121167,4026.42424202,42.0,42.0,?
2017-08-01 19:34:02.091467,4576.09090863,2670.54545428,4168.09090867,0.0,3920.81818143,3498.90909056,3901.24242385,65.9393939328,4263.39393897,4047.03030263,4484.39393895,3766.78787841,4185.60606019,3070.30303,4359.21212078,2616.96969671,4959.36363587,2954.90909061,4246.90909048,49.4545454496,4451.93939349,1932.84848466,4189.72727231,1310.54545441,4857.36363588,2118.30303009,4489.03030258,4026.42424202,42.0,42.0,?
2017-08-01 19:34:02.100207,4574.03030257,2670.54545428,4165.5151511,0.0,3922.36363597,3498.90909056,3840.96969659,65.9393939328,4260.81818139,4047.03030263,4482.33333289,3766.78787841,4183.03030261,3070.30303,4355.09090866,2616.96969671,4946.48484799,2954.90909061,4242.27272685,49.4545454496,4452.45454501,1932.84848466,4189.21212079,1310.54545441,4860.96969648,2118.30303009,4487.99999955,4026.42424202,42.0,42.0,?
2017-08-01 19:34:02.107790,4575.57575712,2670.54545428,4167.06060564,0.0,3925.96969658,3498.90909056,3857.96969658,65.9393939328,4263.90909048,4047.03030263,4481.81818137,3766.78787841,4176.33333292,3070.30303,4351.48484805,2616.96969671,4952.66666617,2954.90909061,4248.45454503,49.4545454496,4452.45454501,1932.84848466,4189.72727231,1310.54545441,4861.484848,2118.30303009,4491.60606016,4026.42424202,42.0,42.0,?
2017-08-01 19:34:02.115441,4580.72727227,2670.54545428,4170.66666625,0.0,3926.99999961,3498.90909056,3923.90909052,65.9393939328,4267.51515109,4047.03030263,4484.90909046,3766.78787841,4176.84848443,3070.30303,4355.60606017,2616.96969671,4971.72727223,2954.90909061,4252.06060564,49.4545454496,4454.51515107,1932.84848466,4189.21212079,1310.54545441,4860.45454497,2118.30303009,4494.18181773,4026.42424202,42.0,42.0,?
2017-08-01 19:34:02.124131,4575.0606056,2670.54545428,4168.60606019,0.0,3927.51515112,3498.90909056,3926.48484809,65.9393939328,4271.12121169,4047.03030263,4493.66666622,3766.78787841,4185.60606019,3070.30303,4360.75757532,2616.96969671,4986.66666617,2954.90909061,4254.63636321,49.4545454496,4456.57575713,1932.84848466,4188.69696928,1310.54545441,4857.87878739,2118.30303009,4493.1515147,4026.42424202,42.0,42.0,?
2017-08-01 19:34:02.131590,4576.09090863,2670.54545428,4170.15151473,0.0,3926.99999961,3498.90909056,3889.90909052,65.9393939328,4272.66666624,4047.03030263,4495.72727228,3766.78787841,4184.06060564,3070.30303,4359.21212078,2616.96969671,4985.12121162,2954.90909061,4255.15151473,49.4545454496,4457.60606016,1932.84848466,4187.66666625,1310.54545441,4862.51515103,2118.30303009,4493.66666622,4026.42424202,42.0,42.0,?
2017-08-01 19:34:02.138329,4575.0606056,2670.54545428,4167.06060564,0.0,3928.03030264,3498.90909056,3890.42424204,65.9393939328,4269.57575715,4047.03030263,4487.48484804,3766.78787841,4176.33333292,3070.30303,4357.15151472,2616.96969671,4971.72727223,2954.90909061,4250.51515109,49.4545454496,4453.48484804,1932.84848466,4185.60606019,1310.54545441,4860.45454497,2118.30303009,4490.06060561,4026.42424202,42.0,42.0,?
2017-08-01 19:34:02.150603,4576.60606015,2670.54545428,4166.54545413,0.0,3933.18181779,3498.90909056,3882.18181779,65.9393939328,4266.99999957,4047.03030263,4484.39393895,3766.78787841,4182.5151511,3070.30303,4358.69696926,2616.96969671,4964.51515102,2954.90909061,4254.1212117,49.4545454496,4456.06060561,1932.84848466,4187.15151473,1310.54545441,4863.03030254,2118.30303009,4494.18181773,4026.42424202,42.0,42.0,?
2017-08-01 19:34:02.157259,4579.18181772,2670.54545428,4169.63636322,0.0,3935.24242385,3498.90909056,3880.63636325,65.9393939328,4269.57575715,4047.03030263,4490.57575713,3766.78787841,4194.36363594,3070.30303,4359.72727229,2616.96969671,4983.06060556,2954.90909061,4264.424242,49.4545454496,4462.2424238,1932.84848466,4188.18181776,1310.54545441,4864.06060557,2118.30303009,4498.81818137,4026.42424202,42.0,42.0,?
2017-08-01 19:34:02.162803,4574.03030257,2670.54545428,4168.09090867,0.0,3928.54545415,3498.90909056,3931.63636324,65.9393939328,4275.24242381,4047.03030263,4492.63636319,3766.78787841,4194.36363594,3070.30303,4359.72727229,2616.96969671,4990.78787829,2954.90909061,4258.24242382,49.4545454496,4455.5454541,1932.84848466,4185.60606019,1310.54545441,4852.72727224,2118.30303009,4490.57575713,4026.42424202,42.0,42.0,?
2017-08-01 19:34:02.170851,4580.21212075,2670.54545428,4170.66666625,0.0,3922.87878749,3498.90909056,3916.18181779,65.9393939328,4271.63636321,4047.03030263,4483.36363592,3766.78787841,4186.1212117,3070.30303,4356.6363632,2616.96969671,4966.57575708,2954.90909061,4239.69696927,49.4545454496,4449.36363592,1932.84848466,4184.06060564,1310.54545441,4855.30302982,2118.30303009,4489.03030258,4026.42424202,42.0,42.0,?
2017-08-01 19:34:02.178163,4578.66666621,2670.54545428,4167.06060564,0.0,3925.96969658,3498.90909056,3852.81818143,65.9393939328,4263.90909048,4047.03030263,4481.30302985,3766.78787841,4186.1212117,3070.30303,4358.18181775,2616.96969671,4967.60606011,2954.90909061,4238.66666624,49.4545454496,4451.42424198,1932.84848466,4185.09090867,1310.54545441,4857.87878739,2118.30303009,4489.03030258,4026.42424202,42.0,42.0,?
2017-08-01 19:34:02.185914,4574.54545409,2670.54545428,4165.5151511,0.0,3928.03030264,3498.90909056,3869.30302992,65.9393939328,4265.96969654,4047.03030263,4494.18181773,3766.78787841,4193.33333291,3070.30303,4361.27272684,2616.96969671,4990.78787829,2954.90909061,4255.15151473,49.4545454496,4454.51515107,1932.84848466,4187.15151473,1310.54545441,4859.42424194,2118.30303009,4490.06060561,4026.42424202,42.0,42.0,?
2017-08-01 19:34:02.193972,4575.0606056,2670.54545428,4169.1212117,0.0,3923.90909052,3498.90909056,3915.15151476,65.9393939328,4269.06060563,4047.03030263,4498.81818137,3766.78787841,4189.21212079,3070.30303,4352.51515108,2616.96969671,4968.12121162,2954.90909061,4260.30302988,49.4545454496,4456.57575713,1932.84848466,4189.21212079,1310.54545441,4862.51515103,2118.30303009,4492.12121167,4026.42424202,42.0,42.0,?
2017-08-01 19:34:02.204715,4568.87878742,2670.54545428,4165.5151511,0.0,3925.96969658,3498.90909056,3896.60606022,65.9393939328,4270.09090866,4047.03030263,4490.06060561,3766.78787841,4181.48484807,3070.30303,4348.39393896,2616.96969671,4942.36363587,2954.90909061,4250.51515109,49.4545454496,4453.99999955,1932.84848466,4188.18181776,1310.54545441,4856.84848436,2118.30303009,4485.42424198,4026.42424202,42.0,42.0,?
2017-08-01 19:34:02.209123,4576.60606015,2670.54545428,4166.03030261,0.0,3929.57575718,3498.90909056,3881.66666628,65.9393939328,4268.54545412,4047.03030263,4484.90909046,3766.78787841,4181.48484807,3070.30303,4353.54545411,2616.96969671,4970.18181768,2954.90909061,4242.78787836,49.4545454496,4453.48484804,1932.84848466,4184.06060564,1310.54545441,4861.484848,2118.30303009,4490.57575713,4026.42424202,42.0,42.0,?
2017-08-01 19:34:02.217051,4579.69696924,2670.54545428,4166.54545413,0.0,3926.99999961,3498.90909056,3899.18181779,65.9393939328,4266.48484806,4047.03030263,4486.96969652,3766.78787841,4185.60606019,3070.30303,4356.6363632,2616.96969671,4995.93939344,2954.90909061,4249.48484806,49.4545454496,4456.06060561,1932.84848466,4183.54545413,1310.54545441,4864.57575709,2118.30303009,4496.75757531,4026.42424202,42.0,42.0,?
2017-08-01 19:34:02.224958,4573.51515106,2670.54545428,4164.99999958,0.0,3925.45454506,3498.90909056,3896.60606022,65.9393939328,4264.93939351,4047.03030263,4486.96969652,3766.78787841,4190.75757534,3070.30303,4356.12121169,2616.96969671,4982.03030253,2954.90909061,4260.81818139,49.4545454496,4459.66666622,1932.84848466,4186.63636322,1310.54545441,4859.42424194,2118.30303009,4491.09090864,4026.42424202,42.0,42.0,?
2017-08-01 19:34:02.232392,4576.60606015,2670.54545428,4166.03030261,0.0,3925.45454506,3498.90909056,3892.4848481,65.9393939328,4263.90909048,4047.03030263,4484.39393895,3766.78787841,4186.63636322,3070.30303,4353.54545411,2616.96969671,4960.90909041,2954.90909061,4254.1212117,49.4545454496,4457.60606016,1932.84848466,4184.57575716,1310.54545441,4857.87878739,2118.30303009,4490.57575713,4026.42424202,42.0,42.0,?
2017-08-01 19:34:02.241064,4572.99999954,2670.54545428,4164.48484807,0.0,3926.48484809,3498.90909056,3884.24242385,65.9393939328,4260.30302988,4047.03030263,4484.39393895,3766.78787841,4175.8181814,3070.30303,4349.42424199,2616.96969671,4958.33333284,2954.90909061,4243.30302988,49.4545454496,4448.8484844,1932.84848466,4179.93939352,1310.54545441,4852.21212073,2118.30303009,4491.60606016,4026.42424202,42.0,42.0,?
2017-08-01 19:34:02.248681,4575.57575712,2670.54545428,4167.57575716,0.0,3924.42424203,3498.90909056,3857.96969658,65.9393939328,4256.69696927,4047.03030263,4481.81818137,3766.78787841,4173.24242383,3070.30303,4345.30302987,2616.96969671,4969.15151465,2954.90909061,4246.39393897,49.4545454496,4448.8484844,1932.84848466,4181.48484807,1310.54545441,4856.84848436,2118.30303009,4492.63636319,4026.42424202,42.0,42.0,?
2017-08-01 19:34:02.256402,4576.09090863,2670.54545428,4165.5151511,0.0,3916.69696931,3498.90909056,3864.66666628,65.9393939328,4261.33333291,4047.03030263,4483.36363592,3766.78787841,4176.84848443,3070.30303,4342.72727229,2616.96969671,4975.33333284,2954.90909061,4248.96969654,49.4545454496,4448.33333289,1932.84848466,4183.03030261,1310.54545441,4859.93939345,2118.30303009,4490.06060561,4026.42424202,42.0,42.0,?
2017-08-01 19:34:02.264097,4568.36363591,2670.54545428,4163.96969655,0.0,3913.0909087,3498.90909056,3913.0909087,65.9393939328,4265.96969654,4047.03030263,4489.03030258,3766.78787841,4172.21212079,3070.30303,4339.6363632,2616.96969671,4968.12121162,2954.90909061,4239.18181776,49.4545454496,4443.69696925,1932.84848466,4179.93939352,1310.54545441,4855.30302982,2118.30303009,4484.90909046,4026.42424202,42.0,42.0,?
2017-08-01 19:34:02.271887,4571.96969651,2670.54545428,4169.1212117,0.0,3915.66666628,3498.90909056,3919.27272688,65.9393939328,4263.39393897,4047.03030263,4488.51515107,3766.78787841,4164.48484807,3070.30303,4334.48484805,2616.96969671,4957.81818132,2954.90909061,4227.33333291,49.4545454496,4447.81818137,1932.84848466,4180.45454504,1310.54545441,4857.36363588,2118.30303009,4489.5454541,4026.42424202,42.0,42.0,?
2017-08-01 19:34:02.279642,4571.454545,2670.54545428,4166.03030261,0.0,3916.18181779,3498.90909056,3875.99999961,65.9393939328,4264.424242,4047.03030263,4484.39393895,3766.78787841,4172.72727231,3070.30303,4340.15151472,2616.96969671,4961.42424193,2954.90909061,4235.57575715,49.4545454496,4449.36363592,1932.84848466,4183.03030261,1310.54545441,4856.33333285,2118.30303009,4491.09090864,4026.42424202,42.0,42.0,?
2017-08-01 19:34:02.290306,4574.03030257,2670.54545428,4164.99999958,0.0,3914.12121173,3498.90909056,3874.96969658,65.9393939328,4269.57575715,4047.03030263,4489.03030258,3766.78787841,4191.27272685,3070.30303,4354.06060563,2616.96969671,4959.36363587,2954.90909061,4251.54545412,49.4545454496,4449.87878743,1932.84848466,4185.60606019,1310.54545441,4858.90909042,2118.30303009,4490.57575713,4026.42424202,42.0,42.0,?
2017-08-01 19:34:02.296101,4574.03030257,2670.54545428,4166.03030261,0.0,3912.06060567,3498.90909056,3906.90909052,65.9393939328,4268.0303026,4047.03030263,4492.12121167,3766.78787841,4197.96969655,3070.30303,4359.21212078,2616.96969671,4952.15151466,2954.90909061,4245.87878745,49.4545454496,4448.33333289,1932.84848466,4183.03030261,1310.54545441,4856.84848436,2118.30303009,4487.99999955,4026.42424202,42.0,42.0,?
2017-08-01 19:34:02.305365,4565.27272682,2670.54545428,4163.45454504,0.0,3913.0909087,3498.90909056,3887.33333294,65.9393939328,4266.48484806,4047.03030263,4487.48484804,3766.78787841,4196.93939352,3070.30303,4360.24242381,2616.96969671,4965.54545405,2954.90909061,4232.99999958,49.4545454496,4443.18181774,1932.84848466,4179.93939352,1310.54545441,4850.66666618,2118.30303009,4486.96969652,4026.42424202,42.0,42.0,?
2017-08-01 19:34:02.310152,4571.454545,2670.54545428,4166.03030261,0.0,3917.21212082,3498.90909056,3854.87878749,65.9393939328,4274.21212078,4047.03030263,4489.03030258,3766.78787841,4198.48484806,3070.30303,4361.27272684,2616.96969671,4973.78787829,2954.90909061,4236.09090867,49.4545454496,4446.27272683,1932.84848466,4183.54545413,1310.54545441,4858.39393891,2118.30303009,4493.1515147,4026.42424202,42.0,42.0,?
2017-08-01 19:34:02.320218,4572.48484803,2670.54545428,4163.45454504,0.0,3916.18181779,3498.90909056,3882.18181779,65.9393939328,4276.27272685,4047.03030263,4491.60606016,3766.78787841,4194.36363594,3070.30303,4355.60606017,2616.96969671,4960.90909041,2954.90909061,4243.81818139,49.4545454496,4449.87878743,1932.84848466,4185.60606019,1310.54545441,4858.90909042,2118.30303009,4489.03030258,4026.42424202,42.0,42.0,?
2017-08-01 19:34:02.326974,4570.42424197,2670.54545428,4164.48484807,0.0,3910.51515112,3498.90909056,3901.24242385,65.9393939328,4267.51515109,4047.03030263,4487.48484804,3766.78787841,4180.96969655,3070.30303,4345.30302987,2616.96969671,4953.6969692,2954.90909061,4241.24242382,49.4545454496,4448.33333289,1932.84848466,4182.5151511,1310.54545441,4857.36363588,2118.30303009,4486.45454501,4026.42424202,42.0,42.0,?
2017-08-01 19:34:02.334089,4572.48484803,2670.54545428,4169.63636322,0.0,3911.54545415,3498.90909056,3877.03030264,65.9393939328,4263.39393897,4047.03030263,4483.36363592,3766.78787841,4171.69696928,3070.30303,4340.66666623,2616.96969671,4956.27272678,2954.90909061,4236.09090867,49.4545454496,4447.30302986,1932.84848466,4180.45454504,1310.54545441,4859.42424194,2118.30303009,4489.5454541,4026.42424202,42.0,42.0,?
2017-08-01 19:34:02.343937,4566.81818136,2670.54545428,4167.06060564,0.0,3915.66666628,3498.90909056,3884.75757537,65.9393939328,4269.06060563,4047.03030263,4483.87878743,3766.78787841,4170.66666625,3070.30303,4341.18181775,2616.96969671,4951.63636314,2954.90909061,4236.09090867,49.4545454496,4445.2424238,1932.84848466,4183.03030261,1310.54545441,4851.69696921,2118.30303009,4486.96969652,4026.42424202,42.0,42.0,?
2017-08-01 19:34:02.350783,4568.87878742,2670.54545428,4167.57575716,0.0,3912.57575718,3498.90909056,3903.81818143,65.9393939328,4269.06060563,4047.03030263,4483.36363592,3766.78787841,4168.60606019,3070.30303,4338.09090866,2616.96969671,4945.45454496,2954.90909061,4236.60606018,49.4545454496,4443.18181774,1932.84848466,4181.99999958,1310.54545441,4852.21212073,2118.30303009,4485.42424198,4026.42424202,42.0,42.0,?
2017-08-01 19:34:02.357039,4573.51515106,2670.54545428,4170.66666625,0.0,3910.51515112,3498.90909056,3869.81818143,65.9393939328,4265.45454503,4047.03030263,4483.87878743,3766.78787841,4178.39393898,3070.30303,4344.27272684,2616.96969671,4955.75757526,2954.90909061,4243.30302988,49.4545454496,4446.27272683,1932.84848466,4180.45454504,1310.54545441,4861.99999951,2118.30303009,4484.90909046,4026.42424202,42.0,42.0,?
2017-08-01 19:34:02.366070,4575.0606056,2670.54545428,4169.1212117,0.0,3913.0909087,3498.90909056,3857.96969658,65.9393939328,4268.54545412,4047.03030263,4491.09090864,3766.78787841,4197.96969655,3070.30303,4354.57575714,2616.96969671,4967.09090859,2954.90909061,4246.39393897,49.4545454496,4454.51515107,1932.84848466,4186.63636322,1310.54545441,4866.63636315,2118.30303009,4489.5454541,4026.42424202,42.0,42.0,?
2017-08-01 19:34:02.373203,4574.03030257,2670.54545428,4164.48484807,0.0,3918.24242385,3498.90909056,3889.393939,65.9393939328,4273.18181775,4047.03030263,4494.69696925,3766.78787841,4196.424242,3070.30303,4353.54545411,2616.96969671,4959.36363587,2954.90909061,4236.60606018,49.4545454496,4450.90909046,1932.84848466,4187.15151473,1310.54545441,4857.36363588,2118.30303009,4492.12121167,4026.42424202,42.0,42.0,?
2017-08-01 19:34:02.383163,4569.39393894,2670.54545428,4165.5151511,0.0,3919.27272688,3498.90909056,3889.90909052,65.9393939328,4276.78787836,4047.03030263,4494.69696925,3766.78787841,4185.09090867,3070.30303,4350.45454502,2616.96969671,4945.96969648,2954.90909061,4231.45454503,49.4545454496,4438.5454541,1932.84848466,4179.93939352,1310.54545441,4850.66666618,2118.30303009,4483.36363592,4026.42424202,42.0,42.0,?
2017-08-01 19:34:02.389704,4574.03030257,2670.54545428,4169.1212117,0.0,3911.03030264,3498.90909056,3883.72727234,65.9393939328,4280.39393897,4047.03030263,4500.36363591,3766.78787841,4189.72727231,3070.30303,4354.06060563,2616.96969671,4950.0909086,2954.90909061,4238.66666624,49.4545454496,4440.60606016,1932.84848466,4177.87878746,1310.54545441,4858.90909042,2118.30303009,4484.39393895,4026.42424202,42.0,42.0,?
2017-08-01 19:34:02.396489,4569.39393894,2654.0606058,4161.90909049,0.0,3902.7878784,3498.90909056,3913.0909087,65.9393939328,4280.90909048,4047.03030263,4502.42424197,3766.78787841,4195.39393897,3070.30303,4354.57575714,2616.96969671,4957.81818132,2954.90909061,4238.15151473,49.4545454496,4441.12121168,1932.84848466,4182.5151511,1310.54545441,4856.84848436,2118.30303009,4483.87878743,4026.42424202,42.0,42.0,?
2017-08-01 19:34:02.409163,4565.27272682,2654.0606058,4161.39393898,4.1212121208,3910.51515112,3498.90909056,3909.48484809,65.9393939328,4275.24242381,4047.03030263,4494.69696925,3766.78787841,4187.66666625,3070.30303,4350.45454502,2616.96969671,4958.84848435,2954.90909061,4236.60606018,49.4545454496,4439.57575713,1932.84848466,4184.06060564,1310.54545441,4854.7878783,2118.30303009,4483.36363592,4026.42424202,42.0,42.0,?
2017-08-01 19:34:02.412613,4574.03030257,2654.0606058,4168.09090867,4.1212121208,3922.36363597,3498.90909056,3864.66666628,65.9393939328,4271.12121169,4047.03030263,4489.5454541,3766.78787841,4188.18181776,3070.30303,4354.57575714,2616.96969671,4968.63636314,2954.90909061,4248.45454503,49.4545454496,4449.87878743,1932.84848466,4180.96969655,1310.54545441,4859.93939345,2118.30303009,4495.21212076,4051.15151475,42.0,42.0,?
2017-08-01 19:34:02.422814,4572.48484803,2654.0606058,4163.96969655,4.1212121208,3918.75757537,3503.03030268,3863.12121173,65.9393939328,4271.63636321,4047.03030263,4489.03030258,3766.78787841,4201.06060564,3070.30303,4358.69696926,2616.96969671,4970.6969692,2954.90909061,4245.87878745,49.4545454496,4451.93939349,1932.84848466,4180.96969655,1310.54545441,4855.81818133,2118.30303009,4493.66666622,4051.15151475,42.0,42.0,?
2017-08-01 19:34:02.429726,4573.51515106,2654.0606058,4164.99999958,4.1212121208,3909.48484809,3503.03030268,3880.12121173,4150.06060565,4267.51515109,4047.03030263,4483.36363592,3766.78787841,4201.06060564,3070.30303,4355.09090866,2616.96969671,4955.24242375,2954.90909061,4231.45454503,49.4545454496,4449.36363592,1932.84848466,4186.1212117,1310.54545441,4859.42424194,2118.30303009,4488.51515107,4051.15151475,42.0,42.0,?
2017-08-01 19:34:02.438487,4574.54545409,2654.0606058,4166.03030261,4.1212121208,3911.03030264,3503.03030268,3876.51515113,4150.06060565,4262.87878745,4047.03030263,4482.8484844,3766.78787841,4191.27272685,3070.30303,4356.12121169,2616.96969671,4959.36363587,2954.90909061,4241.75757533,49.4545454496,4453.48484804,1932.84848466,4187.66666625,1310.54545441,4859.42424194,2118.30303009,4492.63636319,4051.15151475,42.0,42.0,?
2017-08-01 19:34:02.443139,4571.96969651,2654.0606058,4162.42424201,4.1212121208,3917.72727234,3503.03030268,3897.12121173,4150.06060565,4267.51515109,4047.03030263,4485.93939349,3758.54545417,4192.8181814,3070.30303,4359.72727229,2616.96969671,4980.48484799,2954.90909061,4258.24242382,49.4545454496,4452.45454501,1932.84848466,4182.5151511,1310.54545441,4853.24242376,2118.30303009,4492.12121167,4051.15151475,42.0,42.0,?
2017-08-01 19:34:02.451274,4574.03030257,2654.0606058,4165.5151511,4.1212121208,3915.66666628,3503.03030268,3931.12121173,4150.06060565,4272.66666624,4047.03030263,4483.87878743,3758.54545417,4199.5151511,3082.66666636,4357.66666623,2616.96969671,4969.66666617,2954.90909061,4257.7272723,49.4545454496,4450.39393895,1932.84848466,4180.96969655,1310.54545441,4858.90909042,2118.30303009,4486.96969652,4051.15151475,42.0,42.0,?
2017-08-01 19:34:02.460795,4567.84848439,2654.0606058,4164.99999958,4.1212121208,3915.15151476,3503.03030268,3891.45454507,4150.06060565,4271.63636321,4047.03030263,4484.90909046,3758.54545417,4198.48484806,3082.66666636,4358.69696926,2612.84848459,4952.66666617,2954.90909061,4256.69696927,49.4545454496,4452.45454501,1932.84848466,4184.06060564,1310.54545441,4860.45454497,2118.30303009,4485.42424198,4051.15151475,42.0,42.0,?
2017-08-01 19:34:02.475972,4571.454545,2654.0606058,4163.45454504,4.1212121208,3924.42424203,3503.03030268,3828.09090871,4150.06060565,4271.12121169,4047.03030263,4491.60606016,3758.54545417,4193.84848443,3082.66666636,4359.72727229,2612.84848459,4965.54545405,2963.15151486,4262.87878745,49.4545454496,4458.63636319,1932.84848466,4185.09090867,1310.54545441,4863.54545406,2118.30303009,4493.66666622,4051.15151475,42.0,42.0,?
2017-08-01 19:34:02.477211,4576.60606015,2654.0606058,4162.93939352,4.1212121208,3923.393939,3503.03030268,3860.54545416,4150.06060565,4275.24242381,4047.03030263,4498.81818137,3758.54545417,4200.03030261,3082.66666636,4363.84848441,2612.84848459,4980.9999995,2963.15151486,4270.60606018,53.5757575704,4462.2424238,1932.84848466,4187.15151473,1310.54545441,4865.60606012,2118.30303009,4495.21212076,4051.15151475,42.0,42.0,?
2017-08-01 19:34:02.482845,4568.87878742,2654.0606058,4162.42424201,4.1212121208,3909.48484809,3503.03030268,3911.54545415,4150.06060565,4279.36363594,4047.03030263,4501.90909046,3758.54545417,4210.84848443,3082.66666636,4370.03030259,2612.84848459,4975.33333284,2963.15151486,4275.75757533,53.5757575704,4459.66666622,1941.0909089,4190.75757534,1310.54545441,4858.90909042,2118.30303009,4490.06060561,4051.15151475,42.0,42.0,?
2017-08-01 19:34:02.492377,4574.54545409,2654.0606058,4167.57575716,4.1212121208,3905.36363597,3503.03030268,3893.51515113,4150.06060565,4278.84848442,4047.03030263,4501.39393894,3758.54545417,4208.27272685,3082.66666636,4362.81818138,2612.84848459,4971.21212072,2963.15151486,4266.99999957,53.5757575704,4458.63636319,1941.0909089,4187.15151473,1310.54545441,4861.484848,2118.30303009,4492.63636319,4051.15151475,42.0,42.0,?
2017-08-01 19:34:02.498544,4576.09090863,2654.0606058,4166.54545413,4.1212121208,3912.57575718,3503.03030268,3877.03030264,4150.06060565,4275.75757533,4047.03030263,4499.33333288,3758.54545417,4202.60606019,3082.66666636,4356.12121169,2612.84848459,4977.3939389,2963.15151486,4263.90909048,53.5757575704,4457.09090865,1941.0909089,4183.03030261,1310.54545441,4858.39393891,2068.84848464,4492.12121167,4051.15151475,42.0,42.0,?
2017-08-01 19:34:02.508639,4571.96969651,2654.0606058,4164.99999958,4.1212121208,3914.12121173,3503.03030268,3891.45454507,4150.06060565,4271.12121169,4047.03030263,4493.1515147,3758.54545417,4201.57575716,3082.66666636,4361.27272684,2612.84848459,4978.93939344,2963.15151486,4269.06060563,57.6969696912,4457.60606016,1941.0909089,4187.66666625,1310.54545441,4856.84848436,2068.84848464,4493.66666622,4051.15151475,42.0,42.0,?
2017-08-01 19:34:02.516320,4570.42424197,2654.0606058,4164.99999958,4.1212121208,3906.90909052,3503.03030268,3888.36363597,4150.06060565,4270.60606018,4047.03030263,4484.90909046,3758.54545417,4198.48484806,3082.66666636,4363.3333329,2612.84848459,4978.42424193,2963.15151486,4267.51515109,57.6969696912,4456.06060561,1936.96969678,4189.72727231,1310.54545441,4859.42424194,2068.84848464,4495.72727228,4051.15151475,42.0,42.0,?
2017-08-01 19:34:02.528447,4563.72727227,2654.0606058,4163.96969655,4.1212121208,3903.30302991,3503.03030268,3884.24242385,4150.06060565,4273.18181775,4047.03030263,4483.87878743,3758.54545417,4196.93939352,3082.66666636,4360.75757532,2612.84848459,4974.81818132,2963.15151486,4263.90909048,57.6969696912,4449.36363592,1936.96969678,4184.06060564,1302.30303017,4854.7878783,2068.84848464,4486.96969652,4051.15151475,42.0,42.0,?
2017-08-01 19:34:02.531625,4568.36363591,2654.0606058,4168.60606019,4.1212121208,3904.33333294,3503.03030268,3895.06060567,4150.06060565,4270.60606018,4047.03030263,4483.87878743,3758.54545417,4196.93939352,3082.66666636,4358.69696926,2612.84848459,4963.9999995,2963.15151486,4266.48484806,57.6969696912,4450.90909046,1936.96969678,4184.06060564,1302.30303017,4856.84848436,2068.84848464,4486.96969652,4051.15151475,42.0,42.0,?
2017-08-01 19:34:02.538668,4570.93939348,2654.0606058,4167.57575716,4.1212121208,3910.51515112,3503.03030268,3885.27272688,4150.06060565,4268.54545412,4047.03030263,4480.27272682,3758.54545417,4195.90909049,3082.66666636,4359.21212078,2612.84848459,4963.48484799,2963.15151486,4268.54545412,57.6969696912,4453.99999955,1936.96969678,4185.60606019,1302.30303017,4857.87878739,2068.84848464,4491.60606016,4051.15151475,42.0,42.0,?
2017-08-01 19:34:02.545305,4571.454545,2654.0606058,4164.99999958,4.1212121208,3916.18181779,3503.03030268,3868.7878784,4150.06060565,4272.66666624,4047.03030263,4481.30302985,3758.54545417,4199.5151511,3082.66666636,4364.36363593,2612.84848459,4976.87878738,2963.15151486,4270.09090866,57.6969696912,4457.09090865,1936.96969678,4185.09090867,1302.30303017,4859.42424194,2068.84848464,4494.69696925,4051.15151475,42.0,42.0,?
2017-08-01 19:34:02.558175,4574.03030257,2654.0606058,4165.5151511,4.1212121208,3908.45454506,3503.03030268,3867.75757537,4150.06060565,4275.75757533,4047.03030263,4486.45454501,3758.54545417,4206.21212079,3082.66666636,4368.48484805,2612.84848459,4984.09090859,2963.15151486,4274.21212078,57.6969696912,4458.63636319,1936.96969678,4187.15151473,1302.30303017,4859.42424194,2068.84848464,4495.72727228,4051.15151475,42.0,42.0,?
2017-08-01 19:34:02.581123,4565.78787833,2654.0606058,4161.90909049,4.1212121208,3901.24242385,3503.03030268,3887.33333294,4150.06060565,4275.75757533,4047.03030263,4494.18181773,3758.54545417,4208.27272685,3082.66666636,4367.45454502,2612.84848459,4979.96969647,2963.15151486,4277.81818139,57.6969696912,4451.93939349,1936.96969678,4186.1212117,1302.30303017,4852.21212073,2068.84848464,4487.99999955,4051.15151475,42.0,42.0,?
2017-08-01 19:34:02.589955,4568.87878742,2654.0606058,4164.48484807,4.1212121208,3905.36363597,3503.03030268,3907.93939355,4150.06060565,4276.27272685,4047.03030263,4499.33333288,3758.54545417,4205.18181776,3082.66666636,4362.81818138,2612.84848459,4972.75757526,2963.15151486,4266.99999957,57.6969696912,4445.2424238,1936.96969678,4182.5151511,1302.30303017,4860.45454497,2068.84848464,4486.45454501,4051.15151475,42.0,42.0,?
2017-08-01 19:34:02.593954,4570.42424197,2654.0606058,4163.45454504,4.1212121208,3911.54545415,3503.03030268,3901.24242385,4150.06060565,4276.27272685,4047.03030263,4492.63636319,3758.54545417,4200.54545413,3082.66666636,4358.18181775,2612.84848459,4966.57575708,2963.15151486,4254.63636321,57.6969696912,4445.2424238,1936.96969678,4182.5151511,1302.30303017,4861.99999951,2068.84848464,4489.5454541,4051.15151475,42.0,42.0,?
2017-08-01 19:34:02.600656,4570.42424197,2654.0606058,4162.42424201,4.1212121208,3914.12121173,3503.03030268,3872.90909052,4150.06060565,4272.66666624,4047.03030263,4485.93939349,3758.54545417,4198.99999958,3082.66666636,4357.66666623,2612.84848459,4962.96969647,2963.15151486,4262.36363594,57.6969696912,4451.42424198,1936.96969678,4185.09090867,1302.30303017,4856.33333285,2068.84848464,4492.63636319,4051.15151475,42.0,42.0,?
2017-08-01 19:34:02.603747,4577.63636318,2654.0606058,4168.09090867,4.1212121208,3916.18181779,3503.03030268,3875.4848481,4150.06060565,4269.57575715,4047.03030263,4490.57575713,3758.54545417,4201.57575716,3082.66666636,4359.72727229,2612.84848459,4968.63636314,2963.15151486,4267.51515109,57.6969696912,4457.60606016,1936.96969678,4184.57575716,1302.30303017,4862.51515103,2068.84848464,4494.18181773,4051.15151475,42.0,42.0,?
2017-08-01 19:34:02.607340,4568.87878742,2654.0606058,4166.03030261,4.1212121208,3917.72727234,3503.03030268,3891.96969658,4150.06060565,4273.69696927,4047.03030263,4494.69696925,3758.54545417,4203.1212117,3082.66666636,4360.24242381,2612.84848459,4978.42424193,2963.15151486,4255.15151473,57.6969696912,4451.93939349,1936.96969678,4180.96969655,1302.30303017,4858.90909042,2068.84848464,4487.48484804,4051.15151475,42.0,42.0,?
2017-08-01 19:34:02.611355,4568.87878742,2654.0606058,4165.5151511,4.1212121208,3913.60606021,3503.03030268,3891.45454507,4150.06060565,4278.33333291,4047.03030263,4493.66666622,3758.54545417,4201.06060564,3082.66666636,4354.57575714,2612.84848459,4963.48484799,2963.15151486,4251.03030261,57.6969696912,4448.33333289,1936.96969678,4180.96969655,1302.30303017,4857.36363588,2068.84848464,4486.45454501,4051.15151475,42.0,42.0,?
2017-08-01 19:34:02.615076,4571.96969651,2654.0606058,4167.06060564,4.1212121208,3909.99999961,3503.03030268,3894.03030264,4150.06060565,4275.24242381,4047.03030263,4494.18181773,3758.54545417,4202.09090867,3082.66666636,4350.96969653,2612.84848459,4946.99999951,2963.15151486,4266.48484806,57.6969696912,4449.36363592,1936.96969678,4184.57575716,1302.30303017,4857.87878739,2068.84848464,4489.03030258,4051.15151475,42.0,42.0,?
2017-08-01 19:34:02.623554,4563.72727227,2654.0606058,4166.03030261,4.1212121208,3912.57575718,3503.03030268,3881.15151476,4150.06060565,4272.66666624,4047.03030263,4494.69696925,3758.54545417,4208.27272685,3082.66666636,4355.09090866,2612.84848459,4963.48484799,2963.15151486,4269.57575715,57.6969696912,4445.2424238,1936.96969678,4182.5151511,1302.30303017,4855.30302982,2068.84848464,4486.45454501,4051.15151475,42.0,42.0,?
2017-08-01 19:34:02.632516,4567.33333288,2654.0606058,4167.57575716,4.1212121208,3918.24242385,3503.03030268,3863.12121173,4150.06060565,4274.21212078,4047.03030263,4492.12121167,3758.54545417,4206.21212079,3082.66666636,4358.18181775,2612.84848459,4982.03030253,2963.15151486,4255.15151473,57.6969696912,4447.30302986,1936.96969678,4178.90909049,1302.30303017,4860.96969648,2068.84848464,4489.03030258,4051.15151475,42.0,42.0,?
2017-08-01 19:34:02.643735,4571.454545,2654.0606058,4163.96969655,4.1212121208,3925.45454506,3503.03030268,3887.33333294,4150.06060565,4277.81818139,4047.03030263,4489.5454541,3758.54545417,4200.03030261,3082.66666636,4358.69696926,2612.84848459,4982.03030253,2963.15151486,4260.30302988,57.6969696912,4453.48484804,1936.96969678,4180.96969655,1302.30303017,4859.42424194,2068.84848464,4494.69696925,4051.15151475,42.0,42.0,?
2017-08-01 19:34:02.648231,4577.12121166,2654.0606058,4165.5151511,4.1212121208,3929.06060567,3503.03030268,3920.30302991,4150.06060565,4277.81818139,4047.03030263,4485.42424198,3758.54545417,4201.57575716,3082.66666636,4359.21212078,2612.84848459,4974.30302981,2963.15151486,4275.75757533,57.6969696912,4461.72727228,1936.96969678,4182.5151511,1302.30303017,4864.06060557,2068.84848464,4499.8484844,4051.15151475,42.0,42.0,?
2017-08-01 19:34:02.658222,4578.15151469,2654.0606058,4164.99999958,4.1212121208,3930.0909087,3503.03030268,3900.72727234,4150.06060565,4275.75757533,4047.03030263,4484.90909046,3758.54545417,4201.06060564,3082.66666636,4357.15151472,2612.84848459,4963.9999995,2963.15151486,4279.87878745,57.6969696912,4465.33333289,1936.96969678,4181.99999958,1302.30303017,4867.15151466,2068.84848464,4501.39393894,4051.15151475,42.0,42.0,?
2017-08-01 19:34:02.663614,4569.39393894,2654.0606058,4162.42424201,4.1212121208,3930.0909087,3503.03030268,3872.39393901,4150.06060565,4278.33333291,4047.03030263,4491.09090864,3758.54545417,4202.09090867,3082.66666636,4355.60606017,2612.84848459,4956.78787829,2963.15151486,4273.18181775,57.6969696912,4463.27272683,1936.96969678,4184.57575716,1302.30303017,4858.90909042,2068.84848464,4498.81818137,4051.15151475,42.0,42.0,?
2017-08-01 19:34:02.671789,4573.51515106,2654.0606058,4167.06060564,4.1212121208,3931.12121173,3503.03030268,3873.93939355,4150.06060565,4277.81818139,4047.03030263,4492.12121167,3758.54545417,4206.72727231,3082.66666636,4359.72727229,2612.84848459,4955.24242375,2963.15151486,4265.96969654,57.6969696912,4461.21212077,1936.96969678,4184.57575716,1302.30303017,4862.51515103,2068.84848464,4501.39393894,4051.15151475,42.0,42.0,?
2017-08-01 19:34:02.679243,4572.99999954,2654.0606058,4162.93939352,4.1212121208,3932.15151476,3503.03030268,3866.72727234,4150.06060565,4274.21212078,4047.03030263,4486.96969652,3758.54545417,4201.57575716,3082.66666636,4360.75757532,2612.84848459,4965.03030253,2963.15151486,4265.45454503,57.6969696912,4453.48484804,1936.96969678,4177.87878746,1302.30303017,4860.96969648,2068.84848464,4496.75757531,4051.15151475,42.0,42.0,?
2017-08-01 19:34:02.690311,4568.36363591,2654.0606058,4161.90909049,4.1212121208,3928.03030264,3503.03030268,3854.87878749,4150.06060565,4269.57575715,4047.03030263,4482.8484844,3758.54545417,4189.72727231,3082.66666636,4353.03030259,2612.84848459,4975.33333284,2963.15151486,4266.48484806,57.6969696912,4448.8484844,1936.96969678,4177.36363595,1302.30303017,4859.93939345,2068.84848464,4493.66666622,4051.15151475,42.0,42.0,?
2017-08-01 19:34:02.696102,4564.24242379,2654.0606058,4166.54545413,4.1212121208,3916.18181779,3503.03030268,3872.90909052,4150.06060565,4266.99999957,4047.03030263,4482.8484844,3758.54545417,4184.57575716,3082.66666636,4345.30302987,2612.84848459,4966.06060556,2963.15151486,4257.21212079,57.6969696912,4448.8484844,1936.96969678,4181.48484807,1302.30303017,4863.54545406,2068.84848464,4494.69696925,4051.15151475,42.0,42.0,?
2017-08-01 19:34:02.702187,4559.09090864,2654.0606058,4162.93939352,4.1212121208,3912.06060567,3503.03030268,3905.36363597,4150.06060565,4270.09090866,4047.03030263,4485.42424198,3758.54545417,4187.15151473,3082.66666636,4345.81818138,2612.84848459,4957.30302981,2963.15151486,4244.84848442,57.6969696912,4445.75757531,1936.96969678,4180.45454504,1302.30303017,4858.39393891,2068.84848464,4489.5454541,4051.15151475,42.0,42.0,?
2017-08-01 19:34:02.709095,4569.39393894,2654.0606058,4161.90909049,4.1212121208,3916.69696931,3503.03030268,3906.393939,4150.06060565,4272.15151472,4047.03030263,4485.93939349,3758.54545417,4187.66666625,3082.66666636,4341.69696926,2612.84848459,4953.18181769,2963.15151486,4242.27272685,57.6969696912,4445.2424238,1936.96969678,4179.42424201,1302.30303017,4860.96969648,2068.84848464,4490.06060561,4051.15151475,42.0,42.0,?
2017-08-01 19:34:02.717706,4569.90909045,2654.0606058,4159.33333292,4.1212121208,3920.30302991,3503.03030268,3884.75757537,4150.06060565,4265.96969654,4047.03030263,4483.36363592,3758.54545417,4186.63636322,3082.66666636,4336.0303026,2612.84848459,4942.87878738,2963.15151486,4243.81818139,57.6969696912,4443.18181774,1936.96969678,4179.93939352,1302.30303017,4859.93939345,2068.84848464,4489.03030258,4051.15151475,42.0,42.0,?
2017-08-01 19:34:02.725049,4564.24242379,2654.0606058,4159.84848443,4.1212121208,3924.42424203,3503.03030268,3885.27272688,4150.06060565,4260.30302988,4047.03030263,4482.33333289,3758.54545417,4185.60606019,3082.66666636,4338.09090866,2612.84848459,4941.84848435,2963.15151486,4247.424242,57.6969696912,4443.18181774,1936.96969678,4178.90909049,1302.30303017,4857.36363588,2068.84848464,4490.57575713,4051.15151475,42.0,42.0,?
2017-08-01 19:34:02.734896,4569.39393894,2654.0606058,4165.5151511,4.1212121208,3931.12121173,3503.03030268,3885.7878784,4150.06060565,4266.48484806,4047.03030263,4486.96969652,3758.54545417,4188.69696928,3082.66666636,4345.81818138,2612.84848459,4948.54545405,2963.15151486,4253.60606018,57.6969696912,4451.42424198,1936.96969678,4181.99999958,1302.30303017,4861.99999951,2068.84848464,4494.69696925,4051.15151475,42.0,42.0,?
2017-08-01 19:34:02.741934,4565.78787833,2654.0606058,4164.99999958,4.1212121208,3934.72727233,3503.03030268,3852.30302992,4150.06060565,4273.18181775,4047.03030263,4494.69696925,3758.54545417,4201.57575716,3082.66666636,4355.09090866,2612.84848459,4957.30302981,2963.15151486,4256.18181776,57.6969696912,4452.45454501,1936.96969678,4183.03030261,1302.30303017,4859.42424194,2068.84848464,4489.03030258,4051.15151475,42.0,42.0,?
2017-08-01 19:34:02.750108,4567.84848439,2654.0606058,4165.5151511,4.1212121208,3929.06060567,3503.03030268,3829.12121174,4150.06060565,4272.15151472,4047.03030263,4497.27272682,3758.54545417,4208.27272685,3082.66666636,4360.75757532,2612.84848459,4970.18181768,2963.15151486,4256.18181776,57.6969696912,4448.8484844,1936.96969678,4180.96969655,1302.30303017,4862.51515103,2068.84848464,4488.51515107,4051.15151475,42.0,42.0,?
2017-08-01 19:34:02.759148,4568.36363591,2654.0606058,4161.39393898,4.1212121208,3919.7878784,3503.03030268,3863.63636325,4150.06060565,4273.69696927,4047.03030263,4492.12121167,3758.54545417,4200.03030261,3082.66666636,4361.78787835,2612.84848459,4974.81818132,2963.15151486,4262.36363594,57.6969696912,4448.33333289,1936.96969678,4180.96969655,1302.30303017,4862.51515103,2068.84848464,4487.99999955,4051.15151475,42.0,42.0,?
2017-08-01 19:34:02.765117,4564.7575753,2654.0606058,4161.39393898,4.1212121208,3915.15151476,3503.03030268,3910.51515112,4150.06060565,4275.75757533,4047.03030263,4489.03030258,3758.54545417,4189.72727231,3082.66666636,4359.21212078,2612.84848459,4970.6969692,2963.15151486,4265.96969654,57.6969696912,4446.78787834,1936.96969678,4181.48484807,1302.30303017,4858.90909042,2068.84848464,4485.42424198,4051.15151475,42.0,42.0,?
2017-08-01 19:34:02.774195,4567.33333288,2654.0606058,4167.06060564,4.1212121208,3918.75757537,3503.03030268,3914.12121173,4150.06060565,4270.09090866,4047.03030263,4489.03030258,3758.54545417,4185.60606019,3082.66666636,4348.90909047,2612.84848459,4963.9999995,2963.15151486,4254.1212117,57.6969696912,4445.75757531,1936.96969678,4179.42424201,1302.30303017,4862.51515103,2068.84848464,4490.57575713,4051.15151475,42.0,42.0,?
2017-08-01 19:34:02.781675,4561.1515147,2654.0606058,4162.93939352,4.1212121208,3918.24242385,3503.03030268,3894.03030264,4150.06060565,4266.99999957,4047.03030263,4483.36363592,3758.54545417,4183.54545413,3082.66666636,4340.15151472,2612.84848459,4946.99999951,2963.15151486,4242.78787836,57.6969696912,4439.57575713,1936.96969678,4179.42424201,1302.30303017,4856.84848436,2068.84848464,4490.06060561,4051.15151475,42.0,42.0,?
2017-08-01 19:34:02.789900,4565.27272682,2654.0606058,4165.5151511,4.1212121208,3913.0909087,3503.03030268,3855.90909052,4150.06060565,4268.54545412,4047.03030263,4480.78787834,3758.54545417,4178.90909049,3082.66666636,4339.6363632,2612.84848459,4933.0909086,2963.15151486,4244.84848442,57.6969696912,4439.57575713,1936.96969678,4181.99999958,1302.30303017,4859.42424194,2068.84848464,4486.96969652,4051.15151475,42.0,42.0,?
2017-08-01 19:34:02.795434,4570.93939348,2654.0606058,4168.09090867,4.1212121208,3920.81818143,3503.03030268,3832.72727234,4150.06060565,4266.99999957,4047.03030263,4483.36363592,3758.54545417,4179.93939352,3082.66666636,4340.66666623,2612.84848459,4945.45454496,2963.15151486,4250.51515109,57.6969696912,4443.69696925,1936.96969678,4179.93939352,1302.30303017,4863.03030254,2068.84848464,4486.45454501,4051.15151475,42.0,42.0,?
2017-08-01 19:34:02.803447,4562.18181773,2654.0606058,4162.93939352,4.1212121208,3925.96969658,3503.03030268,3882.18181779,4150.06060565,4267.51515109,4047.03030263,4483.87878743,3758.54545417,4180.96969655,3082.66666636,4337.57575714,2612.84848459,4959.36363587,2963.15151486,4241.24242382,57.6969696912,4437.51515107,1936.96969678,4176.84848443,1302.30303017,4855.30302982,2068.84848464,4482.8484844,4051.15151475,42.0,42.0,?
2017-08-01 19:34:02.812625,4562.69696924,2654.0606058,4163.96969655,4.1212121208,3917.72727234,3503.03030268,3904.84848446,4150.06060565,4269.57575715,4047.03030263,4480.27272682,3758.54545417,4175.30302989,3082.66666636,4332.93939351,2612.84848459,4943.90909041,2963.15151486,4231.45454503,57.6969696912,4433.39393895,1936.96969678,4179.42424201,1302.30303017,4857.87878739,2068.84848464,4482.33333289,4051.15151475,42.0,42.0,?
2017-08-01 19:34:02.819136,4561.66666621,2654.0606058,4161.90909049,4.1212121208,3918.24242385,3503.03030268,3867.24242386,4150.06060565,4269.57575715,4047.03030263,4480.27272682,3758.54545417,4174.78787837,3082.66666636,4335.51515108,2612.84848459,4933.60606011,2963.15151486,4243.81818139,57.6969696912,4434.42424198,1936.96969678,4182.5151511,1302.30303017,4858.39393891,2068.84848464,4481.81818137,4051.15151475,42.0,42.0,?
2017-08-01 19:34:02.827176,4565.78787833,2654.0606058,4162.42424201,4.1212121208,3925.45454506,3503.03030268,3863.12121173,4150.06060565,4267.51515109,4047.03030263,4483.36363592,3758.54545417,4180.96969655,3082.66666636,4341.69696926,2612.84848459,4938.24242375,2963.15151486,4255.66666624,57.6969696912,4439.06060562,1936.96969678,4183.03030261,1302.30303017,4859.93939345,2068.84848464,4487.48484804,4051.15151475,42.0,42.0,?
2017-08-01 19:34:02.834194,4570.93939348,2654.0606058,4164.99999958,4.1212121208,3925.45454506,3503.03030268,3875.99999961,4150.06060565,4267.51515109,4047.03030263,4483.36363592,3758.54545417,4184.57575716,3082.66666636,4346.3333329,2612.84848459,4948.03030254,2963.15151486,4255.66666624,57.6969696912,4446.27272683,1936.96969678,4181.99999958,1302.30303017,4862.51515103,2068.84848464,4494.18181773,4051.15151475,42.0,42.0,?
2017-08-01 19:34:02.843235,4566.81818136,2654.0606058,4165.5151511,4.1212121208,3924.93939355,3503.03030268,3861.57575719,4150.06060565,4268.54545412,4047.03030263,4482.33333289,3758.54545417,4183.03030261,3082.66666636,4347.87878744,2612.84848459,4962.96969647,2963.15151486,4264.424242,57.6969696912,4452.45454501,1936.96969678,4180.45454504,1302.30303017,4859.42424194,2068.84848464,4492.63636319,4051.15151475,42.0,42.0,?
2017-08-01 19:34:02.850994,4573.51515106,2654.0606058,4167.57575716,4.1212121208,3922.87878749,3503.03030268,3863.63636325,4150.06060565,4266.48484806,4047.03030263,4483.36363592,3758.54545417,4183.03030261,3082.66666636,4347.87878744,2612.84848459,4973.27272678,2963.15151486,4269.57575715,57.6969696912,4457.09090865,1936.96969678,4180.96969655,1302.30303017,4864.57575709,2068.84848464,4496.24242379,4051.15151475,42.0,42.0,?
2017-08-01 19:34:02.858822,4575.0606056,2654.0606058,4162.93939352,4.1212121208,3917.21212082,3503.03030268,3886.30302991,4150.06060565,4263.90909048,4047.03030263,4481.81818137,3758.54545417,4185.09090867,3082.66666636,4345.81818138,2612.84848459,4965.54545405,2963.15151486,4260.30302988,57.6969696912,4453.99999955,1936.96969678,4180.45454504,1302.30303017,4863.54545406,2068.84848464,4494.69696925,4051.15151475,42.0,42.0,?
2017-08-01 19:34:02.866207,4571.96969651,2654.0606058,4161.90909049,4.1212121208,3915.15151476,3503.03030268,3894.54545416,4150.06060565,4263.90909048,4047.03030263,4476.1515147,3758.54545417,4179.42424201,3082.66666636,4336.54545411,2612.84848459,4946.99999951,2963.15151486,4252.57575715,57.6969696912,4447.81818137,1936.96969678,4180.96969655,1302.30303017,4861.484848,2068.84848464,4489.5454541,4051.15151475,42.0,42.0,?
2017-08-01 19:34:02.878362,4570.93939348,2654.0606058,4163.45454504,4.1212121208,3916.18181779,3503.03030268,3876.51515113,4150.06060565,4264.424242,4047.03030263,4478.72727228,3758.54545417,4169.1212117,3082.66666636,4325.72727229,2612.84848459,4932.06060557,2963.15151486,4249.99999958,57.6969696912,4442.15151471,1936.96969678,4181.48484807,1302.30303017,4861.484848,2068.84848464,4486.96969652,4051.15151475,42.0,42.0,?
2017-08-01 19:34:02.885376,4564.7575753,2654.0606058,4159.33333292,4.1212121208,3916.18181779,3503.03030268,3852.30302992,4150.06060565,4269.57575715,4047.03030263,4487.99999955,3758.54545417,4173.75757534,3082.66666636,4329.84848442,2612.84848459,4927.42424193,2963.15151486,4248.45454503,57.6969696912,4435.96969653,1936.96969678,4179.42424201,1302.30303017,4854.27272679,2068.84848464,4483.36363592,4051.15151475,42.0,42.0,?
2017-08-01 19:34:02.889676,4568.87878742,2654.0606058,4161.39393898,4.1212121208,3911.54545415,3503.03030268,3852.81818143,4150.06060565,4273.18181775,4047.03030263,4489.03030258,3758.54545417,4185.09090867,3082.66666636,4338.09090866,2612.84848459,4937.21212072,2963.15151486,4248.45454503,57.6969696912,4435.45454501,1936.96969678,4179.42424201,1302.30303017,4858.90909042,2068.84848464,4483.87878743,4051.15151475,42.0,42.0,?
2017-08-01 19:34:02.900554,4567.84848439,2654.0606058,4161.39393898,4.1212121208,3905.87878749,3503.03030268,3866.72727234,4150.06060565,4266.48484806,4047.03030263,4479.75757531,3758.54545417,4184.57575716,3082.66666636,4339.6363632,2612.84848459,4947.51515102,2963.15151486,4247.424242,57.6969696912,4436.99999956,1936.96969678,4179.42424201,1302.30303017,4864.06060557,2068.84848464,4482.8484844,4051.15151475,42.0,42.0,?
2017-08-01 19:34:02.905971,4563.72727227,2645.81818155,4161.39393898,4.1212121208,3908.96969658,3503.03030268,3879.60606022,4150.06060565,4262.87878745,4047.03030263,4474.60606016,3758.54545417,4177.36363595,3082.66666636,4340.15151472,2612.84848459,4946.99999951,2963.15151486,4248.45454503,57.6969696912,4439.57575713,1936.96969678,4177.87878746,1302.30303017,4861.484848,2068.84848464,4484.39393895,4051.15151475,42.0,42.0,?
2017-08-01 19:34:02.914414,4565.78787833,2645.81818155,4162.93939352,4.1212121208,3912.06060567,3503.03030268,3900.21212082,4150.06060565,4266.99999957,4047.03030263,4476.1515147,3758.54545417,4173.75757534,3082.66666636,4338.60606017,2612.84848459,4943.90909041,2963.15151486,4247.424242,57.6969696912,4443.69696925,1936.96969678,4177.36363595,1302.30303017,4860.96969648,2068.84848464,4489.03030258,4051.15151475,42.0,42.0,?
2017-08-01 19:34:02.920521,4563.21212076,2645.81818155,4159.33333292,4.1212121208,3911.03030264,3503.03030268,3889.90909052,4150.06060565,4266.48484806,4047.03030263,4475.63636319,3758.54545417,4179.93939352,3082.66666636,4339.12121169,2612.84848459,4944.42424193,2963.15151486,4248.96969654,57.6969696912,4446.78787834,1936.96969678,4177.36363595,1302.30303017,4860.45454497,2068.84848464,4485.93939349,4038.78787838,42.0,42.0,?
2017-08-01 19:34:02.930331,4573.51515106,2645.81818155,4161.90909049,4.1212121208,3914.63636324,3507.1515148,3839.42424204,4150.06060565,4259.78787836,4047.03030263,4473.06060561,3758.54545417,4185.60606019,3082.66666636,4347.87878744,2612.84848459,4954.72727223,2963.15151486,4262.36363594,57.6969696912,4452.45454501,1936.96969678,4178.90909049,1302.30303017,4867.66666618,2068.84848464,4491.09090864,4038.78787838,42.0,42.0,?
2017-08-01 19:34:02.937309,4578.15151469,2645.81818155,4163.96969655,4.1212121208,3917.72727234,3507.1515148,3836.84848446,4170.66666625,4261.33333291,4047.03030263,4475.63636319,3758.54545417,4185.09090867,3082.66666636,4355.09090866,2612.84848459,4970.6969692,2963.15151486,4276.78787836,57.6969696912,4452.96969652,1936.96969678,4178.90909049,1302.30303017,4864.06060557,2068.84848464,4494.69696925,4038.78787838,42.0,42.0,?
2017-08-01 19:34:02.946051,4567.33333288,2645.81818155,4161.90909049,4.1212121208,3908.45454506,3507.1515148,3885.7878784,4170.66666625,4268.0303026,4047.03030263,4484.90909046,3758.54545417,4189.21212079,3082.66666636,4355.09090866,2612.84848459,4976.36363587,2963.15151486,4268.0303026,57.6969696912,4449.36363592,1936.96969678,4175.8181814,1302.30303017,4855.30302982,2068.84848464,4485.93939349,4038.78787838,42.0,42.0,?
2017-08-01 19:34:02.955691,4565.78787833,2645.81818155,4163.96969655,4.1212121208,3899.69696931,3507.1515148,3890.93939355,4170.66666625,4262.36363594,4047.03030263,4484.39393895,3762.66666629,4188.18181776,3082.66666636,4346.3333329,2612.84848459,4955.24242375,2963.15151486,4249.99999958,57.6969696912,4444.72727228,1936.96969678,4176.33333292,1302.30303017,4861.99999951,2068.84848464,4482.8484844,4038.78787838,42.0,42.0,?
2017-08-01 19:34:02.960262,4564.24242379,2645.81818155,4161.90909049,4.1212121208,3908.45454506,3507.1515148,3847.15151477,4170.66666625,4255.15151473,4047.03030263,4473.06060561,3762.66666629,4178.90909049,3095.03030272,4337.57575714,2612.84848459,4934.63636314,2963.15151486,4251.03030261,57.6969696912,4440.60606016,1936.96969678,4179.93939352,1302.30303017,4863.03030254,2068.84848464,4482.8484844,4038.78787838,42.0,42.0,?
2017-08-01 19:34:02.969583,4567.33333288,2645.81818155,4163.45454504,4.1212121208,3913.0909087,3507.1515148,3841.99999962,4170.66666625,4256.18181776,4047.03030263,4466.87878743,3762.66666629,4173.75757534,3095.03030272,4334.48484805,2616.96969671,4933.0909086,2963.15151486,4257.21212079,57.6969696912,4445.75757531,1936.96969678,4179.42424201,1302.30303017,4860.45454497,2068.84848464,4486.96969652,4038.78787838,42.0,42.0,?
2017-08-01 19:34:02.975229,4567.33333288,2645.81818155,4163.45454504,4.1212121208,3903.81818143,3507.1515148,3895.57575719,4170.66666625,4259.27272685,4047.03030263,4467.90909046,3762.66666629,4171.69696928,3095.03030272,4331.90909048,2616.96969671,4940.81818132,2938.42424213,4246.90909048,57.6969696912,4444.21212077,1936.96969678,4173.75757534,1302.30303017,4856.84848436,2068.84848464,4489.03030258,4038.78787838,42.0,42.0,?
2017-08-01 19:34:02.984087,4561.1515147,2645.81818155,4159.33333292,4.1212121208,3900.21212082,3507.1515148,3915.15151476,4170.66666625,4258.75757533,4047.03030263,4474.09090864,3762.66666629,4173.75757534,3095.03030272,4333.96969654,2616.96969671,4946.99999951,2938.42424213,4244.84848442,53.5757575704,4436.99999956,1936.96969678,4173.24242383,1302.30303017,4855.81818133,2068.84848464,4488.51515107,4038.78787838,42.0,42.0,?
2017-08-01 19:34:02.994200,4568.87878742,2645.81818155,4164.48484807,4.1212121208,3902.27272688,3507.1515148,3873.42424204,4170.66666625,4259.78787836,4047.03030263,4478.72727228,3762.66666629,4179.93939352,3095.03030272,4340.15151472,2616.96969671,4947.51515102,2938.42424213,4261.33333291,53.5757575704,4447.30302986,1986.42424223,4179.93939352,1302.30303017,4866.63636315,2068.84848464,4493.1515147,4038.78787838,42.0,42.0,?
2017-08-01 19:34:03.009934,4569.39393894,2645.81818155,4165.5151511,4.1212121208,3902.7878784,3507.1515148,3824.4848481,4170.66666625,4261.84848442,4047.03030263,4476.66666622,3762.66666629,4184.06060564,3095.03030272,4345.81818138,2616.96969671,4953.6969692,2938.42424213,4271.12121169,53.5757575704,4457.60606016,1986.42424223,4180.96969655,1310.54545441,4864.57575709,2068.84848464,4492.12121167,4038.78787838,42.0,42.0,?
2017-08-01 19:34:03.013210,4569.90909045,2645.81818155,4163.45454504,4.1212121208,3908.96969658,3507.1515148,3833.75757537,4170.66666625,4261.84848442,4047.03030263,4475.63636319,3762.66666629,4184.57575716,3095.03030272,4348.90909047,2616.96969671,4958.84848435,2938.42424213,4268.54545412,53.5757575704,4454.51515107,1986.42424223,4176.33333292,1310.54545441,4859.42424194,2077.09090888,4493.1515147,4038.78787838,42.0,42.0,?
2017-08-01 19:34:03.016531,4571.96969651,2645.81818155,4163.45454504,4.1212121208,3911.54545415,3507.1515148,3886.30302991,4170.66666625,4263.90909048,4047.03030263,4479.75757531,3762.66666629,4185.09090867,3095.03030272,4350.45454502,2616.96969671,4955.24242375,2938.42424213,4268.0303026,49.4545454496,4450.90909046,1986.42424223,4175.30302989,1310.54545441,4859.93939345,2077.09090888,4495.21212076,4038.78787838,42.0,42.0,?
2017-08-01 19:34:03.025111,4564.7575753,2645.81818155,4161.90909049,4.1212121208,3908.45454506,3507.1515148,3898.15151476,4170.66666625,4264.424242,4047.03030263,4479.75757531,3762.66666629,4186.1212117,3095.03030272,4347.87878744,2616.96969671,4955.24242375,2938.42424213,4267.51515109,49.4545454496,4446.27272683,1978.18181798,4178.39393898,1310.54545441,4855.81818133,2077.09090888,4491.09090864,4038.78787838,42.0,42.0,?
2017-08-01 19:34:03.030678,4566.81818136,2645.81818155,4163.96969655,4.1212121208,3905.87878749,3507.1515148,3868.7878784,4170.66666625,4258.24242382,4047.03030263,4474.60606016,3762.66666629,4180.96969655,3095.03030272,4338.09090866,2616.96969671,4948.03030254,2938.42424213,4257.21212079,49.4545454496,4442.66666622,1978.18181798,4178.90909049,1310.54545441,4857.87878739,2077.09090888,4490.57575713,4038.78787838,42.0,42.0,?
2017-08-01 19:34:03.039311,4565.78787833,2645.81818155,4161.90909049,4.1212121208,3903.30302991,3507.1515148,3839.93939356,4170.66666625,4254.63636321,4047.03030263,4472.03030258,3762.66666629,4173.24242383,3095.03030272,4333.45454502,2616.96969671,4935.66666617,2938.42424213,4251.03030261,49.4545454496,4439.06060562,1978.18181798,4175.30302989,1310.54545441,4856.84848436,2077.09090888,4487.99999955,4038.78787838,42.0,42.0,?
2017-08-01 19:34:03.048083,4565.78787833,2645.81818155,4162.93939352,4.1212121208,3899.69696931,3507.1515148,3841.4848481,4170.66666625,4259.27272685,4047.03030263,4473.57575713,3762.66666629,4170.15151473,3095.03030272,4332.93939351,2616.96969671,4933.0909086,2938.42424213,4249.99999958,49.4545454496,4440.09090865,1978.18181798,4174.78787837,1310.54545441,4858.90909042,2077.09090888,4489.5454541,4038.78787838,42.0,42.0,?
2017-08-01 19:34:03.053329,4567.33333288,2645.81818155,4163.45454504,4.1212121208,3894.54545416,3507.1515148,3880.63636325,4170.66666625,4261.84848442,4047.03030263,4476.1515147,3762.66666629,4170.15151473,3095.03030272,4328.81818139,2616.96969671,4936.18181769,2938.42424213,4247.424242,49.4545454496,4444.72727228,1978.18181798,4177.36363595,1310.54545441,4861.99999951,2077.09090888,4492.63636319,4038.78787838,42.0,42.0,?
2017-08-01 19:34:03.061149,4559.60606015,2645.81818155,4159.84848443,4.1212121208,3896.0909087,3507.1515148,3902.27272688,4170.66666625,4258.24242382,4047.03030263,4478.72727228,3762.66666629,4171.18181776,3095.03030272,4331.90909048,2616.96969671,4936.18181769,2938.42424213,4252.06060564,49.4545454496,4441.63636319,1978.18181798,4179.42424201,1310.54545441,4856.84848436,2077.09090888,4487.48484804,4038.78787838,42.0,42.0,?
2017-08-01 19:34:03.069928,4567.33333288,2645.81818155,4164.48484807,4.1212121208,3902.7878784,3507.1515148,3871.87878749,4170.66666625,4257.7272723,4047.03030263,4477.69696925,3762.66666629,4174.27272686,3095.03030272,4338.60606017,2616.96969671,4936.18181769,2938.42424213,4257.7272723,49.4545454496,4441.63636319,1978.18181798,4180.45454504,1310.54545441,4860.96969648,2077.09090888,4490.57575713,4038.78787838,42.0,42.0,?
2017-08-01 19:34:03.077111,4568.36363591,2645.81818155,4163.96969655,4.1212121208,3903.81818143,3507.1515148,3861.06060567,4170.66666625,4261.84848442,4047.03030263,4474.60606016,3762.66666629,4173.75757534,3095.03030272,4338.09090866,2616.96969671,4941.33333284,2938.42424213,4251.03030261,49.4545454496,4444.21212077,1978.18181798,4179.42424201,1310.54545441,4861.484848,2077.09090888,4491.60606016,4038.78787838,42.0,42.0,?
2017-08-01 19:34:03.087117,4562.69696924,2645.81818155,4162.42424201,4.1212121208,3897.12121173,3507.1515148,3871.87878749,4170.66666625,4262.36363594,4047.03030263,4471.51515107,3762.66666629,4169.63636322,3095.03030272,4335.51515108,2616.96969671,4942.36363587,2938.42424213,4246.39393897,49.4545454496,4441.63636319,1978.18181798,4179.93939352,1310.54545441,4859.42424194,2077.09090888,4487.99999955,4038.78787838,42.0,42.0,?
2017-08-01 19:34:03.092792,4566.30302985,2645.81818155,4167.57575716,4.1212121208,3891.96969658,3507.1515148,3863.12121173,4170.66666625,4259.27272685,4047.03030263,4472.03030258,3762.66666629,4170.66666625,3095.03030272,4336.54545411,2616.96969671,4940.30302981,2938.42424213,4253.09090867,49.4545454496,4440.60606016,1978.18181798,4181.99999958,1310.54545441,4862.51515103,2077.09090888,4489.03030258,4038.78787838,42.0,42.0,?
2017-08-01 19:34:03.100077,4561.1515147,2645.81818155,4164.48484807,4.1212121208,3892.99999961,3507.1515148,3862.0909087,4170.66666625,4259.78787836,4047.03030263,4473.57575713,3762.66666629,4178.39393898,3095.03030272,4337.06060563,2616.96969671,4945.96969648,2938.42424213,4257.7272723,49.4545454496,4441.12121168,1978.18181798,4180.96969655,1310.54545441,4856.84848436,2077.09090888,4485.93939349,4038.78787838,42.0,42.0,?
2017-08-01 19:34:03.110608,4563.72727227,2645.81818155,4160.87878746,4.1212121208,3899.18181779,3507.1515148,3843.54545416,4170.66666625,4259.78787836,4047.03030263,4469.96969652,3762.66666629,4178.90909049,3095.03030272,4334.99999957,2616.96969671,4948.03030254,2938.42424213,4254.63636321,49.4545454496,4441.63636319,1978.18181798,4178.90909049,1310.54545441,4858.90909042,2077.09090888,4487.99999955,4038.78787838,42.0,42.0,?
2017-08-01 19:34:03.116668,4564.7575753,2645.81818155,4160.87878746,4.1212121208,3900.21212082,3507.1515148,3839.93939356,4170.66666625,4259.27272685,4047.03030263,4468.42424198,3762.66666629,4173.24242383,3095.03030272,4335.51515108,2616.96969671,4927.93939345,2938.42424213,4256.69696927,49.4545454496,4438.5454541,1978.18181798,4180.45454504,1310.54545441,4860.45454497,2077.09090888,4489.5454541,4038.78787838,42.0,42.0,?
2017-08-01 19:34:03.128136,4564.7575753,2645.81818155,4160.87878746,4.1212121208,3893.51515113,3507.1515148,3889.393939,4170.66666625,4259.27272685,4047.03030263,4475.12121167,3762.66666629,4172.72727231,3095.03030272,4336.0303026,2616.96969671,4927.93939345,2938.42424213,4260.81818139,49.4545454496,4441.63636319,1978.18181798,4180.45454504,1310.54545441,4858.39393891,2077.09090888,4487.48484804,4038.78787838,42.0,42.0,?
2017-08-01 19:34:03.133033,4565.78787833,2645.81818155,4163.45454504,4.1212121208,3894.54545416,3507.1515148,3897.12121173,4170.66666625,4257.7272723,4047.03030263,4475.63636319,3762.66666629,4171.69696928,3095.03030272,4331.39393896,2616.96969671,4931.03030254,2938.42424213,4257.21212079,49.4545454496,4448.8484844,1978.18181798,4180.45454504,1310.54545441,4864.06060557,2077.09090888,4492.12121167,4038.78787838,42.0,42.0,?
2017-08-01 19:34:03.145594,4564.24242379,2645.81818155,4160.87878746,4.1212121208,3903.30302991,3507.1515148,3835.81818143,4170.66666625,4253.60606018,4047.03030263,4472.03030258,3762.66666629,4168.60606019,3095.03030272,4332.42424199,2616.96969671,4937.72727223,2938.42424213,4257.21212079,49.4545454496,4445.75757531,1978.18181798,4176.33333292,1310.54545441,4861.99999951,2077.09090888,4493.66666622,4038.78787838,42.0,42.0,?
2017-08-01 19:34:03.148079,4568.87878742,2645.81818155,4160.87878746,4.1212121208,3903.30302991,3507.1515148,3834.27272689,4170.66666625,4254.1212117,4047.03030263,4476.1515147,3762.66666629,4170.15151473,3095.03030272,4337.06060563,2616.96969671,4946.48484799,2938.42424213,4262.36363594,49.4545454496,4444.72727228,1978.18181798,4174.78787837,1310.54545441,4862.51515103,2077.09090888,4495.21212076,4038.78787838,42.0,42.0,?
2017-08-01 19:34:03.155281,4568.36363591,2645.81818155,4160.87878746,4.1212121208,3897.12121173,3507.1515148,3891.45454507,4170.66666625,4257.21212079,4047.03030263,4479.75757531,3762.66666629,4171.18181776,3095.03030272,4336.0303026,2616.96969671,4948.03030254,2938.42424213,4261.33333291,49.4545454496,4447.81818137,1978.18181798,4177.87878746,1310.54545441,4862.51515103,2077.09090888,4493.1515147,4038.78787838,42.0,42.0,?
2017-08-01 19:34:03.164831,4563.21212076,2645.81818155,4160.87878746,4.1212121208,3903.81818143,3507.1515148,3891.96969658,4170.66666625,4259.27272685,4047.03030263,4478.72727228,3762.66666629,4169.63636322,3095.03030272,4334.48484805,2616.96969671,4935.66666617,2938.42424213,4265.96969654,49.4545454496,4450.39393895,1978.18181798,4181.48484807,1310.54545441,4859.93939345,2077.09090888,4489.5454541,4038.78787838,42.0,42.0,?
2017-08-01 19:34:03.171470,4571.96969651,2645.81818155,4164.48484807,4.1212121208,3916.18181779,3507.1515148,3871.36363598,4170.66666625,4258.75757533,4047.03030263,4479.24242379,3762.66666629,4174.27272686,3095.03030272,4336.0303026,2616.96969671,4930.51515102,2938.42424213,4279.87878745,49.4545454496,4457.60606016,1978.18181798,4182.5151511,1310.54545441,4867.66666618,2077.09090888,4496.75757531,4038.78787838,42.0,42.0,?
2017-08-01 19:34:03.178435,4571.454545,2645.81818155,4160.36363595,4.1212121208,3918.24242385,3507.1515148,3871.87878749,4170.66666625,4259.27272685,4047.03030263,4479.24242379,3762.66666629,4181.48484807,3095.03030272,4338.60606017,2616.96969671,4951.63636314,2938.42424213,4282.45454503,49.4545454496,4458.63636319,1978.18181798,4177.87878746,1310.54545441,4865.0909086,2077.09090888,4497.78787834,4038.78787838,42.0,42.0,?
2017-08-01 19:34:03.187263,4568.36363591,2645.81818155,4160.87878746,4.1212121208,3907.93939355,3507.1515148,3862.60606022,4170.66666625,4260.81818139,4047.03030263,4480.27272682,3762.66666629,4181.48484807,3095.03030272,4341.18181775,2616.96969671,4963.9999995,2938.42424213,4270.09090866,49.4545454496,4456.57575713,1978.18181798,4174.78787837,1310.54545441,4860.96969648,2077.09090888,4495.21212076,4038.78787838,42.0,42.0,?
2017-08-01 19:34:03.194147,4566.81818136,2645.81818155,4164.48484807,4.1212121208,3896.60606022,3507.1515148,3865.69696931,4170.66666625,4262.87878745,4047.03030263,4482.8484844,3762.66666629,4178.90909049,3095.03030272,4342.72727229,2616.96969671,4948.03030254,2938.42424213,4262.87878745,49.4545454496,4453.48484804,1978.18181798,4177.36363595,1310.54545441,4860.96969648,2077.09090888,4493.1515147,4038.78787838,42.0,42.0,?
2017-08-01 19:34:03.203082,4560.12121167,2645.81818155,4162.42424201,4.1212121208,3897.12121173,3507.1515148,3894.54545416,4170.66666625,4264.424242,4047.03030263,4482.8484844,3762.66666629,4179.93939352,3095.03030272,4338.60606017,2616.96969671,4937.21212072,2938.42424213,4261.33333291,49.4545454496,4445.75757531,1978.18181798,4176.33333292,1310.54545441,4855.30302982,2077.09090888,4487.48484804,4038.78787838,42.0,42.0,?
2017-08-01 19:34:03.211264,4567.84848439,2645.81818155,4162.93939352,4.1212121208,3902.27272688,3507.1515148,3875.99999961,4170.66666625,4259.78787836,4047.03030263,4480.27272682,3762.66666629,4175.30302989,3095.03030272,4329.84848442,2616.96969671,4940.81818132,2938.42424213,4257.21212079,49.4545454496,4445.75757531,1978.18181798,4176.84848443,1310.54545441,4858.39393891,2077.09090888,4488.51515107,4038.78787838,42.0,42.0,?
2017-08-01 19:34:03.226665,4568.87878742,2645.81818155,4161.39393898,4.1212121208,3900.72727234,3507.1515148,3842.51515113,4170.66666625,4257.21212079,4047.03030263,4479.24242379,3762.66666629,4172.21212079,3095.03030272,4328.30302987,2616.96969671,4940.81818132,2938.42424213,4259.78787836,49.4545454496,4449.87878743,1978.18181798,4179.93939352,1310.54545441,4860.96969648,2077.09090888,4489.5454541,4038.78787838,42.0,42.0,?
2017-08-01 19:34:03.226895,4564.7575753,2645.81818155,4161.90909049,4.1212121208,3897.12121173,3507.1515148,3866.72727234,4170.66666625,4259.27272685,4047.03030263,4477.69696925,3762.66666629,4176.33333292,3095.03030272,4333.45454502,2616.96969671,4935.15151466,2938.42424213,4265.45454503,49.4545454496,4450.90909046,1978.18181798,4178.90909049,1310.54545441,4860.96969648,2077.09090888,4491.09090864,4038.78787838,42.0,42.0,?
2017-08-01 19:34:03.242137,4563.21212076,2645.81818155,4160.36363595,4.1212121208,3901.24242385,3507.1515148,3879.0909087,4170.66666625,4260.81818139,4047.03030263,4476.1515147,3762.66666629,4173.24242383,3095.03030272,4322.12121169,2616.96969671,4924.33333284,2938.42424213,4252.57575715,49.4545454496,4447.30302986,1978.18181798,4174.27272686,1310.54545441,4859.42424194,2077.09090888,4495.21212076,4038.78787838,42.0,42.0,?
2017-08-01 19:34:03.245796,4563.21212076,2645.81818155,4160.36363595,4.1212121208,3901.24242385,3507.1515148,3879.0909087,4170.66666625,4260.81818139,4047.03030263,4476.1515147,3762.66666629,4160.87878746,3095.03030272,4322.12121169,2616.96969671,4924.33333284,2938.42424213,4252.57575715,49.4545454496,4447.30302986,1978.18181798,4174.27272686,1310.54545441,4853.75757527,2077.09090888,4495.72727228,4038.78787838,42.0,42.0,?
2017-08-01 19:34:03.250014,4566.30302985,2645.81818155,4163.96969655,4.1212121208,3900.21212082,3507.1515148,3884.75757537,4170.66666625,4262.36363594,4047.03030263,4476.1515147,3762.66666629,4156.24242383,3095.03030272,4314.90909048,2616.96969671,4925.87878739,2938.42424213,4245.36363594,49.4545454496,4447.30302986,1978.18181798,4172.72727231,1310.54545441,4860.45454497,2077.09090888,4496.24242379,4038.78787838,42.0,42.0,?
2017-08-01 19:34:03.261273,4564.7575753,2645.81818155,4160.87878746,4.1212121208,3900.72727234,3507.1515148,3865.69696931,4170.66666625,4262.87878745,4047.03030263,4477.69696925,3762.66666629,4166.03030261,3095.03030272,4318.51515108,2616.96969671,4925.87878739,2938.42424213,4253.09090867,49.4545454496,4445.75757531,1978.18181798,4173.24242383,1310.54545441,4861.99999951,2077.09090888,4491.60606016,4038.78787838,42.0,42.0,?
2017-08-01 19:34:03.266048,4562.69696924,2645.81818155,4158.8181814,4.1212121208,3902.7878784,3507.1515148,3863.63636325,4170.66666625,4260.81818139,4047.03030263,4475.63636319,3762.66666629,4167.57575716,3095.03030272,4328.30302987,2616.96969671,4925.36363587,2938.42424213,4266.48484806,49.4545454496,4443.18181774,1978.18181798,4178.90909049,1310.54545441,4855.81818133,2077.09090888,4492.63636319,4038.78787838,42.0,42.0,?
2017-08-01 19:34:03.272220,4568.36363591,2645.81818155,4166.03030261,4.1212121208,3905.36363597,3507.1515148,3888.36363597,4170.66666625,4259.27272685,4047.03030263,4470.48484804,3762.66666629,4157.27272686,3095.03030272,4327.78787836,2616.96969671,4940.81818132,2938.42424213,4264.424242,49.4545454496,4444.72727228,1978.18181798,4179.93939352,1310.54545441,4857.87878739,2077.09090888,4498.30302985,4038.78787838,42.0,42.0,?
2017-08-01 19:34:03.282321,4565.27272682,2645.81818155,4163.45454504,4.1212121208,3901.75757537,3507.1515148,3884.75757537,4170.66666625,4258.24242382,4047.03030263,4469.96969652,3762.66666629,4161.90909049,3095.03030272,4326.75757532,2616.96969671,4960.3939389,2938.42424213,4261.84848442,49.4545454496,4446.78787834,1978.18181798,4177.36363595,1310.54545441,4856.84848436,2077.09090888,4494.18181773,4038.78787838,42.0,42.0,?
2017-08-01 19:34:03.289003,4568.36363591,2645.81818155,4161.90909049,4.1212121208,3896.0909087,3507.1515148,3857.45454507,4170.66666625,4254.1212117,4047.03030263,4469.96969652,3762.66666629,4172.21212079,3095.03030272,4335.51515108,2616.96969671,4950.0909086,2938.42424213,4271.63636321,49.4545454496,4452.96969652,1978.18181798,4178.90909049,1310.54545441,4861.99999951,2077.09090888,4494.18181773,4038.78787838,42.0,42.0,?
2017-08-01 19:34:03.297987,4567.84848439,2645.81818155,4162.42424201,4.1212121208,3903.81818143,3507.1515148,3839.93939356,4170.66666625,4253.60606018,4047.03030263,4468.93939349,3762.66666629,4173.24242383,3095.03030272,4343.75757532,2616.96969671,4939.27272678,2938.42424213,4278.84848442,49.4545454496,4455.5454541,1978.18181798,4179.93939352,1310.54545441,4861.484848,2077.09090888,4498.30302985,4038.78787838,42.0,42.0,?
2017-08-01 19:34:03.306727,4561.1515147,2645.81818155,4161.39393898,4.1212121208,3911.54545415,3507.1515148,3849.72727234,4170.66666625,4260.30302988,4047.03030263,4469.96969652,3762.66666629,4172.21212079,3095.03030272,4339.12121169,2616.96969671,4952.15151466,2938.42424213,4270.60606018,49.4545454496,4448.8484844,1978.18181798,4178.39393898,1310.54545441,4854.7878783,2077.09090888,4497.27272682,4038.78787838,42.0,42.0,?
2017-08-01 19:34:03.311946,4566.30302985,2645.81818155,4163.45454504,4.1212121208,3899.69696931,3507.1515148,3896.60606022,4170.66666625,4263.90909048,4047.03030263,4472.5454541,3762.66666629,4173.75757534,3095.03030272,4330.87878745,2616.96969671,4943.3939389,2938.42424213,4256.69696927,49.4545454496,4446.27272683,1978.18181798,4179.93939352,1310.54545441,4857.87878739,2077.09090888,4497.27272682,4038.78787838,42.0,42.0,?
2017-08-01 19:34:03.320864,4563.72727227,2645.81818155,4161.90909049,4.1212121208,3891.45454507,3507.1515148,3914.63636324,4170.66666625,4264.93939351,4047.03030263,4478.72727228,3762.66666629,4175.30302989,3095.03030272,4334.48484805,2616.96969671,4928.96969648,2938.42424213,4265.45454503,49.4545454496,4450.39393895,1978.18181798,4181.48484807,1310.54545441,4859.93939345,2077.09090888,4495.72727228,4038.78787838,42.0,42.0,?
2017-08-01 19:34:03.329199,4565.78787833,2645.81818155,4161.90909049,4.1212121208,3902.7878784,3507.1515148,3868.27272689,4170.66666625,4265.45454503,4047.03030263,4481.30302985,3762.66666629,4175.8181814,3095.03030272,4339.12121169,2616.96969671,4945.45454496,2938.42424213,4283.48484806,49.4545454496,4455.5454541,1978.18181798,4178.39393898,1310.54545441,4866.12121163,2077.09090888,4497.27272682,4038.78787838,42.0,42.0,?
2017-08-01 19:34:03.335450,4567.84848439,2645.81818155,4159.84848443,4.1212121208,3911.54545415,3507.1515148,3841.99999962,4170.66666625,4264.93939351,4047.03030263,4475.63636319,3762.66666629,4176.33333292,3095.03030272,4337.06060563,2616.96969671,4953.18181769,2938.42424213,4279.36363594,49.4545454496,4450.90909046,1978.18181798,4175.8181814,1310.54545441,4865.0909086,2077.09090888,4494.18181773,4038.78787838,42.0,42.0,?
2017-08-01 19:34:03.345976,4560.63636318,2645.81818155,4159.33333292,4.1212121208,3903.30302991,3507.1515148,3866.72727234,4170.66666625,4265.96969654,4047.03030263,4473.57575713,3762.66666629,4177.36363595,3095.03030272,4333.45454502,2616.96969671,4935.66666617,2938.42424213,4261.84848442,49.4545454496,4444.21212077,1978.18181798,4176.84848443,1310.54545441,4856.84848436,2077.09090888,4489.03030258,4038.78787838,42.0,42.0,?
2017-08-01 19:34:03.358540,4565.78787833,2645.81818155,4166.03030261,4.1212121208,3897.12121173,3507.1515148,3883.72727234,4170.66666625,4267.51515109,4047.03030263,4478.21212076,3762.66666629,4174.78787837,3095.03030272,4332.42424199,2616.96969671,4934.63636314,2938.42424213,4256.18181776,49.4545454496,4448.8484844,1978.18181798,4181.48484807,1310.54545441,4862.51515103,2077.09090888,4494.18181773,4038.78787838,42.0,42.0,?
2017-08-01 19:34:03.359396,4567.84848439,2645.81818155,4162.42424201,4.1212121208,3902.27272688,3507.1515148,3873.93939355,4170.66666625,4268.0303026,4047.03030263,4477.18181773,3762.66666629,4172.21212079,3095.03030272,4336.0303026,2616.96969671,4949.57575708,2938.42424213,4269.06060563,49.4545454496,4450.90909046,1978.18181798,4181.99999958,1310.54545441,4863.03030254,2077.09090888,4494.18181773,4038.78787838,42.0,42.0,?
2017-08-01 19:34:03.376839,4566.81818136,2645.81818155,4158.30302989,4.1212121208,3902.7878784,3507.1515148,3870.33333295,4170.66666625,4268.0303026,4047.03030263,4471.51515107,3762.66666629,4174.27272686,3095.03030272,4338.09090866,2616.96969671,4948.03030254,2938.42424213,4270.60606018,49.4545454496,4448.8484844,1978.18181798,4179.42424201,1310.54545441,4861.484848,2077.09090888,4494.18181773,4038.78787838,42.0,42.0,?
2017-08-01 19:34:03.377125,4565.27272682,2645.81818155,4159.84848443,4.1212121208,3900.72727234,3507.1515148,3874.45454507,4170.66666625,4264.93939351,4047.03030263,4469.96969652,3762.66666629,4173.75757534,3095.03030272,4331.39393896,2616.96969671,4941.84848435,2938.42424213,4255.66666624,49.4545454496,4448.33333289,1978.18181798,4177.87878746,1310.54545441,4863.03030254,2077.09090888,4495.72727228,4038.78787838,42.0,42.0,?
2017-08-01 19:34:03.382582,4561.66666621,2645.81818155,4161.90909049,4.1212121208,3902.7878784,3507.1515148,3878.06060567,4170.66666625,4264.424242,4047.03030263,4473.06060561,3762.66666629,4171.69696928,3095.03030272,4327.27272684,2616.96969671,4948.03030254,2938.42424213,4252.57575715,49.4545454496,4451.42424198,1978.18181798,4177.87878746,1310.54545441,4860.45454497,2077.09090888,4493.66666622,4038.78787838,42.0,42.0,?
2017-08-01 19:34:03.390227,4570.42424197,2645.81818155,4164.48484807,4.1212121208,3902.27272688,3507.1515148,3880.63636325,4170.66666625,4268.54545412,4047.03030263,4472.03030258,3762.66666629,4174.27272686,3095.03030272,4331.90909048,2616.96969671,4945.45454496,2938.42424213,4263.90909048,49.4545454496,4458.12121168,1978.18181798,4177.36363595,1310.54545441,4864.06060557,2077.09090888,4497.78787834,4038.78787838,42.0,42.0,?
2017-08-01 19:34:03.397865,4569.90909045,2645.81818155,4160.36363595,4.1212121208,3905.36363597,3507.1515148,3863.12121173,4170.66666625,4267.51515109,4047.03030263,4470.48484804,3762.66666629,4173.75757534,3095.03030272,4331.90909048,2616.96969671,4928.96969648,2938.42424213,4260.81818139,49.4545454496,4450.39393895,1978.18181798,4176.84848443,1310.54545441,4861.484848,2077.09090888,4494.18181773,4038.78787838,42.0,42.0,?
2017-08-01 19:34:03.408646,4563.21212076,2691.15151488,4159.84848443,4.1212121208,3911.54545415,3507.1515148,3838.39393901,4170.66666625,4264.93939351,4047.03030263,4474.09090864,3762.66666629,4170.66666625,3095.03030272,4328.81818139,2616.96969671,4922.7878783,2938.42424213,4239.69696927,49.4545454496,4438.5454541,1978.18181798,4176.84848443,1310.54545441,4857.87878739,2077.09090888,4489.5454541,4038.78787838,42.0,42.0,?
2017-08-01 19:34:03.413812,4562.69696924,2691.15151488,4162.42424201,0.0,3905.36363597,3507.1515148,3861.06060567,4170.66666625,4271.63636321,4047.03030263,4475.63636319,3762.66666629,4170.66666625,3095.03030272,4327.27272684,2616.96969671,4928.96969648,2938.42424213,4225.27272685,49.4545454496,4439.06060562,1978.18181798,4173.75757534,1310.54545441,4861.484848,2077.09090888,4491.60606016,4038.78787838,42.0,42.0,?
2017-08-01 19:34:03.421280,4560.12121167,2691.15151488,4158.8181814,0.0,3898.66666628,3507.1515148,3896.0909087,4170.66666625,4274.21212078,4047.03030263,4476.1515147,3762.66666629,4168.09090867,3095.03030272,4326.24242381,2616.96969671,4934.12121163,2938.42424213,4229.90909049,49.4545454496,4440.60606016,1978.18181798,4173.75757534,1310.54545441,4857.87878739,2077.09090888,4490.06060561,4026.42424202,42.0,42.0,?
2017-08-01 19:34:03.431836,4568.36363591,2691.15151488,4162.42424201,0.0,3903.30302991,3498.90909056,3873.42424204,4170.66666625,4262.87878745,4047.03030263,4478.21212076,3762.66666629,4163.45454504,3095.03030272,4325.72727229,2616.96969671,4934.12121163,2938.42424213,4235.57575715,49.4545454496,4443.69696925,1978.18181798,4179.42424201,1310.54545441,4862.51515103,2077.09090888,4492.12121167,4026.42424202,42.0,42.0,?
2017-08-01 19:34:03.438083,4568.36363591,2691.15151488,4164.48484807,0.0,3907.42424203,3498.90909056,3860.03030264,45.3333333288,4255.66666624,4047.03030263,4475.12121167,3762.66666629,4162.42424201,3095.03030272,4325.72727229,2616.96969671,4932.57575708,2938.42424213,4234.54545412,49.4545454496,4447.30302986,1978.18181798,4177.36363595,1310.54545441,4863.54545406,2077.09090888,4494.69696925,4026.42424202,42.0,42.0,?
2017-08-01 19:34:03.444605,4562.69696924,2691.15151488,4161.90909049,0.0,3903.30302991,3498.90909056,3879.60606022,45.3333333288,4256.69696927,4038.78787838,4469.45454501,3762.66666629,4165.5151511,3095.03030272,4327.27272684,2616.96969671,4932.06060557,2938.42424213,4239.18181776,49.4545454496,4446.78787834,1978.18181798,4175.30302989,1310.54545441,4859.42424194,2077.09090888,4493.66666622,4026.42424202,42.0,42.0,?
2017-08-01 19:34:03.453016,4567.33333288,2691.15151488,4162.42424201,0.0,3898.15151476,3498.90909056,3871.87878749,45.3333333288,4255.66666624,4038.78787838,4468.42424198,3766.78787841,4166.54545413,3095.03030272,4328.81818139,2616.96969671,4932.06060557,2938.42424213,4246.90909048,49.4545454496,4443.69696925,1978.18181798,4181.48484807,1310.54545441,4860.45454497,2077.09090888,4492.63636319,4026.42424202,42.0,42.0,?
2017-08-01 19:34:03.462305,4562.18181773,2691.15151488,4160.36363595,0.0,3899.18181779,3498.90909056,3874.96969658,45.3333333288,4254.63636321,4038.78787838,4469.45454501,3766.78787841,4168.60606019,3082.66666636,4331.39393896,2616.96969671,4932.57575708,2938.42424213,4245.36363594,49.4545454496,4441.63636319,1978.18181798,4182.5151511,1310.54545441,4858.39393891,2077.09090888,4489.03030258,4026.42424202,42.0,42.0,?
2017-08-01 19:34:03.468967,4564.7575753,2691.15151488,4163.45454504,0.0,3902.7878784,3498.90909056,3857.96969658,45.3333333288,4255.66666624,4038.78787838,4472.03030258,3766.78787841,4172.72727231,3082.66666636,4333.45454502,2608.72727247,4938.75757526,2938.42424213,4245.36363594,49.4545454496,4446.78787834,1978.18181798,4180.96969655,1310.54545441,4865.0909086,2077.09090888,4492.63636319,4026.42424202,42.0,42.0,?
2017-08-01 19:34:03.476224,4571.454545,2691.15151488,4163.45454504,0.0,3902.27272688,3498.90909056,3829.63636325,45.3333333288,4258.24242382,4038.78787838,4477.18181773,3766.78787841,4179.42424201,3082.66666636,4340.66666623,2608.72727247,4956.27272678,3012.6060603,4256.18181776,49.4545454496,4451.93939349,1978.18181798,4182.5151511,1310.54545441,4868.1818177,2077.09090888,4494.18181773,4026.42424202,42.0,42.0,?
2017-08-01 19:34:03.483613,4567.84848439,2691.15151488,4160.36363595,0.0,3899.69696931,3498.90909056,3872.39393901,45.3333333288,4262.36363594,4038.78787838,4481.81818137,3766.78787841,4188.69696928,3082.66666636,4348.90909047,2608.72727247,4964.51515102,3012.6060603,4261.33333291,49.4545454496,4453.99999955,1978.18181798,4181.48484807,1310.54545441,4863.03030254,2077.09090888,4493.1515147,4026.42424202,42.0,42.0,?
2017-08-01 19:34:03.493987,4566.30302985,2691.15151488,4163.45454504,0.0,3899.18181779,3498.90909056,3909.48484809,45.3333333288,4261.84848442,4038.78787838,4483.36363592,3766.78787841,4187.15151473,3082.66666636,4344.78787835,2608.72727247,4949.57575708,3012.6060603,4257.7272723,49.4545454496,4453.99999955,1957.57575738,4179.93939352,1310.54545441,4866.12121163,2077.09090888,4497.27272682,4026.42424202,42.0,42.0,?
2017-08-01 19:34:03.499744,4561.1515147,2691.15151488,4160.87878746,0.0,3896.60606022,3498.90909056,3878.57575719,45.3333333288,4257.7272723,4038.78787838,4481.30302985,3766.78787841,4175.30302989,3082.66666636,4333.96969654,2608.72727247,4938.75757526,3012.6060603,4254.63636321,49.4545454496,4443.69696925,1957.57575738,4179.93939352,1314.66666654,4860.96969648,2077.09090888,4489.03030258,4026.42424202,42.0,42.0,?
2017-08-01 19:34:03.509763,4563.21212076,2691.15151488,4162.93939352,0.0,3895.57575719,3498.90909056,3859.51515113,45.3333333288,4254.1212117,4038.78787838,4474.09090864,3766.78787841,4164.99999958,3082.66666636,4323.15151472,2608.72727247,4940.30302981,3012.6060603,4239.18181776,49.4545454496,4432.36363592,1957.57575738,4175.8181814,1314.66666654,4856.84848436,2097.69696949,4482.33333289,4026.42424202,42.0,42.0,?
2017-08-01 19:34:03.515240,4564.24242379,2691.15151488,4165.5151511,0.0,3896.0909087,3498.90909056,3845.60606022,45.3333333288,4253.09090867,4038.78787838,4469.45454501,3766.78787841,4168.09090867,3082.66666636,4325.21212078,2608.72727247,4935.66666617,3012.6060603,4230.424242,49.4545454496,4433.90909047,1957.57575738,4175.8181814,1314.66666654,4859.42424194,2097.69696949,4488.51515107,4026.42424202,42.0,42.0,?
2017-08-01 19:34:03.524628,4560.63636318,2691.15151488,4162.42424201,0.0,3895.57575719,3498.90909056,3834.27272689,45.3333333288,4254.1212117,4038.78787838,4473.57575713,3766.78787841,4178.90909049,3082.66666636,4341.69696926,2608.72727247,4933.60606011,3012.6060603,4247.93939351,49.4545454496,4442.66666622,1945.21212102,4181.99999958,1314.66666654,4860.96969648,2097.69696949,4493.66666622,4026.42424202,42.0,42.0,?
2017-08-01 19:34:03.531030,4566.81818136,2691.15151488,4164.99999958,0.0,3895.57575719,3498.90909056,3883.21212082,45.3333333288,4254.63636321,4038.78787838,4477.18181773,3766.78787841,4177.36363595,3082.66666636,4344.27272684,2608.72727247,4940.81818132,3012.6060603,4251.03030261,49.4545454496,4443.18181774,1945.21212102,4180.96969655,1314.66666654,4864.06060557,2097.69696949,4491.09090864,4026.42424202,42.0,42.0,?
2017-08-01 19:34:03.539898,4561.66666621,2691.15151488,4164.48484807,0.0,3897.12121173,3498.90909056,3898.66666628,45.3333333288,4255.66666624,4038.78787838,4477.69696925,3766.78787841,4173.24242383,3082.66666636,4335.51515108,2608.72727247,4945.96969648,3012.6060603,4233.51515109,49.4545454496,4435.96969653,1945.21212102,4176.33333292,1314.66666654,4857.87878739,2097.69696949,4483.87878743,4026.42424202,42.0,42.0,?
2017-08-01 19:34:03.547219,4562.18181773,2691.15151488,4163.96969655,0.0,3899.18181779,3498.90909056,3848.69696931,45.3333333288,4261.33333291,4038.78787838,4481.81818137,3766.78787841,4187.66666625,3082.66666636,4347.36363593,2608.72727247,4960.3939389,3012.6060603,4241.75757533,49.4545454496,4444.21212077,1945.21212102,4181.99999958,1314.66666654,4860.45454497,2097.69696949,4492.12121167,4026.42424202,42.0,42.0,?
2017-08-01 19:34:03.554693,4569.90909045,2691.15151488,4164.48484807,0.0,3898.66666628,3498.90909056,3856.42424204,45.3333333288,4262.36363594,4038.78787838,4484.90909046,3766.78787841,4196.424242,3082.66666636,4357.15151472,2608.72727247,4970.6969692,3012.6060603,4258.75757533,49.4545454496,4456.57575713,1945.21212102,4186.1212117,1314.66666654,4868.69696921,2097.69696949,4500.36363591,4026.42424202,42.0,42.0,?
2017-08-01 19:34:03.562097,4564.7575753,2691.15151488,4159.84848443,0.0,3898.66666628,3498.90909056,3897.12121173,45.3333333288,4261.33333291,4038.78787838,4485.42424198,3766.78787841,4188.69696928,3082.66666636,4345.81818138,2608.72727247,4953.18181769,3012.6060603,4260.30302988,49.4545454496,4451.42424198,1945.21212102,4182.5151511,1314.66666654,4860.45454497,2097.69696949,4491.60606016,4026.42424202,42.0,42.0,?
2017-08-01 19:34:03.570041,4569.90909045,2691.15151488,4161.90909049,0.0,3900.72727234,3498.90909056,3895.57575719,45.3333333288,4265.45454503,4038.78787838,4490.06060561,3766.78787841,4188.69696928,3082.66666636,4342.21212078,2608.72727247,4946.48484799,3012.6060603,4261.33333291,49.4545454496,4450.39393895,1945.21212102,4182.5151511,1314.66666654,4861.99999951,2097.69696949,4494.69696925,4026.42424202,42.0,42.0,?
2017-08-01 19:34:03.577078,4571.96969651,2691.15151488,4162.42424201,0.0,3902.7878784,3498.90909056,3857.45454507,45.3333333288,4268.0303026,4038.78787838,4493.1515147,3766.78787841,4194.87878746,3082.66666636,4349.9393935,2608.72727247,4966.57575708,3012.6060603,4259.78787836,49.4545454496,4453.99999955,1945.21212102,4183.54545413,1314.66666654,4865.60606012,2097.69696949,4501.39393894,4026.42424202,42.0,42.0,?
2017-08-01 19:34:03.586972,4563.72727227,2691.15151488,4159.84848443,0.0,3897.12121173,3498.90909056,3842.51515113,45.3333333288,4262.87878745,4038.78787838,4486.96969652,3766.78787841,4185.60606019,3082.66666636,4340.66666623,2608.72727247,4965.54545405,3012.6060603,4250.51515109,49.4545454496,4446.78787834,1945.21212102,4181.48484807,1314.66666654,4861.484848,2097.69696949,4495.21212076,4026.42424202,42.0,42.0,?
2017-08-01 19:34:03.593089,4562.69696924,2691.15151488,4159.84848443,0.0,3888.36363597,3498.90909056,3866.21212083,45.3333333288,4258.75757533,4038.78787838,4480.27272682,3766.78787841,4171.18181776,3082.66666636,4326.24242381,2608.72727247,4938.24242375,3012.6060603,4248.96969654,49.4545454496,4442.15151471,1945.21212102,4180.45454504,1314.66666654,4861.99999951,2097.69696949,4491.09090864,4026.42424202,42.0,42.0,?
2017-08-01 19:34:03.604434,4559.60606015,2691.15151488,4158.30302989,0.0,3896.0909087,3498.90909056,3881.66666628,45.3333333288,4261.84848442,4038.78787838,4483.36363592,3766.78787841,4174.27272686,3082.66666636,4332.42424199,2608.72727247,4937.21212072,3012.6060603,4253.60606018,49.4545454496,4444.72727228,1945.21212102,4180.96969655,1314.66666654,4860.45454497,2097.69696949,4490.06060561,4026.42424202,42.0,42.0,?
2017-08-01 19:34:03.609154,4562.18181773,2691.15151488,4162.93939352,0.0,3901.24242385,3498.90909056,3882.69696931,45.3333333288,4262.87878745,4038.78787838,4487.48484804,3766.78787841,4177.36363595,3082.66666636,4336.54545411,2608.72727247,4945.45454496,3012.6060603,4249.99999958,49.4545454496,4445.75757531,1945.21212102,4181.48484807,1314.66666654,4860.96969648,2097.69696949,4492.63636319,4026.42424202,42.0,42.0,?
2017-08-01 19:34:03.617048,4561.66666621,2691.15151488,4161.90909049,0.0,3890.42424204,3498.90909056,3877.03030264,45.3333333288,4256.69696927,4038.78787838,4480.78787834,3766.78787841,4172.21212079,3082.66666636,4332.42424199,2608.72727247,4939.27272678,3012.6060603,4249.99999958,49.4545454496,4443.18181774,1945.21212102,4180.45454504,1314.66666654,4860.45454497,2097.69696949,4490.57575713,4026.42424202,42.0,42.0,?
2017-08-01 19:34:03.624129,4559.60606015,2691.15151488,4157.78787837,0.0,3889.393939,3498.90909056,3864.66666628,45.3333333288,4249.99999958,4038.78787838,4475.12121167,3766.78787841,4173.75757534,3082.66666636,4338.09090866,2608.72727247,4945.96969648,3012.6060603,4254.1212117,49.4545454496,4445.2424238,1945.21212102,4178.90909049,1314.66666654,4859.42424194,2097.69696949,4491.09090864,4026.42424202,42.0,42.0,?
2017-08-01 19:34:03.632012,4564.24242379,2691.15151488,4161.90909049,0.0,3899.18181779,3498.90909056,3868.27272689,45.3333333288,4246.39393897,4038.78787838,4478.21212076,3766.78787841,4176.33333292,3082.66666636,4341.69696926,2608.72727247,4951.12121163,3012.6060603,4244.33333291,49.4545454496,4447.30302986,1945.21212102,4179.93939352,1314.66666654,4864.06060557,2097.69696949,4496.24242379,4026.42424202,42.0,42.0,?
2017-08-01 19:34:03.640950,4560.63636318,2691.15151488,4161.39393898,0.0,3898.15151476,3498.90909056,3880.63636325,45.3333333288,4248.96969654,4038.78787838,4479.24242379,3766.78787841,4171.18181776,3082.66666636,4332.42424199,2608.72727247,4944.93939344,3012.6060603,4237.63636321,49.4545454496,4440.09090865,1945.21212102,4181.99999958,1314.66666654,4860.96969648,2097.69696949,4493.1515147,4026.42424202,42.0,42.0,?
2017-08-01 19:34:03.648085,4564.7575753,2691.15151488,4162.42424201,0.0,3894.03030264,3498.90909056,3876.51515113,45.3333333288,4254.63636321,4038.78787838,4477.18181773,3766.78787841,4168.60606019,3082.66666636,4328.81818139,2608.72727247,4944.42424193,3012.6060603,4245.87878745,49.4545454496,4442.15151471,1945.21212102,4184.06060564,1314.66666654,4861.484848,2097.69696949,4492.63636319,4026.42424202,42.0,42.0,?
2017-08-01 19:34:03.655506,4564.24242379,2691.15151488,4163.96969655,0.0,3899.18181779,3498.90909056,3856.42424204,45.3333333288,4255.66666624,4038.78787838,4482.8484844,3766.78787841,4177.36363595,3082.66666636,4340.15151472,2608.72727247,4961.42424193,3012.6060603,4260.81818139,49.4545454496,4451.42424198,1945.21212102,4186.63636322,1314.66666654,4863.54545406,2097.69696949,4493.1515147,4026.42424202,42.0,42.0,?
2017-08-01 19:34:03.664062,4558.57575712,2691.15151488,4159.84848443,0.0,3900.72727234,3498.90909056,3851.7878784,45.3333333288,4253.60606018,4038.78787838,4489.03030258,3766.78787841,4186.63636322,3082.66666636,4346.3333329,2608.72727247,4970.18181768,3012.6060603,4265.96969654,49.4545454496,4452.45454501,1945.21212102,4187.66666625,1314.66666654,4860.96969648,2097.69696949,4492.12121167,4026.42424202,42.0,42.0,?
2017-08-01 19:34:03.676128,4566.30302985,2691.15151488,4161.90909049,0.0,3892.4848481,3498.90909056,3875.99999961,45.3333333288,4254.63636321,4038.78787838,4486.96969652,3766.78787841,4184.06060564,3082.66666636,4337.57575714,2608.72727247,4945.96969648,3012.6060603,4262.36363594,49.4545454496,4453.48484804,1945.21212102,4185.60606019,1314.66666654,4865.0909086,2097.69696949,4494.69696925,4026.42424202,42.0,42.0,?
2017-08-01 19:34:03.681750,4565.78787833,2691.15151488,4163.96969655,0.0,3892.99999961,3498.90909056,3898.15151476,45.3333333288,4259.27272685,4038.78787838,4484.39393895,3766.78787841,4178.90909049,3082.66666636,4330.87878745,2608.72727247,4933.60606011,3012.6060603,4259.78787836,49.4545454496,4453.48484804,1945.21212102,4180.96969655,1314.66666654,4862.51515103,2097.69696949,4493.1515147,4026.42424202,42.0,42.0,?
2017-08-01 19:34:03.693696,4566.30302985,2691.15151488,4163.96969655,0.0,3899.69696931,3498.90909056,3875.99999961,45.3333333288,4256.69696927,4038.78787838,4485.42424198,3766.78787841,4177.87878746,3082.66666636,4326.75757532,2608.72727247,4936.6969692,3012.6060603,4256.18181776,49.4545454496,4452.96969652,1945.21212102,4180.96969655,1314.66666654,4861.484848,2097.69696949,4495.21212076,4026.42424202,42.0,42.0,?
2017-08-01 19:34:03.698508,4567.33333288,2691.15151488,4158.30302989,0.0,3897.12121173,3498.90909056,3845.60606022,45.3333333288,4252.57575715,4038.78787838,4482.33333289,3766.78787841,4176.33333292,3082.66666636,4321.60606017,2608.72727247,4934.12121163,3012.6060603,4252.57575715,49.4545454496,4452.45454501,1945.21212102,4186.1212117,1314.66666654,4861.484848,2097.69696949,4495.21212076,4026.42424202,42.0,42.0,?
2017-08-01 19:34:03.709372,4557.54545409,2691.15151488,4156.75757534,0.0,3890.42424204,3498.90909056,3852.81818143,45.3333333288,4253.60606018,4038.78787838,4478.72727228,3766.78787841,4175.30302989,3082.66666636,4323.66666623,2608.72727247,4939.27272678,3012.6060603,4253.09090867,49.4545454496,4449.36363592,1945.21212102,4186.63636322,1314.66666654,4856.33333285,2097.69696949,4491.60606016,4026.42424202,42.0,42.0,?
2017-08-01 19:34:03.711896,4560.12121167,2691.15151488,4163.96969655,0.0,3890.93939355,3498.90909056,3871.36363598,45.3333333288,4253.09090867,4038.78787838,4478.72727228,3766.78787841,4173.75757534,3082.66666636,4328.81818139,2608.72727247,4949.57575708,3012.6060603,4255.66666624,49.4545454496,4446.78787834,1945.21212102,4184.57575716,1314.66666654,4860.45454497,2097.69696949,4493.1515147,4026.42424202,42.0,42.0,?
2017-08-01 19:34:03.718144,4562.69696924,2691.15151488,4161.39393898,0.0,3896.60606022,3498.90909056,3879.0909087,45.3333333288,4251.03030261,4038.78787838,4480.27272682,3766.78787841,4170.66666625,3082.66666636,4328.30302987,2608.72727247,4956.27272678,3012.6060603,4256.18181776,49.4545454496,4442.15151471,1945.21212102,4184.57575716,1314.66666654,4859.93939345,2097.69696949,4490.06060561,4026.42424202,42.0,42.0,?
2017-08-01 19:34:03.728497,4562.18181773,2691.15151488,4160.87878746,0.0,3896.60606022,3498.90909056,3867.24242386,45.3333333288,4252.06060564,4038.78787838,4480.78787834,3766.78787841,4173.24242383,3082.66666636,4327.78787836,2608.72727247,4958.84848435,3012.6060603,4255.66666624,49.4545454496,4441.63636319,1945.21212102,4187.66666625,1314.66666654,4861.484848,2097.69696949,4489.5454541,4026.42424202,42.0,42.0,?
2017-08-01 19:34:03.735066,4560.12121167,2691.15151488,4163.45454504,0.0,3895.06060567,3498.90909056,3856.93939355,45.3333333288,4254.1212117,4038.78787838,4481.81818137,3766.78787841,4179.93939352,3082.66666636,4331.90909048,2608.72727247,4954.21212072,3012.6060603,4250.51515109,49.4545454496,4446.78787834,1945.21212102,4187.15151473,1314.66666654,4863.54545406,2097.69696949,4492.63636319,4026.42424202,42.0,42.0,?
2017-08-01 19:34:03.744159,4557.54545409,2691.15151488,4160.87878746,0.0,3896.60606022,3498.90909056,3860.54545416,45.3333333288,4259.27272685,4038.78787838,4485.42424198,3766.78787841,4184.06060564,3082.66666636,4338.09090866,2608.72727247,4945.96969648,3012.6060603,4251.03030261,49.4545454496,4449.36363592,1945.21212102,4182.5151511,1314.66666654,4860.96969648,2097.69696949,4491.09090864,4026.42424202,42.0,42.0,?
2017-08-01 19:34:03.749071,4566.81818136,2691.15151488,4163.45454504,0.0,3896.60606022,3498.90909056,3862.60606022,45.3333333288,4262.87878745,4038.78787838,4486.45454501,3766.78787841,4183.03030261,3082.66666636,4336.0303026,2608.72727247,4940.81818132,3012.6060603,4257.7272723,49.4545454496,4453.48484804,1945.21212102,4183.03030261,1314.66666654,4867.66666618,2097.69696949,4494.69696925,4026.42424202,42.0,42.0,?
2017-08-01 19:34:03.758835,4566.30302985,2691.15151488,4160.36363595,0.0,3897.12121173,3498.90909056,3869.81818143,45.3333333288,4262.36363594,4038.78787838,4484.39393895,3766.78787841,4179.42424201,3082.66666636,4330.36363593,2608.72727247,4939.78787829,3012.6060603,4256.69696927,49.4545454496,4456.06060561,1945.21212102,4184.57575716,1314.66666654,4866.63636315,2097.69696949,4496.24242379,4026.42424202,42.0,42.0,?
2017-08-01 19:34:03.765374,4563.72727227,2691.15151488,4156.75757534,0.0,3900.72727234,3498.90909056,3861.57575719,45.3333333288,4261.84848442,4038.78787838,4485.42424198,3766.78787841,4179.42424201,3082.66666636,4330.87878745,2608.72727247,4941.33333284,3012.6060603,4251.54545412,49.4545454496,4456.57575713,1945.21212102,4186.1212117,1314.66666654,4864.57575709,2097.69696949,4497.78787834,4026.42424202,42.0,42.0,?
2017-08-01 19:34:03.773038,4566.30302985,2691.15151488,4158.8181814,0.0,3898.66666628,3498.90909056,3855.90909052,45.3333333288,4259.78787836,4038.78787838,4484.90909046,3766.78787841,4180.96969655,3082.66666636,4331.90909048,2608.72727247,4935.66666617,3012.6060603,4247.424242,49.4545454496,4450.90909046,1945.21212102,4186.63636322,1314.66666654,4863.54545406,2097.69696949,4500.36363591,4026.42424202,42.0,42.0,?
2017-08-01 19:34:03.782489,4560.12121167,2691.15151488,4158.8181814,0.0,3892.4848481,3498.90909056,3870.84848446,45.3333333288,4256.18181776,4038.78787838,4480.27272682,3766.78787841,4176.84848443,3082.66666636,4328.30302987,2608.72727247,4929.99999951,3012.6060603,4243.30302988,49.4545454496,4440.09090865,1945.21212102,4184.57575716,1314.66666654,4855.81818133,2097.69696949,4491.09090864,4026.42424202,42.0,42.0,?
2017-08-01 19:34:03.788949,4563.72727227,2691.15151488,4162.42424201,0.0,3890.93939355,3498.90909056,3863.63636325,45.3333333288,4253.09090867,4038.78787838,4476.66666622,3766.78787841,4171.18181776,3082.66666636,4323.66666623,2608.72727247,4941.33333284,3012.6060603,4241.75757533,49.4545454496,4438.5454541,1945.21212102,4184.06060564,1314.66666654,4861.99999951,2097.69696949,4486.45454501,4026.42424202,42.0,42.0,?
2017-08-01 19:34:03.797875,4561.66666621,2691.15151488,4163.45454504,0.0,3889.393939,3498.90909056,3862.60606022,45.3333333288,4250.51515109,4038.78787838,4473.06060561,3766.78787841,4170.66666625,3082.66666636,4320.06060563,2608.72727247,4946.48484799,3012.6060603,4242.78787836,49.4545454496,4436.99999956,1945.21212102,4184.06060564,1314.66666654,4863.54545406,2097.69696949,4486.96969652,4026.42424202,42.0,42.0,?
2017-08-01 19:34:03.804059,4555.99999954,2691.15151488,4161.39393898,0.0,3888.87878749,3498.90909056,3873.93939355,45.3333333288,4246.90909048,4038.78787838,4465.8484844,3766.78787841,4164.99999958,3082.66666636,4314.90909048,2608.72727247,4927.42424193,3012.6060603,4237.63636321,49.4545454496,4433.90909047,1945.21212102,4182.5151511,1314.66666654,4859.93939345,2097.69696949,4487.48484804,4026.42424202,42.0,42.0,?
2017-08-01 19:34:03.812050,4561.1515147,2691.15151488,4161.39393898,0.0,3893.51515113,3498.90909056,3843.54545416,45.3333333288,4244.84848442,4038.78787838,4462.75757531,3766.78787841,4152.63636322,3082.66666636,4309.75757533,2608.72727247,4917.12121163,3012.6060603,4232.99999958,49.4545454496,4439.57575713,1945.21212102,4180.45454504,1314.66666654,4864.57575709,2097.69696949,4491.60606016,4026.42424202,42.0,42.0,?
2017-08-01 19:34:03.820618,4556.51515106,2691.15151488,4156.75757534,0.0,3893.51515113,3498.90909056,3845.09090871,45.3333333288,4246.39393897,4038.78787838,4467.39393895,3766.78787841,4156.75757534,3082.66666636,4312.3333329,2608.72727247,4926.90909042,3012.6060603,4233.51515109,49.4545454496,4440.60606016,1945.21212102,4180.96969655,1314.66666654,4860.45454497,2097.69696949,4486.96969652,4026.42424202,42.0,42.0,?
2017-08-01 19:34:03.828392,4555.99999954,2691.15151488,4158.30302989,0.0,3890.42424204,3498.90909056,3873.93939355,45.3333333288,4247.93939351,4038.78787838,4468.93939349,3766.78787841,4164.99999958,3082.66666636,4312.84848442,2608.72727247,4926.3939389,3012.6060603,4238.66666624,49.4545454496,4436.99999956,1945.21212102,4184.57575716,1314.66666654,4863.03030254,2097.69696949,4486.96969652,4026.42424202,42.0,42.0,?
2017-08-01 19:34:03.835921,4560.63636318,2691.15151488,4160.36363595,0.0,3890.93939355,3498.90909056,3845.09090871,45.3333333288,4251.03030261,4038.78787838,4466.87878743,3766.78787841,4163.45454504,3082.66666636,4312.84848442,2608.72727247,4917.12121163,3012.6060603,4247.424242,49.4545454496,4435.96969653,1945.21212102,4185.09090867,1314.66666654,4865.0909086,2097.69696949,4491.09090864,4026.42424202,42.0,42.0,?
2017-08-01 19:34:03.843075,4559.60606015,2691.15151488,4160.87878746,0.0,3887.33333294,3498.90909056,3837.87878749,45.3333333288,4254.63636321,4038.78787838,4472.03030258,3766.78787841,4166.54545413,3082.66666636,4320.06060563,2608.72727247,4917.12121163,3012.6060603,4247.424242,49.4545454496,4438.5454541,1945.21212102,4182.5151511,1314.66666654,4860.45454497,2097.69696949,4490.57575713,4026.42424202,42.0,42.0,?
2017-08-01 19:34:03.853504,4564.24242379,2691.15151488,4163.45454504,0.0,3881.15151476,3498.90909056,3879.0909087,45.3333333288,4256.18181776,4038.78787838,4477.18181773,3766.78787841,4170.66666625,3082.66666636,4323.66666623,2608.72727247,4935.15151466,3012.6060603,4244.33333291,49.4545454496,4445.75757531,1945.21212102,4183.03030261,1314.66666654,4867.66666618,2097.69696949,4493.66666622,4026.42424202,42.0,42.0,?
2017-08-01 19:34:03.859639,4560.63636318,2691.15151488,4156.75757534,0.0,3880.12121173,3498.90909056,3883.72727234,45.3333333288,4257.21212079,4038.78787838,4477.69696925,3766.78787841,4168.60606019,3082.66666636,4322.12121169,2608.72727247,4946.99999951,3012.6060603,4255.66666624,49.4545454496,4445.75757531,1945.21212102,4186.1212117,1314.66666654,4866.63636315,2097.69696949,4490.06060561,4026.42424202,42.0,42.0,?
2017-08-01 19:34:03.867232,4561.66666621,2691.15151488,4157.78787837,0.0,3883.72727234,3498.90909056,3846.63636325,45.3333333288,4256.18181776,4038.78787838,4479.24242379,3766.78787841,4169.1212117,3082.66666636,4322.6363632,2608.72727247,4934.12121163,3012.6060603,4264.93939351,49.4545454496,4442.15151471,1945.21212102,4187.66666625,1314.66666654,4863.03030254,2097.69696949,4489.03030258,4026.42424202,42.0,42.0,?
2017-08-01 19:34:03.875219,4563.72727227,2691.15151488,4163.45454504,0.0,3892.99999961,3498.90909056,3822.93939356,45.3333333288,4252.57575715,4038.78787838,4479.75757531,3766.78787841,4174.78787837,3082.66666636,4327.78787836,2608.72727247,4936.18181769,3012.6060603,4261.33333291,49.4545454496,4442.66666622,1945.21212102,4186.63636322,1314.66666654,4862.51515103,2097.69696949,4491.09090864,4026.42424202,42.0,42.0,?
2017-08-01 19:34:03.882624,4555.48484803,2691.15151488,4159.33333292,0.0,3900.72727234,3498.90909056,3829.12121174,45.3333333288,4253.09090867,4038.78787838,4475.63636319,3766.78787841,4180.45454504,3082.66666636,4333.45454502,2608.72727247,4956.78787829,3012.6060603,4260.81818139,49.4545454496,4442.66666622,1945.21212102,4186.63636322,1314.66666654,4859.42424194,2097.69696949,4489.03030258,4026.42424202,42.0,42.0,?
2017-08-01 19:34:03.890480,4560.63636318,2691.15151488,4160.87878746,0.0,3895.57575719,3498.90909056,3857.45454507,45.3333333288,4253.09090867,4038.78787838,4474.60606016,3766.78787841,4180.96969655,3082.66666636,4329.84848442,2608.72727247,4945.96969648,3012.6060603,4262.36363594,49.4545454496,4443.69696925,1945.21212102,4189.21212079,1314.66666654,4866.63636315,2097.69696949,4490.06060561,4026.42424202,42.0,42.0,?
2017-08-01 19:34:03.900005,4560.12121167,2691.15151488,4160.36363595,0.0,3885.27272688,3498.90909056,3878.57575719,45.3333333288,4246.90909048,4038.78787838,4474.60606016,3766.78787841,4174.27272686,3082.66666636,4321.60606017,2608.72727247,4923.30302981,3012.6060603,4258.24242382,49.4545454496,4442.66666622,1945.21212102,4188.18181776,1314.66666654,4867.15151466,2097.69696949,4486.45454501,4026.42424202,42.0,42.0,?
2017-08-01 19:34:03.906706,4555.99999954,2691.15151488,4158.8181814,0.0,3883.21212082,3498.90909056,3867.24242386,45.3333333288,4243.81818139,4038.78787838,4466.87878743,3766.78787841,4162.93939352,3082.66666636,4314.39393896,2608.72727247,4929.48484799,3012.6060603,4244.84848442,49.4545454496,4442.66666622,1945.21212102,4184.06060564,1314.66666654,4863.54545406,2097.69696949,4482.8484844,4026.42424202,42.0,42.0,?
2017-08-01 19:34:03.914159,4554.96969651,2732.36363609,4159.84848443,0.0,3880.12121173,3498.90909056,3860.54545416,45.3333333288,4249.48484806,4038.78787838,4464.81818137,3766.78787841,4159.84848443,3082.66666636,4312.3333329,2608.72727247,4944.42424193,3012.6060603,4238.66666624,49.4545454496,4439.06060562,1945.21212102,4183.03030261,1314.66666654,4862.51515103,2097.69696949,4484.39393895,4026.42424202,42.0,42.0,?
2017-08-01 19:34:03.921129,4550.33333288,2732.36363609,4159.84848443,4.1212121208,3875.99999961,3498.90909056,3863.12121173,45.3333333288,4255.66666624,4038.78787838,4472.03030258,3766.78787841,4164.48484807,3082.66666636,4317.99999957,2608.72727247,4946.99999951,3012.6060603,4253.09090867,49.4545454496,4436.48484804,1945.21212102,4186.63636322,1314.66666654,4860.96969648,2097.69696949,4484.39393895,4026.42424202,42.0,42.0,?
2017-08-01 19:34:03.929793,4557.54545409,2732.36363609,4161.90909049,4.1212121208,3874.45454507,3498.90909056,3847.15151477,45.3333333288,4252.06060564,4038.78787838,4472.03030258,3766.78787841,4167.06060564,3082.66666636,4322.12121169,2608.72727247,4941.33333284,3012.6060603,4258.75757533,49.4545454496,4443.69696925,1945.21212102,4187.15151473,1314.66666654,4866.12121163,2097.69696949,4486.45454501,4026.42424202,42.0,42.0,?
2017-08-01 19:34:03.937169,4555.48484803,2732.36363609,4159.33333292,4.1212121208,3873.93939355,3498.90909056,3827.06060568,45.3333333288,4248.96969654,4038.78787838,4467.90909046,3766.78787841,4164.48484807,3082.66666636,4317.99999957,2608.72727247,4930.51515102,3012.6060603,4244.33333291,49.4545454496,4439.06060562,1945.21212102,4182.5151511,1314.66666654,4861.484848,2097.69696949,4484.39393895,4026.42424202,42.0,42.0,?
2017-08-01 19:34:03.946758,4551.36363591,2732.36363609,4161.39393898,4.1212121208,3871.87878749,3498.90909056,3835.30302992,131.878787866,4250.51515109,4038.78787838,4469.45454501,3766.78787841,4163.45454504,3082.66666636,4315.93939351,2608.72727247,4921.24242375,3012.6060603,4238.15151473,49.4545454496,4428.2424238,1945.21212102,4182.5151511,1314.66666654,4858.90909042,2097.69696949,4483.36363592,4026.42424202,42.0,42.0,?
2017-08-01 19:34:03.953974,4559.09090864,2732.36363609,4162.42424201,4.1212121208,3873.93939355,3498.90909056,3863.12121173,131.878787866,4251.03030261,4047.03030263,4472.5454541,3766.78787841,4168.60606019,3082.66666636,4320.06060563,2608.72727247,4923.30302981,3012.6060603,4245.36363594,49.4545454496,4435.45454501,1945.21212102,4186.1212117,1314.66666654,4865.60606012,2097.69696949,4488.51515107,4026.42424202,42.0,42.0,?
2017-08-01 19:34:03.960145,4556.51515106,2732.36363609,4156.24242383,4.1212121208,3880.63636325,3498.90909056,3857.96969658,131.878787866,4251.54545412,4047.03030263,4475.12121167,3770.90909053,4176.84848443,3082.66666636,4328.30302987,2608.72727247,4945.96969648,3012.6060603,4254.63636321,49.4545454496,4447.81818137,1945.21212102,4187.66666625,1314.66666654,4863.54545406,2097.69696949,4490.57575713,4026.42424202,42.0,42.0,?
2017-08-01 19:34:03.969895,4559.09090864,2732.36363609,4160.36363595,4.1212121208,3878.57575719,3498.90909056,3830.66666628,131.878787866,4247.424242,4047.03030263,4474.09090864,3770.90909053,4174.27272686,3086.78787848,4328.81818139,2608.72727247,4958.84848435,3012.6060603,4257.21212079,49.4545454496,4447.81818137,1945.21212102,4187.15151473,1314.66666654,4865.60606012,2097.69696949,4492.63636319,4026.42424202,42.0,42.0,?
2017-08-01 19:34:03.977000,4560.12121167,2732.36363609,4160.36363595,4.1212121208,3869.30302992,3498.90909056,3831.69696931,131.878787866,4241.75757533,4047.03030263,4463.27272683,3770.90909053,4162.93939352,3086.78787848,4316.45454502,2604.60606035,4946.48484799,3012.6060603,4244.33333291,49.4545454496,4435.96969653,1945.21212102,4184.57575716,1314.66666654,4863.03030254,2097.69696949,4487.99999955,4026.42424202,42.0,42.0,?
2017-08-01 19:34:03.986941,4554.96969651,2732.36363609,4157.27272686,4.1212121208,3870.84848446,3498.90909056,3849.72727234,131.878787866,4240.21212079,4047.03030263,4454.51515107,3770.90909053,4157.27272686,3086.78787848,4307.69696927,2604.60606035,4931.54545405,2996.12121182,4234.03030261,49.4545454496,4435.96969653,1945.21212102,4184.06060564,1314.66666654,4858.39393891,2097.69696949,4486.45454501,4026.42424202,42.0,42.0,?
2017-08-01 19:34:03.992638,4558.0606056,2732.36363609,4161.39393898,4.1212121208,3884.24242385,3498.90909056,3858.4848481,131.878787866,4239.18181776,4047.03030263,4452.96969652,3770.90909053,4151.09090868,3086.78787848,4306.66666624,2604.60606035,4919.6969692,2996.12121182,4245.87878745,49.4545454496,4447.81818137,1945.21212102,4188.69696928,1314.66666654,4861.484848,2097.69696949,4495.21212076,4026.42424202,42.0,42.0,?
2017-08-01 19:34:04.004825,4556.51515106,2732.36363609,4160.36363595,4.1212121208,3892.99999961,3498.90909056,3853.33333295,131.878787866,4240.7272723,4047.03030263,4453.48484804,3770.90909053,4149.03030262,3086.78787848,4309.75757533,2604.60606035,4927.93939345,2996.12121182,4260.81818139,49.4545454496,4447.81818137,1949.33333314,4189.72727231,1314.66666654,4859.42424194,2097.69696949,4493.1515147,4026.42424202,42.0,42.0,?
