Timestamp,F3 Value,F3 Quality,FC5 Value,FC5 Quality,F7 Value,F7 Quality,T7 Value,T7 Quality,P7 Value,P7 Quality,O1 Value,O1 Quality,O2 Value,O2 Quality,P8 Value,P8 Quality,T8 Value,T8 Quality,F8 Value,F8 Quality,AF4 Value,AF4 Quality,FC6 Value,FC6 Quality,F4 Value,F4 Quality,AF3 Value,AF3 Quality,X Value,Y Value,Z Value
2017-07-31 18:10:04.682168,4469.45454501,0,4206.21212079,0,3852.30302992,0,3915.15151476,0,4214.45454503,0,4355.09090866,0,4155.2121208,0,4256.18181776,0,4934.12121163,0,4125.33333292,0,4350.45454502,0,4377.2424238,0,4754.84848437,1244.60606048,4458.12121168,0,42.0,42.0,?
2017-07-31 18:10:04.685603,4491.60606016,0,4221.66666624,0,3859.51515113,0,3916.18181779,0,4279.36363594,0,4417.42424198,0,4175.30302989,0,4348.39393896,0,4986.66666617,0,4208.78787837,0,4385.99999956,0,4206.21212079,0,4765.15151467,1244.60606048,4472.5454541,0,42.0,42.0,?
2017-07-31 18:10:04.688951,4493.1515147,0,4224.24242382,0,3859.51515113,0,3924.42424203,0,4279.36363594,0,4422.57575713,0,4171.69696928,0,4345.30302987,0,4978.93939344,0,4203.63636322,0,4387.03030259,0,4207.75757534,0,4768.75757528,1244.60606048,4474.60606016,0,42.0,42.0,?
2017-07-31 18:10:04.691652,4494.18181773,0,4223.7272723,0,3858.99999961,0,3908.96969658,0,4280.39393897,0,4424.12121168,0,4172.21212079,0,4348.39393896,0,4982.54545405,0,4201.57575716,0,4389.09090865,0,4205.69696928,0,4766.18181771,1244.60606048,4474.09090864,0,42.0,42.0,?
2017-07-31 18:10:04.694670,4485.42424198,0,4221.66666624,0,3854.36363598,0,3907.42424203,0,4281.93939351,0,4421.5454541,0,4169.1212117,0,4348.39393896,0,4980.48484799,0,4192.8181814,0,4380.3333329,0,4205.18181776,0,4758.96969649,1244.60606048,4464.81818137,0,42.0,42.0,?
2017-07-31 18:10:04.697713,4475.12121167,0,4222.18181776,0,3851.27272689,0,3923.90909052,0,4283.99999957,0,4421.5454541,0,4161.39393898,0,4342.72727229,0,4953.6969692,0,4182.5151511,0,4367.45454502,0,4205.18181776,0,4749.69696922,1244.60606048,4461.72727228,0,42.0,42.0,?
2017-07-31 18:10:04.700612,4475.63636319,0,4223.21212079,0,3852.81818143,0,3917.21212082,0,4277.30302988,0,4422.06060562,0,4160.36363595,0,4337.06060563,0,4925.87878739,0,4178.90909049,0,4367.96969653,0,4204.66666625,0,4748.66666619,1244.60606048,4469.96969652,0,42.0,42.0,?
2017-07-31 18:10:04.703640,4478.21212076,0,4222.18181776,0,3855.39393901,0,3902.27272688,0,4273.18181775,0,4419.99999956,0,4161.39393898,0,4334.99999957,0,4917.12121163,0,4176.33333292,0,4373.6363632,0,4203.1212117,0,4751.75757528,1244.60606048,4490.57575713,0,42.0,42.0,?
2017-07-31 18:10:04.708184,4482.33333289,0,4221.66666624,0,3862.60606022,0,3914.63636324,0,4283.99999957,0,4421.5454541,0,4156.75757534,0,4333.96969654,0,4919.18181769,0,4176.33333292,0,4374.66666623,0,4203.63636322,0,4748.15151468,1244.60606048,4532.81818136,0,42.0,42.0,?
2017-07-31 18:10:04.710231,4487.48484804,0,4226.30302988,0,3869.30302992,0,3925.45454506,0,4291.21212078,0,4423.09090865,0,4152.12121171,0,4330.87878745,0,4918.15151466,0,4180.96969655,0,4377.75757532,0,4209.8181814,0,4755.36363589,1244.60606048,4570.42424197,0,42.0,42.0,?
2017-07-31 18:10:04.714400,4488.51515107,3750.30302993,4225.78787837,0,3870.84848446,0,3921.33333294,0,4289.66666624,0,4416.90909047,0,4151.09090868,0,4331.90909048,0,4914.54545405,0,4182.5151511,0,4380.84848441,0,4209.8181814,0,4760.51515104,1244.60606048,4577.63636318,0,42.0,42.0,?
2017-07-31 18:10:04.717917,4485.93939349,3750.30302993,4224.75757534,8.2424242416,3872.90909052,0,3918.75757537,0,4283.48484806,0,4410.72727229,0,4149.54545413,0,4332.42424199,0,4910.93939345,0,4177.87878746,0,4380.3333329,0,4204.15151473,0,4756.90909043,1244.60606048,4579.69696924,0,42.0,42.0,?
2017-07-31 18:10:04.720669,4486.45454501,3750.30302993,4223.7272723,8.2424242416,3871.36363598,0,3911.03030264,0,4270.09090866,0,4407.12121168,0,4147.48484807,0,4329.3333329,0,4913.51515102,0,4171.69696928,0,4381.36363593,0,4205.18181776,0,4756.39393892,1244.60606048,4584.84848439,3540.12121177,42.0,42.0,?
2017-07-31 18:10:04.723781,4483.87878743,3750.30302993,4219.60606018,8.2424242416,3861.06060567,247.272727248,3905.87878749,0,4259.78787836,0,4401.45454501,0,4143.36363595,0,4323.66666623,0,4912.48484799,0,4164.99999958,0,4376.21212077,0,4208.27272685,0,4752.2727268,1244.60606048,4574.03030257,3540.12121177,42.0,42.0,?
2017-07-31 18:10:04.729246,4475.63636319,3750.30302993,4223.21212079,8.2424242416,3850.24242386,247.272727248,3907.93939355,350.303030268,4263.39393897,0,4399.90909047,0,4140.27272686,0,4322.6363632,0,4904.24242375,0,4161.39393898,0,4367.96969653,0,4207.24242382,0,4749.69696922,1244.60606048,4563.21212076,3540.12121177,42.0,42.0,?
2017-07-31 18:10:04.736732,4472.03030258,3750.30302993,4226.30302988,8.2424242416,3847.66666628,247.272727248,3902.7878784,350.303030268,4270.60606018,148.363636349,4403.51515107,0,4141.30302989,0,4330.87878745,0,4903.72727224,0,4163.45454504,0,4366.9393935,0,4205.18181776,0,4749.69696922,1244.60606048,4566.81818136,3540.12121177,42.0,42.0,?
2017-07-31 18:10:04.745663,4476.66666622,3750.30302993,4221.15151473,8.2424242416,3849.72727234,247.272727248,3901.75757537,350.303030268,4268.54545412,148.363636349,4404.54545411,2909.57575728,4140.78787837,0,4336.0303026,0,4905.27272678,0,4166.03030261,0,4373.12121168,0,4206.72727231,0,4751.24242377,1244.60606048,4570.42424197,3540.12121177,42.0,42.0,?
2017-07-31 18:10:04.752729,4483.36363592,3750.30302993,4223.21212079,8.2424242416,3854.36363598,247.272727248,3906.393939,350.303030268,4264.424242,148.363636349,4402.99999956,2909.57575728,4139.24242383,3177.45454514,4331.90909048,0,4901.66666618,0,4168.60606019,0,4378.27272683,0,4209.30302988,0,4758.96969649,1244.60606048,4576.09090863,3540.12121177,42.0,42.0,?
2017-07-31 18:10:04.760105,4487.99999955,3750.30302993,4227.33333291,8.2424242416,3856.42424204,247.272727248,3889.90909052,350.303030268,4268.0303026,148.363636349,4400.42424198,2909.57575728,4142.84848443,3177.45454514,4331.39393896,2728.24242397,4901.15151466,0,4174.27272686,0,4378.27272683,0,4206.21212079,0,4756.39393892,1244.60606048,4580.21212075,3540.12121177,42.0,42.0,?
2017-07-31 18:10:04.769422,4488.51515107,3750.30302993,4226.8181814,8.2424242416,3851.7878784,247.272727248,3872.90909052,350.303030268,4272.15151472,148.363636349,4398.87878744,2909.57575728,4142.33333292,3177.45454514,4336.54545411,2728.24242397,4895.99999951,3062.06060575,4172.72727231,0,4378.27272683,0,4206.21212079,0,4752.78787831,1244.60606048,4577.12121166,3540.12121177,42.0,42.0,?
2017-07-31 18:10:04.775728,4489.03030258,3750.30302993,4224.24242382,8.2424242416,3853.33333295,247.272727248,3897.63636325,350.303030268,4268.54545412,148.363636349,4402.99999956,2909.57575728,4142.33333292,3177.45454514,4337.06060563,2728.24242397,4887.24242375,3062.06060575,4172.21212079,45.3333333288,4383.42424199,0,4208.27272685,0,4758.45454498,1244.60606048,4579.18181772,3540.12121177,42.0,42.0,?
2017-07-31 18:10:04.783651,4491.09090864,3750.30302993,4224.75757534,8.2424242416,3860.54545416,247.272727248,3929.57575718,350.303030268,4271.12121169,148.363636349,4407.6363632,2909.57575728,4147.48484807,3177.45454514,4337.06060563,2728.24242397,4892.3939389,3062.06060575,4177.36363595,45.3333333288,4386.51515108,3412.36363602,4206.72727231,0,4759.48484801,1244.60606048,4584.84848439,3540.12121177,42.0,42.0,?
2017-07-31 18:10:04.791337,4486.96969652,3750.30302993,4226.30302988,8.2424242416,3859.51515113,247.272727248,3911.54545415,350.303030268,4277.81818139,148.363636349,4401.45454501,2909.57575728,4147.48484807,3177.45454514,4348.39393896,2728.24242397,4908.36363587,3062.06060575,4174.27272686,45.3333333288,4376.21212077,3412.36363602,4207.75757534,490.424242375,4755.8787874,939.636363542,4575.0606056,3540.12121177,42.0,42.0,?
2017-07-31 18:10:04.799541,4486.96969652,3750.30302993,4226.30302988,8.2424242416,3859.51515113,247.272727248,3911.54545415,350.303030268,4277.81818139,148.363636349,4401.45454501,2909.57575728,4147.48484807,3177.45454514,4348.39393896,2728.24242397,4908.36363587,3062.06060575,4174.27272686,45.3333333288,4376.21212077,3412.36363602,4207.75757534,490.424242375,4755.8787874,939.636363542,4575.0606056,3540.12121177,42.0,42.0,?
2017-07-31 18:10:04.807495,4483.87878743,3750.30302993,4224.24242382,8.2424242416,3858.99999961,247.272727248,3908.45454506,350.303030268,4275.24242381,148.363636349,4400.9393935,2909.57575728,4150.57575716,3177.45454514,4350.45454502,2728.24242397,4903.21212072,3062.06060575,4176.84848443,45.3333333288,4379.30302987,3412.36363602,4207.24242382,490.424242375,4755.36363589,939.636363542,4577.12121166,3540.12121177,42.0,42.0,?
2017-07-31 18:10:04.819934,4482.8484844,3750.30302993,4222.69696927,8.2424242416,3857.96969658,247.272727248,3903.30302991,350.303030268,4271.63636321,148.363636349,4400.9393935,2909.57575728,4152.63636322,3177.45454514,4346.3333329,2728.24242397,4900.12121163,3062.06060575,4178.39393898,45.3333333288,4380.84848441,3424.72727238,4205.18181776,490.424242375,4754.84848437,939.636363542,4579.18181772,3540.12121177,42.0,42.0,?
2017-07-31 18:10:04.826654,4484.39393895,3750.30302993,4224.24242382,8.2424242416,3858.99999961,247.272727248,3901.75757537,350.303030268,4266.99999957,148.363636349,4401.96969653,2909.57575728,4157.27272686,3177.45454514,4348.90909047,2728.24242397,4906.30302981,3062.06060575,4175.30302989,45.3333333288,4376.21212077,3424.72727238,4205.69696928,482.181818134,4752.2727268,939.636363542,4576.09090863,3540.12121177,42.0,42.0,?
2017-07-31 18:10:04.830681,4484.39393895,3750.30302993,4229.90909049,8.2424242416,3858.99999961,247.272727248,3907.42424203,350.303030268,4272.15151472,148.363636349,4406.09090865,2909.57575728,4168.60606019,3177.45454514,4357.15151472,2728.24242397,4913.51515102,3062.06060575,4175.30302989,45.3333333288,4376.21212077,3424.72727238,4208.78787837,482.181818134,4756.39393892,939.636363542,4577.63636318,3540.12121177,42.0,42.0,?
2017-07-31 18:10:04.839728,4481.30302985,3750.30302993,4223.7272723,8.2424242416,3859.51515113,247.272727248,3906.90909052,350.303030268,4286.57575715,148.363636349,4412.27272683,2909.57575728,4175.8181814,3177.45454514,4362.81818138,2728.24242397,4916.60606011,3062.06060575,4177.87878746,45.3333333288,4376.72727229,3424.72727238,4207.75757534,482.181818134,4756.39393892,939.636363542,4578.66666621,3540.12121177,42.0,42.0,?
2017-07-31 18:10:04.845686,4481.30302985,3750.30302993,4220.63636321,8.2424242416,3858.4848481,247.272727248,3901.24242385,350.303030268,4288.12121169,148.363636349,4415.36363592,2909.57575728,4170.66666625,3177.45454514,4363.3333329,2728.24242397,4917.63636314,3062.06060575,4175.8181814,45.3333333288,4372.60606017,3424.72727238,4207.75757534,482.181818134,4753.30302983,939.636363542,4575.0606056,3540.12121177,42.0,42.0,?
2017-07-31 18:10:04.853851,4484.39393895,3750.30302993,4225.78787837,8.2424242416,3855.90909052,247.272727248,3904.33333294,350.303030268,4281.93939351,148.363636349,4416.39393895,2909.57575728,4162.93939352,3177.45454514,4358.69696926,2728.24242397,4916.0909086,3062.06060575,4173.75757534,45.3333333288,4374.15151471,3424.72727238,4208.27272685,482.181818134,4751.75757528,939.636363542,4572.99999954,3540.12121177,42.0,42.0,?
2017-07-31 18:10:04.862940,4490.06060561,3750.30302993,4224.75757534,8.2424242416,3857.96969658,247.272727248,3908.96969658,350.303030268,4282.96969654,148.363636349,4419.99999956,2909.57575728,4161.39393898,3177.45454514,4353.03030259,2728.24242397,4908.36363587,3062.06060575,4179.93939352,45.3333333288,4382.90909047,3424.72727238,4207.75757534,482.181818134,4753.30302983,939.636363542,4578.15151469,3540.12121177,42.0,42.0,?
2017-07-31 18:10:04.870138,4501.39393894,3750.30302993,4226.8181814,8.2424242416,3864.15151477,247.272727248,3906.393939,350.303030268,4285.0303026,148.363636349,4421.5454541,2909.57575728,4163.45454504,3177.45454514,4356.12121169,2728.24242397,4907.33333284,3062.06060575,4187.15151473,45.3333333288,4391.15151471,3424.72727238,4208.78787837,482.181818134,4767.72727225,939.636363542,4585.87878742,3540.12121177,42.0,42.0,?
2017-07-31 18:10:04.879204,4509.63636319,3750.30302993,4229.39393897,8.2424242416,3865.1818178,247.272727248,3905.36363597,350.303030268,4291.7272723,148.363636349,4419.48484804,2909.57575728,4167.57575716,3177.45454514,4363.3333329,2728.24242397,4917.63636314,3062.06060575,4190.24242382,45.3333333288,4394.2424238,3424.72727238,4208.27272685,482.181818134,4775.96969649,939.636363542,4588.454545,3540.12121177,42.0,42.0,?
2017-07-31 18:10:04.885332,4506.03030258,3750.30302993,4225.27272685,8.2424242416,3860.54545416,247.272727248,3907.42424203,350.303030268,4294.81818139,148.363636349,4415.87878744,2909.57575728,4172.72727231,3177.45454514,4366.42424199,2728.24242397,4923.30302981,3062.06060575,4191.78787837,45.3333333288,4394.2424238,3424.72727238,4208.27272685,482.181818134,4772.36363589,939.636363542,4588.454545,3540.12121177,42.0,42.0,?
2017-07-31 18:10:04.893219,4499.8484844,3750.30302993,4223.21212079,8.2424242416,3860.03030264,247.272727248,3910.51515112,350.303030268,4281.93939351,148.363636349,4411.75757532,2909.57575728,4172.21212079,3177.45454514,4365.39393896,2728.24242397,4921.75757527,3062.06060575,4189.72727231,45.3333333288,4393.72727229,3424.72727238,4210.84848443,482.181818134,4771.84848437,939.636363542,4595.15151469,3540.12121177,42.0,42.0,?
2017-07-31 18:10:04.901601,4502.42424197,3750.30302993,4224.24242382,8.2424242416,3865.1818178,247.272727248,3914.63636324,350.303030268,4275.24242381,148.363636349,4411.75757532,2909.57575728,4167.06060564,3177.45454514,4364.87878744,2728.24242397,4925.36363587,3062.06060575,4184.57575716,45.3333333288,4393.72727229,3424.72727238,4208.27272685,482.181818134,4769.2727268,939.636363542,4597.21212075,3540.12121177,42.0,42.0,?
2017-07-31 18:10:04.908798,4503.96969652,3750.30302993,4223.7272723,8.2424242416,3861.57575719,247.272727248,3909.99999961,350.303030268,4282.96969654,148.363636349,4411.2424238,2909.57575728,4166.03030261,3177.45454514,4364.36363593,2728.24242397,4929.99999951,3062.06060575,4181.48484807,45.3333333288,4395.27272683,3424.72727238,4206.21212079,482.181818134,4772.36363589,939.636363542,4589.48484803,3540.12121177,42.0,42.0,?
2017-07-31 18:10:04.918674,4506.03030258,3750.30302993,4223.21212079,8.2424242416,3855.90909052,247.272727248,3903.81818143,350.303030268,4287.60606018,148.363636349,4408.15151471,2909.57575728,4171.69696928,3177.45454514,4366.9393935,2728.24242397,4929.99999951,3062.06060575,4182.5151511,45.3333333288,4397.84848441,3424.72727238,4207.24242382,482.181818134,4780.09090861,939.636363542,4597.21212075,3540.12121177,42.0,42.0,?
2017-07-31 18:10:04.924278,4508.09090864,3750.30302993,4224.24242382,8.2424242416,3857.45454507,247.272727248,3903.30302991,350.303030268,4286.57575715,148.363636349,4409.18181774,2909.57575728,4173.24242383,3177.45454514,4366.9393935,2728.24242397,4926.90909042,3062.06060575,4179.93939352,45.3333333288,4394.75757532,3424.72727238,4206.72727231,482.181818134,4775.45454498,939.636363542,4596.69696924,3540.12121177,42.0,42.0,?
2017-07-31 18:10:04.933099,4499.33333288,3750.30302993,4225.78787837,8.2424242416,3853.33333295,247.272727248,3900.21212082,350.303030268,4287.09090866,148.363636349,4411.75757532,2909.57575728,4167.06060564,3177.45454514,4359.21212078,2728.24242397,4917.12121163,3062.06060575,4164.99999958,45.3333333288,4382.90909047,3424.72727238,4205.18181776,482.181818134,4764.12121164,939.636363542,4535.90909046,3540.12121177,42.0,42.0,?
2017-07-31 18:10:04.940038,4487.99999955,3750.30302993,4222.69696927,8.2424242416,3847.66666628,247.272727248,3899.18181779,350.303030268,4293.27272684,148.363636349,4411.2424238,2909.57575728,4167.57575716,3177.45454514,4358.18181775,2728.24242397,4912.99999951,3062.06060575,4153.66666625,45.3333333288,4374.15151471,3424.72727238,4203.1212117,482.181818134,4755.8787874,939.636363542,4468.93939349,3540.12121177,42.0,42.0,?
2017-07-31 18:10:04.949870,4488.51515107,3750.30302993,4222.18181776,8.2424242416,3849.21212083,247.272727248,3898.66666628,350.303030268,4298.93939351,148.363636349,4409.69696926,2909.57575728,4166.54545413,3177.45454514,4358.69696926,2728.24242397,4912.99999951,3062.06060575,4153.66666625,45.3333333288,4377.2424238,3424.72727238,4204.15151473,482.181818134,4758.45454498,939.636363542,4462.2424238,3540.12121177,42.0,42.0,?
2017-07-31 18:10:04.956719,4497.78787834,3750.30302993,4224.24242382,8.2424242416,3854.36363598,247.272727248,3902.27272688,350.303030268,4295.84848442,148.363636349,4411.75757532,2909.57575728,4160.36363595,3177.45454514,4352.51515108,2728.24242397,4910.93939345,3062.06060575,4160.36363595,45.3333333288,4387.03030259,3424.72727238,4206.21212079,482.181818134,4764.63636316,939.636363542,4484.39393895,3540.12121177,42.0,42.0,?
2017-07-31 18:10:04.963213,4512.72727228,3750.30302993,4221.66666624,8.2424242416,3867.24242386,247.272727248,3917.72727234,350.303030268,4298.93939351,148.363636349,4421.03030259,2909.57575728,4170.66666625,3177.45454514,4362.30302987,2728.24242397,4921.75757527,3062.06060575,4171.69696928,45.3333333288,4400.42424198,3424.72727238,4208.78787837,482.181818134,4770.30302983,939.636363542,4495.21212076,3540.12121177,42.0,42.0,?
2017-07-31 18:10:04.975312,4526.12121167,3750.30302993,4227.33333291,8.2424242416,3880.12121173,247.272727248,3933.6969693,350.303030268,4315.42424199,148.363636349,4430.81818138,2909.57575728,4189.72727231,3177.45454514,4382.39393896,2728.24242397,4939.78787829,3062.06060575,4187.15151473,45.3333333288,4413.81818138,3424.72727238,4213.93939352,482.181818134,4787.81818134,939.636363542,4500.87878743,3540.12121177,42.0,42.0,?
2017-07-31 18:10:04.979051,4529.21212076,3750.30302993,4229.39393897,8.2424242416,3885.27272688,247.272727248,3940.393939,350.303030268,4332.42424199,148.363636349,4431.84848441,2909.57575728,4195.39393897,3177.45454514,4392.18181774,2728.24242397,4948.54545405,3062.06060575,4202.09090867,45.3333333288,4419.48484804,3424.72727238,4212.39393897,482.181818134,4792.45454498,939.636363542,4507.57575713,3540.12121177,42.0,42.0,?
2017-07-31 18:10:04.986697,4527.66666621,3750.30302993,4226.8181814,8.2424242416,3883.21212082,247.272727248,3942.96969658,350.303030268,4333.96969654,148.363636349,4427.72727228,2909.57575728,4195.39393897,3177.45454514,4394.75757532,2728.24242397,4949.57575708,3062.06060575,4204.66666625,45.3333333288,4421.03030259,3424.72727238,4208.78787837,482.181818134,4785.75757528,939.636363542,4512.72727228,3540.12121177,42.0,42.0,?
2017-07-31 18:10:04.996644,4525.60606015,3750.30302993,4236.60606018,8.2424242416,3879.0909087,247.272727248,3940.393939,350.303030268,4323.66666623,148.363636349,4432.87878744,2909.57575728,4198.48484806,3177.45454514,4394.2424238,2728.24242397,4951.63636314,3062.06060575,4195.39393897,45.3333333288,4418.96969653,3424.72727238,4213.93939352,482.181818134,4794.51515104,939.636363542,4515.81818137,3540.12121177,42.0,42.0,?
2017-07-31 18:10:05.003624,4535.90909046,3750.30302993,4204.66666625,8.2424242416,3893.51515113,247.272727248,3939.87878748,350.303030268,4332.42424199,148.363636349,4440.60606016,2909.57575728,4210.33333291,3177.45454514,4401.96969653,2728.24242397,4969.15151465,3062.06060575,4208.27272685,45.3333333288,4424.12121168,3424.72727238,4204.66666625,482.181818134,4776.48484801,939.636363542,4521.48484803,3540.12121177,42.0,42.0,?
2017-07-31 18:10:05.010297,4536.42424197,3750.30302993,4228.36363594,8.2424242416,3886.30302991,247.272727248,3921.33333294,350.303030268,4330.87878745,148.363636349,4436.99999956,2909.57575728,4203.63636322,3177.45454514,4391.15151471,2728.24242397,4957.30302981,3062.06060575,4203.1212117,45.3333333288,4426.18181774,3424.72727238,4208.78787837,482.181818134,4791.93939346,939.636363542,4512.72727228,3540.12121177,42.0,42.0,?
2017-07-31 18:10:05.017651,4518.39393894,3750.30302993,4277.81818139,8.2424242416,3857.45454507,247.272727248,3907.93939355,350.303030268,4315.93939351,148.363636349,4432.87878744,2909.57575728,4182.5151511,3177.45454514,4365.90909047,2728.24242397,4921.75757527,3062.06060575,4173.75757534,45.3333333288,4410.72727229,3424.72727238,4223.21212079,482.181818134,4817.1818177,939.636363542,4499.8484844,3540.12121177,42.0,42.0,?
2017-07-31 18:10:05.027768,4545.18181773,3750.30302993,4130.48484807,8.2424242416,3908.45454506,247.272727248,3972.33333294,350.303030268,4362.81818138,148.363636349,4440.60606016,2909.57575728,4218.57575715,3177.45454514,4410.72727229,2728.24242397,4973.27272678,3062.06060575,4220.63636321,45.3333333288,4420.51515107,3424.72727238,4181.48484807,482.181818134,4705.39393892,939.636363542,4531.27272682,3540.12121177,42.0,42.0,?
2017-07-31 18:10:05.034527,4551.36363591,3750.30302993,4145.42424201,8.2424242416,3919.27272688,247.272727248,3978.51515112,350.303030268,4359.21212078,148.363636349,4436.48484804,2909.57575728,4226.30302988,3177.45454514,4423.09090865,2728.24242397,4988.72727223,3062.06060575,4231.45454503,45.3333333288,4434.42424198,3424.72727238,4188.18181776,482.181818134,4726.51515104,939.636363542,4532.81818136,3540.12121177,42.0,42.0,?
2017-07-31 18:10:05.041706,4517.87878743,3750.30302993,4313.87878745,8.2424242416,3857.45454507,247.272727248,3905.36363597,350.303030268,4294.30302987,148.363636349,4424.12121168,2909.57575728,4173.75757534,3177.45454514,4364.36363593,2728.24242397,4923.81818133,3062.06060575,4173.24242383,45.3333333288,4416.90909047,3424.72727238,4237.63636321,482.181818134,4854.7878783,939.636363542,4502.42424197,3540.12121177,42.0,42.0,?
2017-07-31 18:10:05.051552,4539.51515106,3750.30302993,4223.7272723,8.2424242416,3882.69696931,247.272727248,3921.84848446,350.303030268,4321.09090866,148.363636349,4425.15151471,2909.57575728,4174.78787837,3177.45454514,4376.21212077,2728.24242397,4949.57575708,3062.06060575,4195.39393897,45.3333333288,4420.51515107,3424.72727238,4207.75757534,482.181818134,4783.69696922,939.636363542,4527.66666621,3540.12121177,42.0,42.0,?
2017-07-31 18:10:05.057001,4550.33333288,3750.30302993,4185.60606019,8.2424242416,3898.66666628,247.272727248,3946.06060567,350.303030268,4344.78787835,148.363636349,4426.18181774,2909.57575728,4185.60606019,3177.45454514,4391.15151471,2728.24242397,4974.81818132,3062.06060575,4202.60606019,45.3333333288,4426.18181774,3424.72727238,4195.90909049,482.181818134,4752.2727268,939.636363542,4535.90909046,3540.12121177,42.0,42.0,?
2017-07-31 18:10:05.065237,4530.7575753,3750.30302993,4244.84848442,8.2424242416,3872.39393901,247.272727248,3932.66666627,350.303030268,4321.60606017,148.363636349,4427.72727228,2909.57575728,4183.54545413,3177.45454514,4374.66666623,2728.24242397,4949.57575708,3062.06060575,4172.72727231,45.3333333288,4410.72727229,3424.72727238,4212.90909049,482.181818134,4789.8787874,939.636363542,4513.24242379,3540.12121177,42.0,42.0,?
2017-07-31 18:10:05.074933,4531.27272682,3750.30302993,4217.03030261,8.2424242416,3873.93939355,247.272727248,3934.21212082,350.303030268,4323.15151472,148.363636349,4428.2424238,2909.57575728,4199.5151511,3177.45454514,4384.45454502,2728.24242397,4954.72727223,3062.06060575,4178.39393898,45.3333333288,4406.09090865,3424.72727238,4204.15151473,482.181818134,4763.60606013,939.636363542,4512.72727228,3540.12121177,42.0,42.0,?
2017-07-31 18:10:05.081128,4529.72727227,3750.30302993,4214.96969655,8.2424242416,3871.87878749,247.272727248,3931.12121173,350.303030268,4324.69696926,148.363636349,4429.27272683,2909.57575728,4203.63636322,3177.45454514,4391.15151471,2728.24242397,4961.42424193,3062.06060575,4176.33333292,45.3333333288,4408.15151471,3424.72727238,4204.66666625,482.181818134,4763.60606013,939.636363542,4514.27272682,3540.12121177,42.0,42.0,?
2017-07-31 18:10:05.090071,4531.78787833,3750.30302993,4218.06060564,8.2424242416,3875.4848481,247.272727248,3932.15151476,350.303030268,4329.84848442,148.363636349,4435.45454501,2909.57575728,4209.30302988,3177.45454514,4394.75757532,2728.24242397,4966.57575708,3062.06060575,4175.8181814,45.3333333288,4412.27272683,3424.72727238,4207.75757534,482.181818134,4768.24242377,939.636363542,4517.36363591,3540.12121177,42.0,42.0,?
2017-07-31 18:10:05.096145,4533.8484844,3750.30302993,4220.1212117,8.2424242416,3878.06060567,247.272727248,3926.99999961,350.303030268,4332.42424199,148.363636349,4436.99999956,2909.57575728,4210.84848443,3177.45454514,4391.15151471,2728.24242397,4967.09090859,3062.06060575,4179.42424201,45.3333333288,4412.78787835,3424.72727238,4207.24242382,482.181818134,4765.66666619,939.636363542,4518.39393894,3540.12121177,42.0,42.0,?
2017-07-31 18:10:05.104154,4531.78787833,3750.30302993,4219.60606018,8.2424242416,3871.87878749,247.272727248,3923.393939,350.303030268,4328.30302987,148.363636349,4434.9393935,2909.57575728,4202.09090867,3177.45454514,4385.48484805,2728.24242397,4963.48484799,3062.06060575,4173.75757534,45.3333333288,4409.18181774,3424.72727238,4204.66666625,482.181818134,4764.63636316,939.636363542,4513.24242379,3540.12121177,42.0,42.0,?
2017-07-31 18:10:05.113334,4531.27272682,3750.30302993,4214.96969655,8.2424242416,3871.87878749,247.272727248,3929.06060567,350.303030268,4327.78787836,148.363636349,4432.36363592,2909.57575728,4203.63636322,3177.45454514,4392.69696926,2728.24242397,4965.54545405,3062.06060575,4168.60606019,45.3333333288,4410.21212077,3424.72727238,4205.69696928,482.181818134,4769.78787831,939.636363542,4511.18181773,3540.12121177,42.0,42.0,?
2017-07-31 18:10:05.119667,4527.66666621,3750.30302993,4219.09090867,8.2424242416,3873.93939355,247.272727248,3933.18181779,350.303030268,4329.3333329,148.363636349,4432.87878744,2909.57575728,4209.30302988,3177.45454514,4397.33333289,2728.24242397,4966.57575708,3062.06060575,4169.1212117,45.3333333288,4406.60606017,3424.72727238,4208.78787837,482.181818134,4772.8787874,939.636363542,4510.66666622,3540.12121177,42.0,42.0,?
2017-07-31 18:10:05.129635,4524.57575712,3750.30302993,4216.51515109,8.2424242416,3870.33333295,247.272727248,3934.72727233,350.303030268,4327.78787836,148.363636349,4431.84848441,2909.57575728,4199.5151511,3177.45454514,4390.12121168,2728.24242397,4963.48484799,3062.06060575,4172.21212079,45.3333333288,4398.36363592,3424.72727238,4205.69696928,482.181818134,4764.63636316,939.636363542,4509.63636319,3540.12121177,42.0,42.0,?
2017-07-31 18:10:05.138372,4527.66666621,3750.30302993,4217.54545412,8.2424242416,3866.21212083,247.272727248,3924.93939355,350.303030268,4317.99999957,148.363636349,4427.72727228,2909.57575728,4190.24242382,3177.45454514,4381.36363593,2728.24242397,4957.30302981,3062.06060575,4169.63636322,45.3333333288,4402.48484804,3424.72727238,4206.72727231,482.181818134,4767.72727225,939.636363542,4508.60606016,3540.12121177,42.0,42.0,?
2017-07-31 18:10:05.143623,4537.454545,3750.30302993,4219.09090867,8.2424242416,3869.30302992,247.272727248,3921.84848446,350.303030268,4313.87878745,148.363636349,4428.75757531,2909.57575728,4196.93939352,3177.45454514,4387.03030259,2728.24242397,4957.30302981,3062.06060575,4166.54545413,45.3333333288,4412.78787835,3424.72727238,4207.24242382,482.181818134,4775.45454498,939.636363542,4514.27272682,3540.12121177,42.0,42.0,?
2017-07-31 18:10:05.152596,4539.51515106,3750.30302993,4218.06060564,8.2424242416,3870.33333295,247.272727248,3928.03030264,350.303030268,4319.0303026,148.363636349,4434.9393935,2909.57575728,4200.03030261,3177.45454514,4393.72727229,2728.24242397,4963.9999995,3062.06060575,4166.54545413,45.3333333288,4414.84848441,3424.72727238,4206.72727231,482.181818134,4780.60606013,939.636363542,4521.48484803,3540.12121177,42.0,42.0,?
2017-07-31 18:10:05.158731,4530.24242379,3750.30302993,4215.99999958,8.2424242416,3866.21212083,247.272727248,3908.45454506,350.303030268,4321.60606017,148.363636349,4433.90909047,2909.57575728,4196.93939352,3177.45454514,4391.15151471,2728.24242397,4964.51515102,3062.06060575,4167.06060564,45.3333333288,4408.66666623,3424.72727238,4207.24242382,482.181818134,4777.51515104,939.636363542,4518.90909046,3540.12121177,42.0,42.0,?
2017-07-31 18:10:05.167204,4523.03030258,3750.30302993,4214.45454503,8.2424242416,3863.63636325,247.272727248,3896.60606022,350.303030268,4320.57575714,148.363636349,4425.66666622,2909.57575728,4200.54545413,3177.45454514,4391.66666623,2728.24242397,4958.33333284,3062.06060575,4164.48484807,45.3333333288,4402.99999956,3424.72727238,4207.24242382,482.181818134,4769.78787831,939.636363542,4516.33333288,3540.12121177,42.0,42.0,?
2017-07-31 18:10:05.176386,4521.99999955,3750.30302993,4219.09090867,8.2424242416,3861.57575719,247.272727248,3925.45454506,350.303030268,4318.51515108,148.363636349,4426.18181774,2909.57575728,4208.27272685,3177.45454514,4396.81818138,2728.24242397,4959.36363587,3062.06060575,4160.36363595,45.3333333288,4403.51515107,3424.72727238,4207.24242382,482.181818134,4774.42424195,939.636363542,4519.93939349,3540.12121177,42.0,42.0,?
2017-07-31 18:10:05.184861,4523.03030258,3750.30302993,4219.09090867,8.2424242416,3863.12121173,247.272727248,3942.96969658,350.303030268,4317.48484805,148.363636349,4428.2424238,2909.57575728,4206.72727231,3177.45454514,4395.78787835,2728.24242397,4969.66666617,3062.06060575,4160.36363595,45.3333333288,4405.06060562,3424.72727238,4206.21212079,482.181818134,4777.51515104,939.636363542,4521.48484803,3540.12121177,42.0,42.0,?
2017-07-31 18:10:05.190440,4526.63636318,3750.30302993,4217.54545412,8.2424242416,3863.12121173,247.272727248,3923.393939,350.303030268,4316.45454502,148.363636349,4424.63636319,2909.57575728,4195.39393897,3177.45454514,4387.03030259,2728.24242397,4972.75757526,3062.06060575,4161.39393898,45.3333333288,4402.99999956,3424.72727238,4205.69696928,482.181818134,4770.81818134,939.636363542,4519.93939349,3540.12121177,42.0,42.0,?
2017-07-31 18:10:05.199203,4529.21212076,3750.30302993,4219.60606018,8.2424242416,3858.4848481,247.272727248,3917.21212082,350.303030268,4314.90909048,148.363636349,4422.06060562,2909.57575728,4185.09090867,3177.45454514,4380.3333329,2728.24242397,4963.48484799,3062.06060575,4158.30302989,45.3333333288,4399.39393895,3424.72727238,4205.18181776,482.181818134,4764.12121164,939.636363542,4517.87878743,3540.12121177,42.0,42.0,?
2017-07-31 18:10:05.208134,4524.06060561,3742.06060569,4217.54545412,8.2424242416,3856.42424204,247.272727248,3926.99999961,350.303030268,4319.54545411,148.363636349,4422.06060562,2909.57575728,4183.03030261,3177.45454514,4380.84848441,2728.24242397,4959.36363587,3062.06060575,4159.84848443,45.3333333288,4398.36363592,3424.72727238,4205.69696928,482.181818134,4762.06060558,939.636363542,4515.81818137,3540.12121177,42.0,42.0,?
2017-07-31 18:10:05.214789,4518.90909046,3742.06060569,4217.54545412,8.2424242416,3856.93939355,247.272727248,3917.72727234,350.303030268,4322.6363632,148.363636349,4425.15151471,2909.57575728,4185.09090867,3177.45454514,4381.36363593,2728.24242397,4964.51515102,3062.06060575,4163.45454504,45.3333333288,4397.33333289,3424.72727238,4208.27272685,482.181818134,4765.66666619,939.636363542,4514.27272682,3540.12121177,42.0,42.0,?
2017-07-31 18:10:05.224256,4519.42424197,3742.06060569,4218.06060564,8.2424242416,3858.4848481,247.272727248,3916.18181779,350.303030268,4317.99999957,148.363636349,4423.60606016,2909.57575728,4186.1212117,3177.45454514,4381.36363593,2728.24242397,4966.57575708,3062.06060575,4161.90909049,45.3333333288,4394.75757532,3424.72727238,4208.27272685,482.181818134,4764.12121164,939.636363542,4513.75757531,3523.63636328,42.0,42.0,?
2017-07-31 18:10:05.229330,4521.99999955,3742.06060569,4215.99999958,8.2424242416,3862.0909087,251.393939369,3921.84848446,350.303030268,4309.75757533,148.363636349,4418.45454501,2909.57575728,4191.27272685,3177.45454514,4385.99999956,2728.24242397,4965.54545405,3062.06060575,4160.36363595,45.3333333288,4397.84848441,3424.72727238,4206.72727231,482.181818134,4763.09090861,939.636363542,4517.87878743,3523.63636328,42.0,42.0,?
2017-07-31 18:10:05.236638,4524.57575712,3742.06060569,4214.96969655,8.2424242416,3861.57575719,251.393939369,3916.69696931,362.66666663,4311.30302987,148.363636349,4419.99999956,2909.57575728,4195.39393897,3177.45454514,4388.06060562,2728.24242397,4961.93939344,3062.06060575,4158.30302989,45.3333333288,4397.33333289,3424.72727238,4206.72727231,482.181818134,4765.66666619,939.636363542,4521.99999955,3523.63636328,42.0,42.0,?
2017-07-31 18:10:05.246318,4519.93939349,3742.06060569,4215.48484806,8.2424242416,3856.42424204,251.393939369,3920.81818143,362.66666663,4321.60606017,148.363636349,4424.12121168,2909.57575728,4196.424242,3177.45454514,4390.6363632,2728.24242397,4962.96969647,3062.06060575,4151.09090868,45.3333333288,4390.6363632,3424.72727238,4205.69696928,482.181818134,4766.18181771,939.636363542,4516.8484844,3523.63636328,42.0,42.0,?
2017-07-31 18:10:05.253724,4516.33333288,3742.06060569,4218.57575715,8.2424242416,3853.84848446,251.393939369,3920.81818143,362.66666663,4322.12121169,148.363636349,4424.12121168,2901.33333304,4196.93939352,3177.45454514,4396.81818138,2728.24242397,4973.78787829,3062.06060575,4147.48484807,45.3333333288,4389.60606017,3424.72727238,4205.18181776,482.181818134,4767.72727225,939.636363542,4511.69696925,3523.63636328,42.0,42.0,?
2017-07-31 18:10:05.261243,4522.51515106,3742.06060569,4217.54545412,8.2424242416,3857.96969658,251.393939369,3903.81818143,362.66666663,4314.90909048,148.363636349,4424.63636319,2901.33333304,4196.424242,3169.2121209,4396.81818138,2728.24242397,4980.48484799,3062.06060575,4150.57575716,45.3333333288,4393.21212077,3424.72727238,4206.72727231,482.181818134,4764.63636316,939.636363542,4515.81818137,3523.63636328,42.0,42.0,?
2017-07-31 18:10:05.269081,4523.03030258,3742.06060569,4214.45454503,8.2424242416,3863.63636325,251.393939369,3906.90909052,362.66666663,4314.39393896,148.363636349,4425.66666622,2901.33333304,4194.36363594,3169.2121209,4387.03030259,2732.36363609,4970.18181768,3062.06060575,4149.03030262,45.3333333288,4392.69696926,3424.72727238,4205.18181776,482.181818134,4763.60606013,939.636363542,4516.8484844,3523.63636328,42.0,42.0,?
2017-07-31 18:10:05.276482,4516.8484844,3742.06060569,4217.03030261,8.2424242416,3865.69696931,251.393939369,3933.6969693,362.66666663,4320.06060563,148.363636349,4424.63636319,2901.33333304,4191.27272685,3169.2121209,4381.36363593,2732.36363609,4959.36363587,3053.81818151,4140.27272686,45.3333333288,4388.06060562,3424.72727238,4204.15151473,482.181818134,4766.69696922,939.636363542,4511.69696925,3523.63636328,42.0,42.0,?
2017-07-31 18:10:05.284178,4517.87878743,3742.06060569,4217.54545412,8.2424242416,3869.30302992,251.393939369,3937.30302991,362.66666663,4324.69696926,148.363636349,4422.06060562,2901.33333304,4188.18181776,3169.2121209,4381.36363593,2732.36363609,4965.54545405,3053.81818151,4139.75757534,32.9696969664,4389.09090865,3424.72727238,4205.18181776,482.181818134,4762.5757571,939.636363542,4515.30302985,3523.63636328,42.0,42.0,?
2017-07-31 18:10:05.292131,4520.96969652,3742.06060569,4218.06060564,8.2424242416,3869.81818143,251.393939369,3926.99999961,362.66666663,4320.06060563,148.363636349,4419.99999956,2901.33333304,4184.57575716,3169.2121209,4376.72727229,2732.36363609,4966.57575708,3053.81818151,4141.8181814,32.9696969664,4392.18181774,3412.36363602,4203.1212117,482.181818134,4761.54545407,939.636363542,4521.48484803,3523.63636328,42.0,42.0,?
2017-07-31 18:10:05.303502,4521.48484803,3742.06060569,4218.57575715,8.2424242416,3866.21212083,251.393939369,3927.51515112,362.66666663,4310.78787836,148.363636349,4420.51515107,2901.33333304,4184.57575716,3169.2121209,4377.2424238,2732.36363609,4960.90909041,3053.81818151,4139.75757534,32.9696969664,4390.12121168,3412.36363602,4202.60606019,465.69696965,4764.12121164,939.636363542,4518.39393894,3523.63636328,42.0,42.0,?
2017-07-31 18:10:05.308389,4523.03030258,3742.06060569,4215.99999958,8.2424242416,3867.24242386,251.393939369,3908.96969658,362.66666663,4309.75757533,148.363636349,4422.06060562,2901.33333304,4190.24242382,3169.2121209,4384.45454502,2732.36363609,4967.09090859,3053.81818151,4143.36363595,32.9696969664,4392.69696926,3412.36363602,4206.21212079,465.69696965,4763.60606013,939.636363542,4518.39393894,3523.63636328,42.0,42.0,?
2017-07-31 18:10:05.315522,4521.48484803,3742.06060569,4221.15151473,8.2424242416,3867.75757537,251.393939369,3895.06060567,362.66666663,4313.87878745,148.363636349,4416.39393895,2901.33333304,4190.24242382,3169.2121209,4383.9393935,2732.36363609,4974.30302981,3053.81818151,4149.03030262,37.0909090872,4398.36363592,3412.36363602,4207.24242382,465.69696965,4764.12121164,939.636363542,4525.60606015,3523.63636328,42.0,42.0,?
2017-07-31 18:10:05.323404,4523.03030258,3742.06060569,4220.1212117,8.2424242416,3867.75757537,251.393939369,3923.90909052,362.66666663,4313.36363593,148.363636349,4413.30302986,2901.33333304,4188.18181776,3169.2121209,4384.45454502,2732.36363609,4973.27272678,3053.81818151,4150.57575716,37.0909090872,4398.87878744,3424.72727238,4204.15151473,465.69696965,4763.60606013,939.636363542,4530.24242379,3523.63636328,42.0,42.0,?
2017-07-31 18:10:05.334393,4531.78787833,3742.06060569,4214.45454503,8.2424242416,3871.36363598,251.393939369,3941.42424203,362.66666663,4309.24242381,148.363636349,4415.87878744,2901.33333304,4188.18181776,3169.2121209,4387.03030259,2732.36363609,4973.78787829,3053.81818151,4148.5151511,37.0909090872,4400.9393935,3424.72727238,4206.21212079,465.69696965,4768.24242377,939.636363542,4533.8484844,3523.63636328,42.0,42.0,?
2017-07-31 18:10:05.339852,4536.93939349,3742.06060569,4217.54545412,8.2424242416,3875.99999961,251.393939369,3925.96969658,362.66666663,4309.75757533,148.363636349,4417.42424198,2901.33333304,4188.69696928,3169.2121209,4386.51515108,2732.36363609,4978.42424193,3053.81818151,4149.54545413,37.0909090872,4406.09090865,3424.72727238,4208.78787837,465.69696965,4771.84848437,939.636363542,4540.03030258,3523.63636328,42.0,42.0,?
2017-07-31 18:10:05.347026,4536.42424197,3742.06060569,4219.09090867,8.2424242416,3877.54545416,251.393939369,3922.87878749,362.66666663,4315.93939351,148.363636349,4416.39393895,2901.33333304,4186.1212117,3169.2121209,4388.06060562,2732.36363609,4976.36363587,3053.81818151,4154.18181777,37.0909090872,4406.09090865,3424.72727238,4207.75757534,465.69696965,4767.72727225,939.636363542,4544.66666621,3523.63636328,42.0,42.0,?
2017-07-31 18:10:05.353665,4532.30302985,3742.06060569,4218.57575715,8.2424242416,3870.84848446,251.393939369,3926.48484809,362.66666663,4315.42424199,148.363636349,4412.27272683,2901.33333304,4177.87878746,3169.2121209,4386.51515108,2732.36363609,4965.54545405,3053.81818151,4147.48484807,37.0909090872,4400.42424198,3424.72727238,4207.24242382,465.69696965,4767.72727225,939.636363542,4537.96969652,3523.63636328,42.0,42.0,?
2017-07-31 18:10:05.361860,4527.1515147,3742.06060569,4217.54545412,8.2424242416,3866.72727234,251.393939369,3918.75757537,362.66666663,4309.75757533,148.363636349,4410.21212077,2901.33333304,4170.15151473,3169.2121209,4378.78787835,2732.36363609,4961.93939344,3053.81818151,4138.72727231,37.0909090872,4397.84848441,3424.72727238,4206.72727231,465.69696965,4765.15151467,939.636363542,4529.21212076,3523.63636328,42.0,42.0,?
2017-07-31 18:10:05.370772,4529.72727227,3742.06060569,4217.03030261,8.2424242416,3869.81818143,251.393939369,3923.393939,362.66666663,4309.24242381,148.363636349,4413.81818138,2901.33333304,4172.72727231,3169.2121209,4380.3333329,2732.36363609,4965.03030253,3053.81818151,4141.30302989,37.0909090872,4401.96969653,3424.72727238,4207.24242382,465.69696965,4766.69696922,939.636363542,4529.21212076,3523.63636328,42.0,42.0,?
2017-07-31 18:10:05.378191,4531.78787833,3742.06060569,4217.54545412,8.2424242416,3868.7878784,251.393939369,3929.06060567,362.66666663,4312.3333329,148.363636349,4416.39393895,2901.33333304,4179.42424201,3169.2121209,4387.03030259,2732.36363609,4963.48484799,3053.81818151,4145.42424201,37.0909090872,4405.06060562,3424.72727238,4207.75757534,465.69696965,4769.78787831,939.636363542,4531.78787833,3523.63636328,42.0,42.0,?
2017-07-31 18:10:05.387869,4526.63636318,3742.06060569,4217.03030261,8.2424242416,3861.57575719,251.393939369,3923.393939,362.66666663,4316.45454502,148.363636349,4411.2424238,2901.33333304,4176.84848443,3169.2121209,4383.42424199,2732.36363609,4962.96969647,3053.81818151,4140.78787837,37.0909090872,4400.9393935,3424.72727238,4206.21212079,465.69696965,4764.12121164,939.636363542,4528.18181773,3523.63636328,42.0,42.0,?
2017-07-31 18:10:05.394503,4518.90909046,3742.06060569,4218.06060564,8.2424242416,3856.42424204,251.393939369,3918.75757537,362.66666663,4312.3333329,148.363636349,4404.54545411,2901.33333304,4167.57575716,3169.2121209,4372.09090865,2732.36363609,4962.45454496,3053.81818151,4133.06060565,37.0909090872,4395.78787835,3424.72727238,4205.18181776,465.69696965,4762.5757571,939.636363542,4522.51515106,3523.63636328,42.0,42.0,?
2017-07-31 18:10:05.401116,4518.90909046,3742.06060569,4216.51515109,8.2424242416,3857.96969658,251.393939369,3910.51515112,362.66666663,4304.09090866,148.363636349,4407.12121168,2901.33333304,4168.09090867,3169.2121209,4371.57575714,2732.36363609,4959.87878738,3053.81818151,4132.03030262,37.0909090872,4392.69696926,3424.72727238,4205.18181776,465.69696965,4760.51515104,939.636363542,4521.48484803,3523.63636328,42.0,42.0,?
2017-07-31 18:10:05.412290,4522.51515106,3742.06060569,4217.03030261,8.2424242416,3858.4848481,251.393939369,3910.51515112,362.66666663,4304.09090866,148.363636349,4412.78787835,2901.33333304,4175.8181814,3169.2121209,4378.27272683,2732.36363609,4960.3939389,3053.81818151,4135.63636322,37.0909090872,4394.75757532,3424.72727238,4207.24242382,465.69696965,4757.93939346,939.636363542,4523.03030258,3523.63636328,42.0,42.0,?
2017-07-31 18:10:05.418737,4518.39393894,3742.06060569,4219.09090867,8.2424242416,3854.87878749,251.393939369,3920.30302991,362.66666663,4308.21212078,148.363636349,4412.27272683,2901.33333304,4178.90909049,3169.2121209,4376.72727229,2732.36363609,4959.36363587,3053.81818151,4138.72727231,37.0909090872,4395.27272683,3424.72727238,4208.27272685,465.69696965,4757.42424195,939.636363542,4520.454545,3523.63636328,42.0,42.0,?
2017-07-31 18:10:05.425472,4516.33333288,3742.06060569,4215.99999958,8.2424242416,3856.42424204,251.393939369,3919.7878784,362.66666663,4315.93939351,148.363636349,4411.2424238,2901.33333304,4178.90909049,3169.2121209,4372.09090865,2732.36363609,4957.81818132,3053.81818151,4150.57575716,37.0909090872,4394.75757532,3424.72727238,4206.72727231,465.69696965,4759.99999952,939.636363542,4518.90909046,3523.63636328,42.0,42.0,?
2017-07-31 18:10:05.432623,4525.09090864,3742.06060569,4218.06060564,8.2424242416,3860.03030264,251.393939369,3913.60606021,362.66666663,4319.0303026,148.363636349,4413.81818138,2901.33333304,4176.84848443,3169.2121209,4372.09090865,2732.36363609,4960.3939389,3053.81818151,4168.60606019,37.0909090872,4397.84848441,3424.72727238,4206.72727231,465.69696965,4765.66666619,939.636363542,4521.48484803,3523.63636328,42.0,42.0,?
2017-07-31 18:10:05.440875,4532.81818136,3742.06060569,4220.1212117,8.2424242416,3859.51515113,251.393939369,3919.27272688,362.66666663,4314.39393896,148.363636349,4412.78787835,2901.33333304,4173.75757534,3169.2121209,4375.18181774,2732.36363609,4956.78787829,3053.81818151,4184.57575716,37.0909090872,4397.84848441,3424.72727238,4205.18181776,465.69696965,4762.5757571,939.636363542,4520.454545,3523.63636328,42.0,42.0,?
2017-07-31 18:10:05.448736,4529.72727227,3742.06060569,4218.06060564,8.2424242416,3857.96969658,251.393939369,3925.45454506,362.66666663,4306.66666624,148.363636349,4412.27272683,2901.33333304,4175.30302989,3169.2121209,4375.69696926,2732.36363609,4945.45454496,3053.81818151,4194.87878746,37.0909090872,4394.75757532,3424.72727238,4204.15151473,465.69696965,4760.51515104,939.636363542,4514.27272682,3523.63636328,42.0,42.0,?
2017-07-31 18:10:05.456781,4524.57575712,3742.06060569,4217.54545412,8.2424242416,3854.87878749,251.393939369,3921.84848446,362.66666663,4308.21212078,148.363636349,4416.39393895,2901.33333304,4173.24242383,3169.2121209,4371.57575714,2732.36363609,4945.96969648,3053.81818151,4199.5151511,37.0909090872,4390.12121168,3424.72727238,4205.18181776,465.69696965,4763.09090861,939.636363542,4503.96969652,3523.63636328,42.0,42.0,?
2017-07-31 18:10:05.464352,4521.48484803,3742.06060569,4215.99999958,8.2424242416,3853.84848446,251.393939369,3922.87878749,362.66666663,4313.87878745,148.363636349,4415.87878744,2901.33333304,4169.1212117,3169.2121209,4371.06060562,2732.36363609,4954.72727223,3053.81818151,4203.63636322,37.0909090872,4389.09090865,3424.72727238,4205.69696928,465.69696965,4762.5757571,939.636363542,4496.24242379,3523.63636328,42.0,42.0,?
2017-07-31 18:10:05.472351,4517.36363591,3742.06060569,4216.51515109,8.2424242416,3855.39393901,251.393939369,3916.69696931,362.66666663,4311.81818139,148.363636349,4411.2424238,2901.33333304,4172.72727231,3169.2121209,4375.69696926,2732.36363609,4949.57575708,3053.81818151,4210.33333291,37.0909090872,4391.15151471,3424.72727238,4206.21212079,465.69696965,4764.12121164,939.636363542,4492.63636319,3523.63636328,42.0,42.0,?
2017-07-31 18:10:05.479713,4516.8484844,3742.06060569,4219.60606018,8.2424242416,3851.7878784,251.393939369,3900.72727234,362.66666663,4306.66666624,148.363636349,4410.21212077,2901.33333304,4179.93939352,3169.2121209,4377.75757532,2732.36363609,4943.90909041,3053.81818151,4212.39393897,37.0909090872,4389.60606017,3424.72727238,4205.69696928,465.69696965,4761.54545407,939.636363542,4479.75757531,3523.63636328,42.0,42.0,?
2017-07-31 18:10:05.487392,4517.87878743,3742.06060569,4219.09090867,8.2424242416,3846.12121174,251.393939369,3902.7878784,362.66666663,4309.75757533,148.363636349,4413.81818138,2901.33333304,4184.57575716,3169.2121209,4377.75757532,2732.36363609,4952.66666617,3053.81818151,4211.36363594,37.0909090872,4388.06060562,3424.72727238,4207.24242382,465.69696965,4763.60606013,939.636363542,4481.81818137,3523.63636328,42.0,42.0,?
2017-07-31 18:10:05.496348,4518.39393894,3742.06060569,4217.54545412,8.2424242416,3851.7878784,251.393939369,3924.42424203,362.66666663,4319.0303026,148.363636349,4417.42424198,2901.33333304,4189.72727231,3169.2121209,4383.9393935,2732.36363609,4956.27272678,3053.81818151,4215.48484806,37.0909090872,4391.15151471,3424.72727238,4209.30302988,465.69696965,4766.18181771,939.636363542,4528.18181773,3523.63636328,42.0,42.0,?
2017-07-31 18:10:05.502937,4522.51515106,3742.06060569,4217.54545412,8.2424242416,3864.66666628,251.393939369,3932.66666627,362.66666663,4317.99999957,148.363636349,4417.42424198,2901.33333304,4194.36363594,3169.2121209,4388.06060562,2732.36363609,4955.75757526,3053.81818151,4221.15151473,37.0909090872,4395.27272683,3424.72727238,4208.27272685,465.69696965,4764.12121164,939.636363542,4573.51515106,3523.63636328,42.0,42.0,?
2017-07-31 18:10:05.510706,4523.54545409,3742.06060569,4220.1212117,8.2424242416,3866.72727234,251.393939369,3922.87878749,362.66666663,4309.75757533,148.363636349,4416.39393895,2901.33333304,4192.30302988,3169.2121209,4380.84848441,2732.36363609,4960.3939389,3053.81818151,4220.63636321,37.0909090872,4395.78787835,3424.72727238,4208.27272685,465.69696965,4769.2727268,939.636363542,4574.54545409,3523.63636328,42.0,42.0,?
2017-07-31 18:10:05.520408,4517.36363591,3742.06060569,4223.21212079,8.2424242416,3863.63636325,251.393939369,3924.93939355,362.66666663,4311.30302987,148.363636349,4414.33333289,2901.33333304,4189.21212079,3169.2121209,4379.30302987,2732.36363609,4958.84848435,3053.81818151,4220.1212117,37.0909090872,4392.18181774,3424.72727238,4205.18181776,465.69696965,4766.69696922,939.636363542,4565.27272682,3523.63636328,42.0,42.0,?
2017-07-31 18:10:05.526957,4513.24242379,3742.06060569,4221.66666624,8.2424242416,3866.72727234,251.393939369,3927.51515112,362.66666663,4313.87878745,148.363636349,4410.21212077,2901.33333304,4189.21212079,3169.2121209,4383.9393935,2732.36363609,4954.72727223,3053.81818151,4218.06060564,37.0909090872,4390.6363632,3424.72727238,4204.15151473,465.69696965,4762.5757571,939.636363542,4568.36363591,3523.63636328,42.0,42.0,?
2017-07-31 18:10:05.537776,4516.33333288,3742.06060569,4218.57575715,8.2424242416,3869.81818143,251.393939369,3918.75757537,362.66666663,4309.75757533,148.363636349,4410.72727229,2901.33333304,4185.09090867,3169.2121209,4380.3333329,2732.36363609,4956.27272678,3053.81818151,4211.36363594,37.0909090872,4390.12121168,3424.72727238,4206.21212079,465.69696965,4764.63636316,939.636363542,4568.87878742,3523.63636328,42.0,42.0,?
2017-07-31 18:10:05.542378,4519.42424197,3742.06060569,4219.09090867,8.2424242416,3870.84848446,251.393939369,3921.33333294,362.66666663,4313.36363593,148.363636349,4414.33333289,2901.33333304,4179.93939352,3169.2121209,4375.69696926,2732.36363609,4959.36363587,3053.81818151,4210.84848443,37.0909090872,4390.12121168,3424.72727238,4206.21212079,465.69696965,4764.12121164,939.636363542,4568.87878742,3523.63636328,42.0,42.0,?
2017-07-31 18:10:05.551511,4519.93939349,3742.06060569,4223.21212079,8.2424242416,3869.81818143,251.393939369,3928.54545415,362.66666663,4321.60606017,148.363636349,4410.72727229,2901.33333304,4179.93939352,3169.2121209,4378.27272683,2732.36363609,4956.78787829,3053.81818151,4211.36363594,37.0909090872,4392.69696926,3424.72727238,4208.78787837,465.69696965,4767.72727225,939.636363542,4574.03030257,3523.63636328,42.0,42.0,?
2017-07-31 18:10:05.557688,4520.96969652,3742.06060569,4221.15151473,8.2424242416,3873.42424204,251.393939369,3917.21212082,362.66666663,4319.0303026,148.363636349,4407.6363632,2901.33333304,4185.60606019,3169.2121209,4381.36363593,2732.36363609,4954.72727223,3053.81818151,4209.30302988,37.0909090872,4395.27272683,3424.72727238,4205.69696928,465.69696965,4766.69696922,939.636363542,4576.60606015,3523.63636328,42.0,42.0,?
2017-07-31 18:10:05.565620,4527.66666621,3742.06060569,4218.06060564,8.2424242416,3880.12121173,251.393939369,3905.36363597,362.66666663,4312.84848442,148.363636349,4414.84848441,2901.33333304,4189.72727231,3169.2121209,4382.39393896,2732.36363609,4955.75757526,3053.81818151,4211.36363594,37.0909090872,4397.33333289,3424.72727238,4205.18181776,465.69696965,4768.75757528,939.636363542,4579.69696924,3523.63636328,42.0,42.0,?
2017-07-31 18:10:05.573612,4531.78787833,3742.06060569,4220.63636321,8.2424242416,3879.60606022,251.393939369,3920.30302991,362.66666663,4309.75757533,148.363636349,4417.42424198,2901.33333304,4190.75757534,3169.2121209,4380.3333329,2732.36363609,4951.63636314,3053.81818151,4212.39393897,37.0909090872,4398.87878744,3424.72727238,4210.33333291,465.69696965,4776.48484801,939.636363542,4582.78787833,3523.63636328,42.0,42.0,?
2017-07-31 18:10:05.585974,4529.21212076,3742.06060569,4218.06060564,8.2424242416,3878.06060567,251.393939369,3936.78787839,362.66666663,4309.75757533,148.363636349,4412.27272683,2901.33333304,4190.75757534,3169.2121209,4376.72727229,2732.36363609,4950.60606011,3053.81818151,4208.78787837,37.0909090872,4398.36363592,3424.72727238,4208.27272685,465.69696965,4773.90909043,939.636363542,4583.30302984,3523.63636328,42.0,42.0,?
2017-07-31 18:10:05.591105,4529.21212076,3742.06060569,4218.57575715,8.2424242416,3879.0909087,251.393939369,3925.96969658,362.66666663,4311.81818139,148.363636349,4414.33333289,2901.33333304,4189.72727231,3169.2121209,4371.57575714,2732.36363609,4951.12121163,3053.81818151,4209.8181814,37.0909090872,4399.90909047,3424.72727238,4207.75757534,465.69696965,4778.54545407,939.636363542,4583.81818136,3523.63636328,42.0,42.0,?
2017-07-31 18:10:05.598533,4528.18181773,3742.06060569,4219.60606018,8.2424242416,3877.03030264,251.393939369,3912.06060567,362.66666663,4312.84848442,148.363636349,4419.99999956,2901.33333304,4186.1212117,3169.2121209,4366.9393935,2732.36363609,4946.99999951,3053.81818151,4211.36363594,37.0909090872,4400.42424198,3424.72727238,4208.78787837,465.69696965,4780.60606013,939.636363542,4580.72727227,3523.63636328,42.0,42.0,?
2017-07-31 18:10:05.605390,4522.51515106,3742.06060569,4217.03030261,8.2424242416,3872.39393901,251.393939369,3918.24242385,362.66666663,4310.27272684,148.363636349,4418.96969653,2901.33333304,4184.57575716,3169.2121209,4370.03030259,2732.36363609,4946.99999951,3053.81818151,4208.78787837,37.0909090872,4397.84848441,3424.72727238,4208.78787837,465.69696965,4775.45454498,939.636363542,4577.63636318,3523.63636328,42.0,42.0,?
2017-07-31 18:10:05.611640,4526.12121167,3742.06060569,4217.03030261,8.2424242416,3873.42424204,251.393939369,3926.48484809,362.66666663,4310.78787836,148.363636349,4421.03030259,2901.33333304,4188.69696928,3169.2121209,4376.72727229,2732.36363609,4951.12121163,3053.81818151,4206.21212079,37.0909090872,4397.84848441,3424.72727238,4209.30302988,465.69696965,4779.06060558,939.636363542,4584.33333287,3523.63636328,42.0,42.0,?
2017-07-31 18:10:05.619732,4529.72727227,3742.06060569,4218.06060564,8.2424242416,3875.99999961,251.393939369,3918.24242385,362.66666663,4319.0303026,148.363636349,4426.69696925,2901.33333304,4191.27272685,3169.2121209,4375.69696926,2732.36363609,4950.0909086,3053.81818151,4202.09090867,37.0909090872,4395.78787835,3424.72727238,4208.78787837,465.69696965,4778.03030255,939.636363542,4584.84848439,3523.63636328,42.0,42.0,?
2017-07-31 18:10:05.628088,4522.51515106,3742.06060569,4219.60606018,8.2424242416,3869.81818143,251.393939369,3906.90909052,362.66666663,4315.42424199,148.363636349,4426.18181774,2901.33333304,4193.33333291,3169.2121209,4372.60606017,2732.36363609,4947.51515102,3053.81818151,4194.87878746,37.0909090872,4390.6363632,3424.72727238,4208.27272685,465.69696965,4773.90909043,939.636363542,4572.99999954,3523.63636328,42.0,42.0,?
2017-07-31 18:10:05.636086,4516.33333288,3742.06060569,4219.60606018,8.2424242416,3863.12121173,251.393939369,3907.93939355,362.66666663,4308.7272723,148.363636349,4424.63636319,2901.33333304,4201.57575716,3169.2121209,4377.2424238,2732.36363609,4953.18181769,3053.81818151,4194.36363594,37.0909090872,4387.54545411,3424.72727238,4207.24242382,465.69696965,4773.90909043,939.636363542,4566.81818136,3523.63636328,42.0,42.0,?
2017-07-31 18:10:05.645215,4516.8484844,3742.06060569,4217.54545412,8.2424242416,3867.24242386,251.393939369,3918.24242385,362.66666663,4315.93939351,148.363636349,4428.2424238,2901.33333304,4209.30302988,3169.2121209,4385.48484805,2732.36363609,4955.24242375,3053.81818151,4196.424242,37.0909090872,4389.09090865,3424.72727238,4207.24242382,465.69696965,4775.45454498,939.636363542,4571.96969651,3523.63636328,42.0,42.0,?
2017-07-31 18:10:05.652369,4518.39393894,3742.06060569,4220.1212117,8.2424242416,3873.93939355,251.393939369,3925.96969658,362.66666663,4323.15151472,148.363636349,4429.27272683,2901.33333304,4204.66666625,3169.2121209,4385.99999956,2732.36363609,4955.24242375,3053.81818151,4194.36363594,37.0909090872,4394.2424238,3424.72727238,4210.84848443,465.69696965,4779.06060558,939.636363542,4577.12121166,3523.63636328,42.0,42.0,?
2017-07-31 18:10:05.660413,4525.09090864,3742.06060569,4219.60606018,8.2424242416,3878.57575719,251.393939369,3924.93939355,362.66666663,4324.18181775,148.363636349,4428.75757531,2901.33333304,4194.87878746,3169.2121209,4382.90909047,2732.36363609,4963.48484799,3053.81818151,4200.54545413,37.0909090872,4400.42424198,3424.72727238,4210.84848443,465.69696965,4778.54545407,939.636363542,4584.33333287,3523.63636328,42.0,42.0,?
2017-07-31 18:10:05.668465,4531.27272682,3742.06060569,4218.06060564,8.2424242416,3883.72727234,251.393939369,3923.90909052,362.66666663,4321.60606017,148.363636349,4423.60606016,2901.33333304,4186.63636322,3169.2121209,4382.90909047,2732.36363609,4965.54545405,3053.81818151,4206.72727231,37.0909090872,4405.06060562,3424.72727238,4210.33333291,465.69696965,4780.60606013,939.636363542,4592.57575712,3523.63636328,42.0,42.0,?
2017-07-31 18:10:05.680202,4524.06060561,3742.06060569,4219.09090867,8.2424242416,3886.30302991,251.393939369,3926.99999961,362.66666663,4316.45454502,148.363636349,4418.45454501,2901.33333304,4180.45454504,3169.2121209,4379.30302987,2732.36363609,4958.33333284,3053.81818151,4200.54545413,37.0909090872,4400.42424198,3424.72727238,4208.78787837,465.69696965,4782.15151467,939.636363542,4592.0606056,3523.63636328,42.0,42.0,?
2017-07-31 18:10:05.684808,4519.93939349,3742.06060569,4219.60606018,8.2424242416,3882.18181779,251.393939369,3923.393939,362.66666663,4313.87878745,148.363636349,4419.99999956,2901.33333304,4184.57575716,3169.2121209,4378.78787835,2732.36363609,4962.96969647,3053.81818151,4200.03030261,37.0909090872,4395.27272683,3424.72727238,4207.75757534,465.69696965,4776.48484801,939.636363542,4586.39393894,3523.63636328,42.0,42.0,?
2017-07-31 18:10:05.691468,4526.12121167,3742.06060569,4220.63636321,8.2424242416,3877.03030264,251.393939369,3920.30302991,362.66666663,4317.48484805,148.363636349,4422.57575713,2901.33333304,4194.87878746,3169.2121209,4386.51515108,2732.36363609,4976.87878738,3053.81818151,4208.78787837,37.0909090872,4400.9393935,3424.72727238,4208.78787837,465.69696965,4781.63636316,939.636363542,4586.39393894,3523.63636328,42.0,42.0,?
2017-07-31 18:10:05.699035,4530.7575753,3742.06060569,4218.57575715,8.2424242416,3878.06060567,251.393939369,3932.15151476,362.66666663,4320.57575714,148.363636349,4426.18181774,2901.33333304,4203.1212117,3169.2121209,4392.69696926,2732.36363609,4977.3939389,3053.81818151,4210.84848443,37.0909090872,4406.60606017,3424.72727238,4208.27272685,465.69696965,4787.30302982,939.636363542,4589.99999954,3523.63636328,42.0,42.0,?
2017-07-31 18:10:05.708849,4527.66666621,3746.18181781,4217.54545412,8.2424242416,3875.4848481,251.393939369,3925.96969658,362.66666663,4319.0303026,148.363636349,4428.75757531,2901.33333304,4203.1212117,3169.2121209,4388.57575714,2732.36363609,4970.18181768,3053.81818151,4200.54545413,37.0909090872,4401.45454501,3424.72727238,4205.69696928,465.69696965,4783.1818177,939.636363542,4586.90909045,3523.63636328,42.0,42.0,?
2017-07-31 18:10:05.714205,4523.03030258,3746.18181781,4219.09090867,12.3636363624,3867.75757537,251.393939369,3904.33333294,362.66666663,4314.39393896,148.363636349,4425.66666622,2901.33333304,4201.06060564,3169.2121209,4382.39393896,2732.36363609,4961.93939344,3053.81818151,4191.78787837,37.0909090872,4394.2424238,3424.72727238,4205.69696928,465.69696965,4778.54545407,939.636363542,4582.78787833,3523.63636328,42.0,42.0,?
2017-07-31 18:10:05.723143,4519.42424197,3746.18181781,4216.51515109,12.3636363624,3862.0909087,251.393939369,3911.03030264,362.66666663,4310.78787836,148.363636349,4426.18181774,2901.33333304,4202.60606019,3169.2121209,4383.9393935,2732.36363609,4954.72727223,3053.81818151,4188.69696928,37.0909090872,4389.09090865,3424.72727238,4206.21212079,465.69696965,4773.39393892,939.636363542,4576.60606015,3511.27272692,42.0,42.0,?
2017-07-31 18:10:05.730413,4515.81818137,3746.18181781,4215.99999958,12.3636363624,3858.99999961,259.63636361,3929.06060567,362.66666663,4314.90909048,148.363636349,4433.90909047,2901.33333304,4201.57575716,3169.2121209,4383.42424199,2732.36363609,4956.27272678,3053.81818151,4187.15151473,37.0909090872,4383.9393935,3424.72727238,4206.72727231,465.69696965,4771.84848437,939.636363542,4568.87878742,3511.27272692,42.0,42.0,?
2017-07-31 18:10:05.738438,4515.81818137,3746.18181781,4219.60606018,12.3636363624,3858.4848481,259.63636361,3928.54545415,375.030302993,4315.93939351,148.363636349,4433.90909047,2901.33333304,4193.84848443,3169.2121209,4378.78787835,2732.36363609,4962.96969647,3053.81818151,4187.66666625,37.0909090872,4383.9393935,3424.72727238,4207.75757534,465.69696965,4775.45454498,939.636363542,4570.42424197,3511.27272692,42.0,42.0,?
2017-07-31 18:10:05.744667,4517.87878743,3746.18181781,4220.63636321,12.3636363624,3862.0909087,259.63636361,3918.75757537,375.030302993,4310.27272684,148.363636349,4426.18181774,2901.33333304,4190.75757534,3169.2121209,4375.69696926,2732.36363609,4961.42424193,3053.81818151,4188.18181776,37.0909090872,4387.54545411,3424.72727238,4207.24242382,465.69696965,4776.48484801,939.636363542,4576.09090863,3511.27272692,42.0,42.0,?
2017-07-31 18:10:05.752687,4515.30302985,3746.18181781,4217.03030261,12.3636363624,3862.60606022,259.63636361,3912.57575718,375.030302993,4311.81818139,148.363636349,4424.63636319,2905.45454516,4191.78787837,3169.2121209,4374.66666623,2732.36363609,4954.72727223,3053.81818151,4184.06060564,37.0909090872,4384.45454502,3424.72727238,4206.21212079,465.69696965,4774.93939346,939.636363542,4573.51515106,3511.27272692,42.0,42.0,?
2017-07-31 18:10:05.761225,4514.27272682,3746.18181781,4214.45454503,12.3636363624,3860.03030264,259.63636361,3913.0909087,375.030302993,4316.45454502,148.363636349,4426.69696925,2905.45454516,4191.78787837,3169.2121209,4374.66666623,2732.36363609,4954.72727223,3053.81818151,4179.93939352,37.0909090872,4377.75757532,3424.72727238,4205.69696928,465.69696965,4770.81818134,939.636363542,4566.30302985,3511.27272692,42.0,42.0,?
2017-07-31 18:10:05.768725,4519.93939349,3746.18181781,4217.03030261,12.3636363624,3856.93939355,259.63636361,3915.66666628,375.030302993,4309.24242381,148.363636349,4426.69696925,2905.45454516,4195.90909049,3169.2121209,4375.69696926,2724.12121185,4954.21212072,3053.81818151,4180.45454504,37.0909090872,4384.45454502,3424.72727238,4205.69696928,465.69696965,4773.39393892,939.636363542,4569.39393894,3511.27272692,42.0,42.0,?
2017-07-31 18:10:05.778411,4524.57575712,3746.18181781,4218.06060564,12.3636363624,3860.03030264,259.63636361,3914.63636324,375.030302993,4300.48484805,148.363636349,4426.69696925,2905.45454516,4201.06060564,3169.2121209,4380.84848441,2724.12121185,4952.15151466,3053.81818151,4183.54545413,37.0909090872,4395.27272683,3424.72727238,4207.75757534,465.69696965,4780.09090861,939.636363542,4577.63636318,3511.27272692,42.0,42.0,?
2017-07-31 18:10:05.785090,4527.1515147,3746.18181781,4217.54545412,12.3636363624,3869.81818143,259.63636361,3914.63636324,375.030302993,4306.15151472,148.363636349,4425.15151471,2905.45454516,4201.57575716,3169.2121209,4381.36363593,2724.12121185,4954.21212072,3053.81818151,4187.66666625,74.1818181744,4395.27272683,3424.72727238,4210.84848443,465.69696965,4782.66666619,939.636363542,4581.7575753,3511.27272692,42.0,42.0,?
2017-07-31 18:10:05.793684,4532.81818136,3746.18181781,4222.18181776,12.3636363624,3873.93939355,259.63636361,3914.12121173,375.030302993,4313.87878745,148.363636349,4423.09090865,2905.45454516,4197.45454503,3169.2121209,4377.2424238,2724.12121185,4958.84848435,3053.81818151,4188.18181776,74.1818181744,4392.69696926,3404.12121178,4211.36363594,465.69696965,4785.75757528,939.636363542,4583.30302984,3511.27272692,42.0,42.0,?
2017-07-31 18:10:05.799697,4531.27272682,3746.18181781,4224.24242382,12.3636363624,3868.7878784,259.63636361,3913.0909087,375.030302993,4311.30302987,148.363636349,4425.15151471,2905.45454516,4196.93939352,3169.2121209,4379.81818138,2724.12121185,4961.42424193,3053.81818151,4187.66666625,74.1818181744,4392.18181774,3404.12121178,4207.24242382,469.818181771,4785.24242376,939.636363542,4583.81818136,3511.27272692,42.0,42.0,?
2017-07-31 18:10:05.809382,4524.06060561,3746.18181781,4221.15151473,12.3636363624,3866.72727234,259.63636361,3913.60606021,375.030302993,4307.69696927,148.363636349,4428.2424238,2905.45454516,4203.1212117,3169.2121209,4383.9393935,2724.12121185,4954.72727223,3053.81818151,4190.75757534,74.1818181744,4393.72727229,3404.12121178,4206.72727231,469.818181771,4783.1818177,972.606060509,4583.30302984,3511.27272692,42.0,42.0,?
2017-07-31 18:10:05.815652,4523.54545409,3746.18181781,4221.66666624,12.3636363624,3868.27272689,259.63636361,3909.48484809,375.030302993,4316.45454502,148.363636349,4427.72727228,2905.45454516,4203.63636322,3169.2121209,4381.87878744,2724.12121185,4949.57575708,3053.81818151,4192.30302988,78.3030302952,4393.72727229,3404.12121178,4207.24242382,469.818181771,4783.1818177,972.606060509,4581.24242378,3511.27272692,42.0,42.0,?
2017-07-31 18:10:05.823736,4524.06060561,3746.18181781,4224.24242382,12.3636363624,3865.69696931,259.63636361,3914.12121173,375.030302993,4324.69696926,148.363636349,4427.21212077,2905.45454516,4195.90909049,3169.2121209,4379.81818138,2724.12121185,4952.15151466,3053.81818151,4188.69696928,78.3030302952,4385.48484805,3404.12121178,4203.63636322,469.818181771,4778.54545407,972.606060509,4581.24242378,3511.27272692,42.0,42.0,?
2017-07-31 18:10:05.831645,4521.99999955,3746.18181781,4224.75757534,12.3636363624,3864.15151477,259.63636361,3926.99999961,375.030302993,4319.0303026,148.363636349,4429.27272683,2905.45454516,4195.90909049,3169.2121209,4377.75757532,2724.12121185,4957.30302981,3053.81818151,4186.63636322,78.3030302952,4376.72727229,3404.12121178,4207.75757534,469.818181771,4780.09090861,972.606060509,4583.30302984,3511.27272692,42.0,42.0,?
2017-07-31 18:10:05.838723,4524.57575712,3746.18181781,4222.18181776,12.3636363624,3867.24242386,259.63636361,3919.7878784,375.030302993,4311.30302987,148.363636349,4429.27272683,2905.45454516,4204.66666625,3169.2121209,4377.2424238,2724.12121185,4959.36363587,3053.81818151,4185.09090867,78.3030302952,4373.6363632,3404.12121178,4212.39393897,469.818181771,4779.5757571,972.606060509,4583.30302984,3511.27272692,42.0,42.0,?
2017-07-31 18:10:05.848548,4521.99999955,3746.18181781,4219.60606018,12.3636363624,3866.21212083,259.63636361,3905.36363597,375.030302993,4311.81818139,148.363636349,4424.63636319,2905.45454516,4206.72727231,3169.2121209,4379.30302987,2724.12121185,4955.75757526,3053.81818151,4183.54545413,78.3030302952,4374.66666623,3404.12121178,4207.75757534,469.818181771,4775.96969649,972.606060509,4580.21212075,3511.27272692,42.0,42.0,?
2017-07-31 18:10:05.854730,4519.93939349,3746.18181781,4220.1212117,12.3636363624,3864.15151477,259.63636361,3914.12121173,375.030302993,4313.36363593,148.363636349,4421.5454541,2905.45454516,4205.18181776,3169.2121209,4381.36363593,2724.12121185,4954.21212072,3053.81818151,4186.63636322,78.3030302952,4379.81818138,3404.12121178,4205.18181776,469.818181771,4783.1818177,972.606060509,4584.84848439,3511.27272692,42.0,42.0,?
2017-07-31 18:10:05.862626,4527.1515147,3746.18181781,4217.03030261,12.3636363624,3871.36363598,259.63636361,3926.48484809,375.030302993,4313.36363593,148.363636349,4421.03030259,2905.45454516,4203.63636322,3169.2121209,4380.3333329,2724.12121185,4958.33333284,3053.81818151,4188.18181776,78.3030302952,4382.90909047,3404.12121178,4208.27272685,469.818181771,4786.27272679,972.606060509,4592.57575712,3511.27272692,42.0,42.0,?
2017-07-31 18:10:05.872170,4531.78787833,3746.18181781,4217.54545412,12.3636363624,3877.03030264,259.63636361,3922.36363597,375.030302993,4311.30302987,148.363636349,4418.96969653,2905.45454516,4198.99999958,3169.2121209,4380.3333329,2724.12121185,4958.84848435,3053.81818151,4184.06060564,78.3030302952,4378.27272683,3404.12121178,4210.33333291,469.818181771,4783.1818177,972.606060509,4589.99999954,3511.27272692,42.0,42.0,?
2017-07-31 18:10:05.878370,4529.21212076,3746.18181781,4219.60606018,12.3636363624,3873.93939355,259.63636361,3923.393939,375.030302993,4313.36363593,148.363636349,4418.45454501,2905.45454516,4198.99999958,3169.2121209,4381.36363593,2724.12121185,4958.33333284,3053.81818151,4187.66666625,78.3030302952,4377.75757532,3404.12121178,4209.30302988,469.818181771,4783.69696922,972.606060509,4588.454545,3511.27272692,42.0,42.0,?
2017-07-31 18:10:05.885691,4530.24242379,3746.18181781,4215.99999958,12.3636363624,3874.45454507,259.63636361,3921.84848446,375.030302993,4319.0303026,148.363636349,4422.57575713,2905.45454516,4199.5151511,3169.2121209,4381.36363593,2724.12121185,4960.90909041,3053.81818151,4195.39393897,78.3030302952,4382.90909047,3404.12121178,4207.24242382,469.818181771,4785.75757528,972.606060509,4592.0606056,3511.27272692,42.0,42.0,?
2017-07-31 18:10:05.893963,4531.78787833,3746.18181781,4218.57575715,12.3636363624,3878.06060567,259.63636361,3907.93939355,375.030302993,4319.54545411,148.363636349,4426.18181774,2905.45454516,4192.8181814,3169.2121209,4375.69696926,2724.12121185,4954.72727223,3053.81818151,4194.87878746,78.3030302952,4382.90909047,3404.12121178,4207.24242382,469.818181771,4786.27272679,972.606060509,4593.09090863,3511.27272692,42.0,42.0,?
2017-07-31 18:10:05.903536,4528.18181773,3746.18181781,4220.63636321,12.3636363624,3876.51515113,259.63636361,3915.66666628,375.030302993,4315.93939351,148.363636349,4426.18181774,2905.45454516,4189.21212079,3169.2121209,4371.06060562,2724.12121185,4948.54545405,3053.81818151,4193.33333291,78.3030302952,4380.84848441,3404.12121178,4206.72727231,469.818181771,4783.69696922,972.606060509,4594.12121166,3511.27272692,42.0,42.0,?
2017-07-31 18:10:05.913233,4530.7575753,3746.18181781,4219.09090867,12.3636363624,3878.57575719,259.63636361,3935.75757536,375.030302993,4317.48484805,148.363636349,4423.09090865,2905.45454516,4190.75757534,3169.2121209,4374.15151471,2724.12121185,4955.75757526,3053.81818151,4196.93939352,78.3030302952,4385.99999956,3404.12121178,4206.72727231,469.818181771,4787.81818134,972.606060509,4597.72727227,3511.27272692,42.0,42.0,?
2017-07-31 18:10:05.919622,4529.72727227,3746.18181781,4216.51515109,12.3636363624,3880.63636325,259.63636361,3930.60606021,375.030302993,4320.57575714,148.363636349,4422.06060562,2905.45454516,4191.78787837,3169.2121209,4374.66666623,2724.12121185,4958.33333284,3053.81818151,4194.36363594,78.3030302952,4386.51515108,3404.12121178,4206.72727231,469.818181771,4787.81818134,972.606060509,4595.66666621,3511.27272692,42.0,42.0,?
2017-07-31 18:10:05.924973,4522.51515106,3746.18181781,4215.99999958,12.3636363624,3877.03030264,259.63636361,3921.84848446,375.030302993,4319.0303026,148.363636349,4424.63636319,2905.45454516,4194.36363594,3169.2121209,4373.12121168,2724.12121185,4951.12121163,3053.81818151,4186.63636322,78.3030302952,4379.81818138,3404.12121178,4206.72727231,469.818181771,4778.03030255,972.606060509,4589.99999954,3511.27272692,42.0,42.0,?
2017-07-31 18:10:05.932641,4526.12121167,3746.18181781,4219.60606018,12.3636363624,3875.99999961,259.63636361,3923.393939,375.030302993,4316.45454502,148.363636349,4424.63636319,2905.45454516,4196.424242,3169.2121209,4375.69696926,2724.12121185,4952.15151466,3053.81818151,4183.54545413,78.3030302952,4381.36363593,3404.12121178,4208.27272685,469.818181771,4780.09090861,972.606060509,4594.63636318,3511.27272692,42.0,42.0,?
2017-07-31 18:10:05.940806,4528.69696924,3746.18181781,4219.60606018,12.3636363624,3878.57575719,259.63636361,3920.81818143,375.030302993,4313.36363593,148.363636349,4422.06060562,2905.45454516,4197.96969655,3169.2121209,4378.78787835,2724.12121185,4961.42424193,3053.81818151,4188.18181776,78.3030302952,4384.96969653,3404.12121178,4208.27272685,469.818181771,4781.63636316,972.606060509,4599.27272681,3511.27272692,42.0,42.0,?
2017-07-31 18:10:05.950757,4524.06060561,3746.18181781,4217.54545412,12.3636363624,3880.12121173,259.63636361,3920.81818143,375.030302993,4315.42424199,148.363636349,4420.51515107,2905.45454516,4197.96969655,3169.2121209,4377.2424238,2724.12121185,4961.93939344,3053.81818151,4190.24242382,78.3030302952,4382.39393896,3404.12121178,4205.69696928,469.818181771,4779.06060558,972.606060509,4597.21212075,3511.27272692,42.0,42.0,?
2017-07-31 18:10:05.958822,4524.57575712,3746.18181781,4217.54545412,12.3636363624,3880.63636325,259.63636361,3921.33333294,375.030302993,4314.90909048,148.363636349,4416.90909047,2905.45454516,4196.93939352,3169.2121209,4375.69696926,2724.12121185,4958.33333284,3053.81818151,4184.57575716,78.3030302952,4381.36363593,3404.12121178,4206.21212079,469.818181771,4781.12121164,972.606060509,4594.63636318,3511.27272692,42.0,42.0,?
2017-07-31 18:10:05.964326,4528.69696924,3746.18181781,4217.54545412,12.3636363624,3883.72727234,259.63636361,3915.66666628,375.030302993,4307.69696927,148.363636349,4412.78787835,2905.45454516,4195.39393897,3169.2121209,4377.75757532,2724.12121185,4963.48484799,3053.81818151,4185.60606019,78.3030302952,4384.96969653,3404.12121178,4207.75757534,469.818181771,4781.63636316,972.606060509,4598.7575753,3511.27272692,42.0,42.0,?
2017-07-31 18:10:05.971759,4524.57575712,3746.18181781,4218.57575715,12.3636363624,3881.66666628,259.63636361,3916.69696931,375.030302993,4304.09090866,148.363636349,4411.2424238,2905.45454516,4193.84848443,3169.2121209,4375.18181774,2724.12121185,4961.93939344,3053.81818151,4190.75757534,78.3030302952,4388.57575714,3404.12121178,4209.30302988,469.818181771,4784.21212073,972.606060509,4599.78787833,3511.27272692,42.0,42.0,?
2017-07-31 18:10:05.979764,4520.96969652,3746.18181781,4220.63636321,12.3636363624,3876.51515113,259.63636361,3925.45454506,375.030302993,4305.12121169,148.363636349,4411.2424238,2905.45454516,4192.8181814,3169.2121209,4375.18181774,2724.12121185,4954.72727223,3053.81818151,4187.15151473,78.3030302952,4385.48484805,3404.12121178,4209.30302988,469.818181771,4783.1818177,972.606060509,4592.0606056,3511.27272692,42.0,42.0,?
2017-07-31 18:10:05.988680,4522.51515106,3746.18181781,4221.15151473,12.3636363624,3873.42424204,259.63636361,3924.42424203,375.030302993,4304.60606018,148.363636349,4410.72727229,2905.45454516,4197.45454503,3169.2121209,4378.78787835,2724.12121185,4959.36363587,3053.81818151,4182.5151511,78.3030302952,4377.2424238,3404.12121178,4206.72727231,469.818181771,4779.06060558,972.606060509,4586.39393894,3511.27272692,42.0,42.0,?
2017-07-31 18:10:05.996064,4520.96969652,3746.18181781,4220.63636321,12.3636363624,3872.90909052,259.63636361,3917.21212082,375.030302993,4304.09090866,148.363636349,4410.21212077,2905.45454516,4200.03030261,3169.2121209,4379.81818138,2724.12121185,4968.12121162,3053.81818151,4186.1212117,78.3030302952,4376.21212077,3404.12121178,4207.24242382,469.818181771,4782.15151467,972.606060509,4591.03030257,3511.27272692,42.0,42.0,?
2017-07-31 18:10:06.003709,4523.54545409,3746.18181781,4219.09090867,12.3636363624,3878.06060567,259.63636361,3921.84848446,375.030302993,4308.21212078,148.363636349,4411.75757532,2905.45454516,4198.99999958,3169.2121209,4380.3333329,2724.12121185,4966.57575708,3053.81818151,4191.78787837,78.3030302952,4383.42424199,3404.12121178,4209.8181814,469.818181771,4784.21212073,972.606060509,4599.27272681,3511.27272692,42.0,42.0,?
2017-07-31 18:10:06.011230,4530.24242379,3746.18181781,4218.06060564,12.3636363624,3881.66666628,259.63636361,3921.33333294,375.030302993,4311.30302987,148.363636349,4415.36363592,2905.45454516,4197.45454503,3169.2121209,4378.27272683,2724.12121185,4961.42424193,3053.81818151,4190.24242382,78.3030302952,4387.54545411,3404.12121178,4209.30302988,469.818181771,4784.72727225,972.606060509,4603.90909045,3511.27272692,42.0,42.0,?
2017-07-31 18:10:06.019109,4529.72727227,3746.18181781,4219.09090867,12.3636363624,3877.54545416,259.63636361,3902.27272688,375.030302993,4314.39393896,148.363636349,4416.39393895,2905.45454516,4197.45454503,3169.2121209,4377.2424238,2724.12121185,4962.96969647,3053.81818151,4188.18181776,78.3030302952,4385.48484805,3404.12121178,4206.72727231,469.818181771,4787.81818134,972.606060509,4605.45454499,3511.27272692,42.0,42.0,?
2017-07-31 18:10:06.028072,4521.99999955,3746.18181781,4219.60606018,12.3636363624,3874.96969658,259.63636361,3901.24242385,375.030302993,4312.3333329,148.363636349,4413.30302986,2905.45454516,4200.03030261,3169.2121209,4382.39393896,2724.12121185,4967.09090859,3053.81818151,4187.15151473,78.3030302952,4384.45454502,3404.12121178,4207.24242382,469.818181771,4788.33333285,972.606060509,4604.42424196,3511.27272692,42.0,42.0,?
2017-07-31 18:10:06.035365,4519.93939349,3746.18181781,4220.63636321,12.3636363624,3875.4848481,259.63636361,3923.393939,375.030302993,4301.51515109,148.363636349,4413.30302986,2905.45454516,4199.5151511,3169.2121209,4383.9393935,2724.12121185,4968.12121162,3053.81818151,4184.57575716,78.3030302952,4384.45454502,3404.12121178,4207.75757534,469.818181771,4785.24242376,972.606060509,4601.33333287,3511.27272692,42.0,42.0,?
2017-07-31 18:10:06.042754,4524.57575712,3746.18181781,4219.60606018,12.3636363624,3876.51515113,259.63636361,3925.45454506,375.030302993,4300.99999957,148.363636349,4415.87878744,2905.45454516,4197.96969655,3169.2121209,4378.27272683,2724.12121185,4966.06060556,3053.81818151,4182.5151511,78.3030302952,4384.45454502,3404.12121178,4205.69696928,469.818181771,4780.60606013,972.606060509,4601.84848439,3511.27272692,42.0,42.0,?
2017-07-31 18:10:06.051319,4529.21212076,3746.18181781,4219.09090867,12.3636363624,3877.54545416,259.63636361,3912.57575718,375.030302993,4314.39393896,148.363636349,4416.39393895,2905.45454516,4202.60606019,3169.2121209,4381.36363593,2724.12121185,4965.03030253,3053.81818151,4184.57575716,78.3030302952,4388.06060562,3404.12121178,4208.78787837,469.818181771,4785.75757528,972.606060509,4609.0606056,3511.27272692,42.0,42.0,?
2017-07-31 18:10:06.058846,4535.39393894,3746.18181781,4220.1212117,12.3636363624,3879.0909087,259.63636361,3921.33333294,375.030302993,4318.51515108,148.363636349,4419.48484804,2905.45454516,4207.75757534,3169.2121209,4390.12121168,2724.12121185,4970.18181768,3053.81818151,4187.66666625,78.3030302952,4394.2424238,3404.12121178,4209.8181814,469.818181771,4795.54545407,972.606060509,4616.78787833,3511.27272692,42.0,42.0,?
2017-07-31 18:10:06.066762,4540.03030258,3746.18181781,4219.09090867,12.3636363624,3881.15151476,259.63636361,3926.99999961,375.030302993,4311.81818139,148.363636349,4421.5454541,2905.45454516,4208.78787837,3169.2121209,4388.57575714,2724.12121185,4974.81818132,3053.81818151,4184.06060564,78.3030302952,4396.81818138,3404.12121178,4205.69696928,469.818181771,4795.03030255,972.606060509,4616.78787833,3511.27272692,42.0,42.0,?
2017-07-31 18:10:06.074388,4538.48484803,3746.18181781,4219.60606018,12.3636363624,3882.69696931,259.63636361,3918.75757537,375.030302993,4310.78787836,148.363636349,4416.90909047,2905.45454516,4211.36363594,3169.2121209,4384.45454502,2724.12121185,4971.21212072,3053.81818151,4174.27272686,78.3030302952,4392.69696926,3404.12121178,4207.24242382,469.818181771,4791.42424195,972.606060509,4616.27272681,3511.27272692,42.0,42.0,?
2017-07-31 18:10:06.081658,4538.48484803,3746.18181781,4219.60606018,12.3636363624,3883.72727234,259.63636361,3919.27272688,375.030302993,4313.87878745,148.363636349,4410.72727229,2905.45454516,4208.27272685,3169.2121209,4382.90909047,2724.12121185,4965.54545405,3053.81818151,4173.24242383,78.3030302952,4389.60606017,3404.12121178,4208.78787837,469.818181771,4787.30302982,972.606060509,4612.15151469,3511.27272692,42.0,42.0,?
2017-07-31 18:10:06.090495,4541.57575712,3746.18181781,4220.1212117,12.3636363624,3884.24242385,259.63636361,3915.15151476,375.030302993,4311.30302987,148.363636349,4411.75757532,2905.45454516,4196.93939352,3169.2121209,4378.78787835,2724.12121185,4960.3939389,3053.81818151,4177.36363595,78.3030302952,4391.15151471,3404.12121178,4208.27272685,469.818181771,4788.33333285,972.606060509,4616.78787833,3511.27272692,42.0,42.0,?
2017-07-31 18:10:06.096666,4537.96969652,3746.18181781,4219.60606018,12.3636363624,3882.69696931,259.63636361,3906.393939,375.030302993,4307.18181775,148.363636349,4413.81818138,2905.45454516,4195.90909049,3169.2121209,4374.15151471,2724.12121185,4955.75757526,3053.81818151,4169.63636322,78.3030302952,4388.57575714,3404.12121178,4206.21212079,469.818181771,4789.8787874,972.606060509,4621.93939348,3511.27272692,42.0,42.0,?
2017-07-31 18:10:06.106653,4530.7575753,3746.18181781,4219.60606018,12.3636363624,3879.60606022,259.63636361,3920.81818143,375.030302993,4305.12121169,148.363636349,4410.72727229,2905.45454516,4201.06060564,3169.2121209,4374.15151471,2724.12121185,4955.75757526,3053.81818151,4160.36363595,78.3030302952,4380.84848441,3404.12121178,4203.1212117,469.818181771,4781.63636316,972.606060509,4574.03030257,3511.27272692,42.0,42.0,?
2017-07-31 18:10:06.113201,4526.63636318,3746.18181781,4225.27272685,12.3636363624,3877.03030264,259.63636361,3930.60606021,375.030302993,4301.51515109,148.363636349,4410.21212077,2905.45454516,4195.90909049,3169.2121209,4374.66666623,2724.12121185,4960.90909041,3053.81818151,4162.42424201,78.3030302952,4378.78787835,3404.12121178,4207.24242382,469.818181771,4780.60606013,972.606060509,4501.39393894,3511.27272692,42.0,42.0,?
2017-07-31 18:10:06.120809,4524.57575712,3746.18181781,4222.69696927,12.3636363624,3877.03030264,259.63636361,3900.72727234,375.030302993,4308.7272723,148.363636349,4413.30302986,2905.45454516,4194.36363594,3169.2121209,4372.09090865,2724.12121185,4960.3939389,3053.81818151,4167.57575716,78.3030302952,4378.78787835,3404.12121178,4210.84848443,469.818181771,4783.1818177,972.606060509,4481.30302985,3511.27272692,42.0,42.0,?
2017-07-31 18:10:06.129606,4523.03030258,3746.18181781,4215.99999958,12.3636363624,3874.45454507,259.63636361,3892.99999961,375.030302993,4319.54545411,148.363636349,4414.33333289,2905.45454516,4199.5151511,3169.2121209,4370.54545411,2724.12121185,4952.66666617,3053.81818151,4167.06060564,78.3030302952,4378.27272683,3404.12121178,4207.24242382,469.818181771,4782.66666619,972.606060509,4490.57575713,3511.27272692,42.0,42.0,?
2017-07-31 18:10:06.136480,4517.87878743,3746.18181781,4220.1212117,12.3636363624,3867.75757537,259.63636361,3932.15151476,375.030302993,4313.36363593,148.363636349,4412.27272683,2905.45454516,4194.87878746,3169.2121209,4367.96969653,2724.12121185,4952.66666617,3053.81818151,4160.36363595,78.3030302952,4374.15151471,3404.12121178,4205.18181776,469.818181771,4781.63636316,972.606060509,4479.24242379,3511.27272692,42.0,42.0,?
2017-07-31 18:10:06.144168,4512.72727228,3746.18181781,4222.18181776,12.3636363624,3865.69696931,259.63636361,3943.48484809,375.030302993,4302.0303026,148.363636349,4410.72727229,2905.45454516,4189.72727231,3169.2121209,4368.48484805,2724.12121185,4965.03030253,3053.81818151,4157.27272686,78.3030302952,4366.9393935,3404.12121178,4206.21212079,469.818181771,4773.90909043,972.606060509,4468.42424198,3511.27272692,42.0,42.0,?
2017-07-31 18:10:06.151873,4510.66666622,3746.18181781,4219.60606018,12.3636363624,3867.24242386,259.63636361,3919.27272688,375.030302993,4301.51515109,148.363636349,4411.2424238,2905.45454516,4190.75757534,3169.2121209,4372.60606017,2724.12121185,4967.09090859,3053.81818151,4160.87878746,78.3030302952,4365.90909047,3404.12121178,4208.27272685,469.818181771,4772.8787874,972.606060509,4474.09090864,3511.27272692,42.0,42.0,?
2017-07-31 18:10:06.162015,4513.24242379,3746.18181781,4220.63636321,12.3636363624,3865.69696931,259.63636361,3919.7878784,375.030302993,4312.3333329,148.363636349,4412.78787835,2905.45454516,4193.33333291,3169.2121209,4378.78787835,2724.12121185,4959.36363587,3053.81818151,4161.90909049,78.3030302952,4369.51515108,3404.12121178,4208.27272685,469.818181771,4777.51515104,972.606060509,4478.21212076,3511.27272692,42.0,42.0,?
2017-07-31 18:10:06.168799,4517.36363591,3746.18181781,4221.66666624,12.3636363624,3867.24242386,259.63636361,3935.75757536,375.030302993,4318.51515108,148.363636349,4416.90909047,2905.45454516,4199.5151511,3169.2121209,4383.9393935,2724.12121185,4966.57575708,3053.81818151,4164.48484807,78.3030302952,4378.78787835,3404.12121178,4206.21212079,469.818181771,4781.12121164,972.606060509,4482.8484844,3511.27272692,42.0,42.0,?
2017-07-31 18:10:06.176293,4521.48484803,3746.18181781,4220.63636321,12.3636363624,3871.87878749,259.63636361,3924.42424203,375.030302993,4314.90909048,148.363636349,4415.87878744,2905.45454516,4203.1212117,3169.2121209,4382.90909047,2724.12121185,4975.33333284,3053.81818151,4169.1212117,78.3030302952,4388.06060562,3404.12121178,4207.24242382,469.818181771,4787.30302982,972.606060509,4489.03030258,3511.27272692,42.0,42.0,?
2017-07-31 18:10:06.187032,4519.42424197,3746.18181781,4218.57575715,12.3636363624,3870.84848446,259.63636361,3913.60606021,375.030302993,4311.81818139,148.363636349,4411.2424238,2905.45454516,4203.63636322,3169.2121209,4383.42424199,2724.12121185,4971.21212072,3053.81818151,4163.45454504,78.3030302952,4376.72727229,3404.12121178,4208.27272685,469.818181771,4781.63636316,972.606060509,4487.99999955,3511.27272692,42.0,42.0,?
2017-07-31 18:10:06.192298,4515.81818137,3746.18181781,4220.1212117,12.3636363624,3866.21212083,259.63636361,3923.393939,375.030302993,4313.87878745,148.363636349,4414.33333289,2905.45454516,4206.72727231,3169.2121209,4383.9393935,2724.12121185,4965.03030253,3053.81818151,4154.18181777,78.3030302952,4362.81818138,3404.12121178,4206.72727231,469.818181771,4774.93939346,972.606060509,4479.24242379,3511.27272692,42.0,42.0,?
2017-07-31 18:10:06.200873,4519.42424197,3746.18181781,4220.1212117,12.3636363624,3870.33333295,259.63636361,3928.03030264,375.030302993,4315.93939351,148.363636349,4418.45454501,2905.45454516,4206.72727231,3169.2121209,4382.39393896,2724.12121185,4964.51515102,3053.81818151,4158.8181814,78.3030302952,4374.15151471,3404.12121178,4207.75757534,469.818181771,4777.51515104,972.606060509,4478.72727228,3511.27272692,42.0,42.0,?
2017-07-31 18:10:06.207563,4527.66666621,3746.18181781,4218.57575715,12.3636363624,3873.42424204,259.63636361,3916.69696931,375.030302993,4314.39393896,148.363636349,4413.30302986,2905.45454516,4202.09090867,3169.2121209,4380.3333329,2724.12121185,4963.9999995,3053.81818151,4166.03030261,78.3030302952,4386.51515108,3404.12121178,4209.30302988,469.818181771,4781.63636316,972.606060509,4489.5454541,3511.27272692,42.0,42.0,?
2017-07-31 18:10:06.214907,4532.81818136,3742.06060569,4221.66666624,12.3636363624,3870.33333295,259.63636361,3915.15151476,375.030302993,4311.81818139,148.363636349,4409.69696926,2905.45454516,4201.06060564,3169.2121209,4377.2424238,2724.12121185,4959.36363587,3053.81818151,4159.84848443,78.3030302952,4378.78787835,3404.12121178,4208.78787837,469.818181771,4784.72727225,972.606060509,4493.1515147,3511.27272692,42.0,42.0,?
2017-07-31 18:10:06.224012,4531.78787833,3742.06060569,4220.1212117,0.0,3871.36363598,259.63636361,3933.18181779,375.030302993,4309.24242381,148.363636349,4413.81818138,2905.45454516,4202.60606019,3169.2121209,4374.66666623,2724.12121185,4962.45454496,3053.81818151,4153.66666625,78.3030302952,4371.06060562,3404.12121178,4206.72727231,469.818181771,4778.54545407,972.606060509,4485.93939349,3511.27272692,42.0,42.0,?
2017-07-31 18:10:06.229605,4525.60606015,3742.06060569,4217.03030261,0.0,3871.87878749,259.63636361,3945.03030264,375.030302993,4309.24242381,148.363636349,4412.78787835,2905.45454516,4199.5151511,3169.2121209,4377.2424238,2724.12121185,4967.09090859,3053.81818151,4155.2121208,78.3030302952,4372.60606017,3404.12121178,4206.21212079,469.818181771,4774.42424195,972.606060509,4479.24242379,3503.03030268,42.0,42.0,?
2017-07-31 18:10:06.239392,4523.03030258,3742.06060569,4216.51515109,0.0,3871.87878749,247.272727248,3935.75757536,375.030302993,4310.78787836,148.363636349,4407.6363632,2905.45454516,4201.06060564,3169.2121209,4380.3333329,2724.12121185,4967.09090859,3053.81818151,4160.87878746,78.3030302952,4377.75757532,3404.12121178,4205.69696928,469.818181771,4781.63636316,972.606060509,4479.24242379,3503.03030268,42.0,42.0,?
2017-07-31 18:10:06.247122,4532.81818136,3742.06060569,4217.03030261,0.0,3880.63636325,247.272727248,3917.72727234,375.030302993,4308.7272723,148.363636349,4411.2424238,2905.45454516,4209.8181814,3169.2121209,4384.45454502,2724.12121185,4975.33333284,3053.81818151,4170.15151473,78.3030302952,4387.54545411,3404.12121178,4206.72727231,469.818181771,4786.27272679,972.606060509,4488.51515107,3503.03030268,42.0,42.0,?
2017-07-31 18:10:06.253624,4546.72727227,3742.06060569,4219.09090867,0.0,3887.33333294,247.272727248,3921.84848446,375.030302993,4304.60606018,152.48484847,4414.33333289,2905.45454516,4211.36363594,3169.2121209,4387.03030259,2724.12121185,4982.54545405,3053.81818151,4174.78787837,78.3030302952,4395.27272683,3404.12121178,4210.84848443,469.818181771,4789.8787874,972.606060509,4499.33333288,3503.03030268,42.0,42.0,?
2017-07-31 18:10:06.263229,4544.66666621,3742.06060569,4218.06060564,0.0,3886.30302991,247.272727248,3941.93939355,375.030302993,4304.60606018,152.48484847,4411.2424238,2913.69696941,4201.06060564,3169.2121209,4380.3333329,2724.12121185,4975.84848435,3053.81818151,4172.72727231,78.3030302952,4394.2424238,3404.12121178,4210.33333291,469.818181771,4793.48484801,972.606060509,4501.39393894,3503.03030268,42.0,42.0,?
2017-07-31 18:10:06.269454,4538.48484803,3742.06060569,4214.45454503,0.0,3885.27272688,247.272727248,3941.93939355,375.030302993,4308.21212078,152.48484847,4411.2424238,2913.69696941,4196.424242,3177.45454514,4376.21212077,2724.12121185,4973.27272678,3053.81818151,4171.18181776,78.3030302952,4393.72727229,3404.12121178,4206.72727231,469.818181771,4795.03030255,972.606060509,4499.8484844,3503.03030268,42.0,42.0,?
2017-07-31 18:10:06.278691,4532.81818136,3742.06060569,4215.48484806,0.0,3881.66666628,247.272727248,3930.60606021,375.030302993,4305.63636321,152.48484847,4413.81818138,2913.69696941,4205.18181776,3177.45454514,4383.42424199,2719.99999973,4977.90909041,3053.81818151,4168.09090867,78.3030302952,4389.60606017,3404.12121178,4206.72727231,469.818181771,4790.90909043,972.606060509,4494.69696925,3503.03030268,42.0,42.0,?
2017-07-31 18:10:06.285305,4524.06060561,3742.06060569,4216.51515109,0.0,3875.4848481,247.272727248,3927.51515112,375.030302993,4301.51515109,152.48484847,4414.33333289,2913.69696941,4211.36363594,3177.45454514,4387.54545411,2719.99999973,4976.36363587,3053.81818151,4163.96969655,78.3030302952,4380.3333329,3404.12121178,4209.30302988,469.818181771,4781.12121164,972.606060509,4486.96969652,3503.03030268,42.0,42.0,?
2017-07-31 18:10:06.294235,4524.57575712,3742.06060569,4215.48484806,0.0,3874.96969658,247.272727248,3917.72727234,375.030302993,4303.57575715,152.48484847,4411.2424238,2913.69696941,4206.72727231,3177.45454514,4379.81818138,2719.99999973,4973.78787829,3053.81818151,4164.99999958,78.3030302952,4382.90909047,3404.12121178,4211.36363594,469.818181771,4785.24242376,972.606060509,4487.99999955,3503.03030268,42.0,42.0,?
2017-07-31 18:10:06.302333,4531.27272682,3742.06060569,4214.96969655,0.0,3877.03030264,247.272727248,3917.72727234,375.030302993,4303.06060563,152.48484847,4410.21212077,2913.69696941,4206.21212079,3177.45454514,4377.2424238,2719.99999973,4976.36363587,3053.81818151,4166.54545413,78.3030302952,4390.12121168,3399.99999966,4207.75757534,469.818181771,4793.48484801,972.606060509,4490.06060561,3503.03030268,42.0,42.0,?
2017-07-31 18:10:06.308834,4526.12121167,3742.06060569,4217.03030261,0.0,3869.81818143,247.272727248,3939.36363597,375.030302993,4301.51515109,152.48484847,4412.27272683,2913.69696941,4208.27272685,3177.45454514,4382.90909047,2719.99999973,4976.36363587,3053.81818151,4162.42424201,78.3030302952,4383.42424199,3399.99999966,4205.18181776,482.181818134,4788.84848437,972.606060509,4483.87878743,3503.03030268,42.0,42.0,?
2017-07-31 18:10:06.316523,4515.81818137,3742.06060569,4218.57575715,0.0,3862.0909087,247.272727248,3939.87878748,375.030302993,4304.09090866,152.48484847,4412.78787835,2913.69696941,4201.06060564,3177.45454514,4376.72727229,2719.99999973,4972.75757526,3053.81818151,4155.72727231,78.3030302952,4374.66666623,3399.99999966,4207.24242382,482.181818134,4781.63636316,931.393939301,4477.69696925,3503.03030268,42.0,42.0,?
2017-07-31 18:10:06.324429,4520.454545,3742.06060569,4217.03030261,0.0,3869.30302992,247.272727248,3928.54545415,375.030302993,4306.66666624,152.48484847,4413.81818138,2913.69696941,4198.48484806,3177.45454514,4367.96969653,2719.99999973,4971.72727223,3053.81818151,4157.78787837,65.9393939328,4378.27272683,3399.99999966,4205.18181776,482.181818134,4782.15151467,931.393939301,4479.24242379,3503.03030268,42.0,42.0,?
2017-07-31 18:10:06.334341,4529.21212076,3742.06060569,4217.54545412,0.0,3875.4848481,247.272727248,3929.06060567,375.030302993,4301.51515109,152.48484847,4415.36363592,2913.69696941,4203.1212117,3177.45454514,4372.09090865,2719.99999973,4973.27272678,3053.81818151,4163.96969655,65.9393939328,4383.9393935,3408.2424239,4206.72727231,482.181818134,4791.42424195,931.393939301,4483.87878743,3503.03030268,42.0,42.0,?
2017-07-31 18:10:06.341092,4524.57575712,3742.06060569,4217.03030261,0.0,3866.72727234,247.272727248,3925.45454506,375.030302993,4295.84848442,152.48484847,4412.78787835,2913.69696941,4201.06060564,3177.45454514,4372.09090865,2719.99999973,4973.27272678,3053.81818151,4157.27272686,65.9393939328,4380.84848441,3408.2424239,4210.33333291,482.181818134,4788.84848437,931.393939301,4480.27272682,3503.03030268,42.0,42.0,?
2017-07-31 18:10:06.349194,4521.48484803,3742.06060569,4215.99999958,0.0,3859.51515113,247.272727248,3920.30302991,375.030302993,4296.87878745,152.48484847,4408.15151471,2913.69696941,4193.33333291,3177.45454514,4362.81818138,2719.99999973,4963.48484799,3053.81818151,4144.39393898,65.9393939328,4374.66666623,3408.2424239,4206.72727231,482.181818134,4777.51515104,931.393939301,4472.5454541,3503.03030268,42.0,42.0,?
2017-07-31 18:10:06.357790,4527.66666621,3742.06060569,4218.06060564,0.0,3865.1818178,247.272727248,3928.03030264,375.030302993,4300.48484805,152.48484847,4408.66666623,2913.69696941,4190.75757534,3177.45454514,4358.69696926,2719.99999973,4956.27272678,3053.81818151,4150.06060565,65.9393939328,4371.06060562,3408.2424239,4202.60606019,482.181818134,4779.06060558,931.393939301,4476.1515147,3503.03030268,42.0,42.0,?
2017-07-31 18:10:06.364050,4531.78787833,3742.06060569,4217.54545412,0.0,3870.33333295,247.272727248,3935.75757536,375.030302993,4301.51515109,152.48484847,4412.78787835,2913.69696941,4198.99999958,3177.45454514,4367.96969653,2719.99999973,4963.48484799,3053.81818151,4169.63636322,65.9393939328,4373.12121168,3408.2424239,4204.66666625,482.181818134,4780.60606013,931.393939301,4480.78787834,3503.03030268,42.0,42.0,?
2017-07-31 18:10:06.373338,4524.06060561,3742.06060569,4216.51515109,0.0,3863.63636325,247.272727248,3930.60606021,375.030302993,4297.90909048,152.48484847,4410.72727229,2913.69696941,4203.63636322,3177.45454514,4373.12121168,2719.99999973,4967.09090859,3053.81818151,4178.90909049,65.9393939328,4375.18181774,3408.2424239,4206.72727231,482.181818134,4781.63636316,931.393939301,4470.99999955,3503.03030268,42.0,42.0,?
2017-07-31 18:10:06.379470,4517.87878743,3742.06060569,4216.51515109,0.0,3855.39393901,247.272727248,3927.51515112,375.030302993,4294.81818139,152.48484847,4404.03030259,2913.69696941,4193.84848443,3177.45454514,4363.84848441,2719.99999973,4958.33333284,3053.81818151,4188.69696928,65.9393939328,4368.99999956,3408.2424239,4206.72727231,482.181818134,4782.15151467,931.393939301,4459.66666622,3503.03030268,42.0,42.0,?
2017-07-31 18:10:06.386618,4520.96969652,3742.06060569,4215.99999958,0.0,3856.42424204,247.272727248,3922.36363597,375.030302993,4292.24242381,152.48484847,4404.54545411,2913.69696941,4188.69696928,3177.45454514,4356.6363632,2719.99999973,4954.72727223,3053.81818151,4205.18181776,65.9393939328,4367.96969653,3408.2424239,4206.72727231,482.181818134,4779.06060558,931.393939301,4459.15151471,3503.03030268,42.0,42.0,?
2017-07-31 18:10:06.396685,4520.96969652,3742.06060569,4218.06060564,0.0,3854.36363598,247.272727248,3906.90909052,375.030302993,4289.66666624,152.48484847,4411.75757532,2913.69696941,4196.424242,3177.45454514,4362.81818138,2719.99999973,4958.84848435,3053.81818151,4213.424242,65.9393939328,4372.60606017,3408.2424239,4208.78787837,482.181818134,4784.21212073,931.393939301,4457.09090865,3503.03030268,42.0,42.0,?
2017-07-31 18:10:06.401664,4512.21212076,3742.06060569,4217.03030261,0.0,3847.66666628,247.272727248,3909.48484809,375.030302993,4295.3333329,152.48484847,4414.84848441,2913.69696941,4201.57575716,3177.45454514,4368.48484805,2719.99999973,4962.96969647,3053.81818151,4222.18181776,65.9393939328,4365.90909047,3408.2424239,4208.78787837,482.181818134,4782.15151467,931.393939301,4448.8484844,3503.03030268,42.0,42.0,?
2017-07-31 18:10:06.409721,4507.06060561,3742.06060569,4216.51515109,0.0,3847.66666628,247.272727248,3934.72727233,375.030302993,4305.12121169,152.48484847,4416.90909047,2913.69696941,4199.5151511,3177.45454514,4367.96969653,2719.99999973,4962.45454496,3053.81818151,4220.63636321,65.9393939328,4359.72727229,3408.2424239,4206.72727231,482.181818134,4774.42424195,931.393939301,4440.09090865,3503.03030268,42.0,42.0,?
2017-07-31 18:10:06.418489,4506.54545409,3742.06060569,4219.09090867,0.0,3847.15151477,247.272727248,3945.03030264,375.030302993,4306.66666624,152.48484847,4419.48484804,2913.69696941,4202.09090867,3177.45454514,4369.51515108,2719.99999973,4959.36363587,3053.81818151,4203.1212117,65.9393939328,4358.18181775,3408.2424239,4205.69696928,482.181818134,4775.96969649,931.393939301,4437.51515107,3503.03030268,42.0,42.0,?
2017-07-31 18:10:06.426539,4506.54545409,3742.06060569,4219.09090867,0.0,3848.69696931,247.272727248,3935.75757536,375.030302993,4299.96969654,152.48484847,4417.42424198,2913.69696941,4204.15151473,3177.45454514,4371.57575714,2719.99999973,4958.33333284,3053.81818151,4205.69696928,65.9393939328,4357.15151472,3408.2424239,4205.18181776,482.181818134,4777.51515104,931.393939301,4452.96969652,3503.03030268,42.0,42.0,?
2017-07-31 18:10:06.433717,4508.60606016,3742.06060569,4222.69696927,0.0,3854.36363598,247.272727248,3927.51515112,375.030302993,4297.39393896,152.48484847,4413.81818138,2913.69696941,4197.96969655,3177.45454514,4373.12121168,2719.99999973,4959.87878738,3053.81818151,4231.96969655,65.9393939328,4365.90909047,3408.2424239,4206.72727231,482.181818134,4780.60606013,931.393939301,4480.78787834,3503.03030268,42.0,42.0,?
2017-07-31 18:10:06.441378,4517.36363591,3742.06060569,4224.75757534,0.0,3855.39393901,247.272727248,3925.96969658,375.030302993,4299.45454502,152.48484847,4411.75757532,2913.69696941,4197.96969655,3177.45454514,4377.2424238,2719.99999973,4960.3939389,3053.81818151,4249.99999958,65.9393939328,4380.84848441,3408.2424239,4207.24242382,482.181818134,4784.72727225,931.393939301,4513.24242379,3503.03030268,42.0,42.0,?
2017-07-31 18:10:06.448753,4520.96969652,3742.06060569,4219.09090867,0.0,3848.69696931,247.272727248,3926.99999961,375.030302993,4297.90909048,152.48484847,4412.27272683,2913.69696941,4207.24242382,3177.45454514,4378.27272683,2719.99999973,4965.03030253,3053.81818151,4258.75757533,65.9393939328,4386.51515108,3408.2424239,4208.27272685,482.181818134,4786.78787831,931.393939301,4548.27272682,3503.03030268,42.0,42.0,?
2017-07-31 18:10:06.457461,4514.27272682,3742.06060569,4218.06060564,0.0,3837.36363598,247.272727248,3926.48484809,375.030302993,4294.30302987,152.48484847,4413.30302986,2913.69696941,4211.87878746,3177.45454514,4378.78787835,2719.99999973,4971.72727223,3053.81818151,4268.0303026,65.9393939328,4383.42424199,3408.2424239,4210.33333291,482.181818134,4785.24242376,931.393939301,4564.24242379,3503.03030268,42.0,42.0,?
2017-07-31 18:10:06.470193,4507.06060561,3742.06060569,4218.57575715,0.0,3832.72727234,247.272727248,3922.36363597,375.030302993,4298.42424199,152.48484847,4414.33333289,2913.69696941,4212.39393897,3177.45454514,4381.36363593,2719.99999973,4974.30302981,3053.81818151,4267.51515109,65.9393939328,4383.9393935,3408.2424239,4209.30302988,482.181818134,4781.63636316,931.393939301,4558.0606056,3503.03030268,42.0,42.0,?
2017-07-31 18:10:06.477115,4510.1515147,3742.06060569,4217.54545412,0.0,3840.96969659,247.272727248,3920.81818143,375.030302993,4301.51515109,152.48484847,4414.84848441,2913.69696941,4212.90909049,3177.45454514,4379.30302987,2719.99999973,4972.75757526,3053.81818151,4265.96969654,65.9393939328,4392.69696926,3408.2424239,4210.33333291,482.181818134,4787.81818134,931.393939301,4558.57575712,3503.03030268,42.0,42.0,?
2017-07-31 18:10:06.483317,4518.39393894,3742.06060569,4217.03030261,0.0,3847.15151477,247.272727248,3925.96969658,375.030302993,4296.87878745,152.48484847,4414.84848441,2913.69696941,4210.84848443,3177.45454514,4372.60606017,2719.99999973,4971.72727223,3053.81818151,4267.51515109,65.9393939328,4397.84848441,3408.2424239,4209.8181814,482.181818134,4792.96969649,931.393939301,4564.24242379,3503.03030268,42.0,42.0,?
2017-07-31 18:10:06.487872,4520.96969652,3742.06060569,4217.03030261,0.0,3840.96969659,247.272727248,3926.48484809,375.030302993,4290.18181775,152.48484847,4413.81818138,2913.69696941,4209.30302988,3177.45454514,4373.6363632,2719.99999973,4976.36363587,3053.81818151,4261.33333291,65.9393939328,4391.15151471,3408.2424239,4207.24242382,482.181818134,4788.84848437,931.393939301,4568.36363591,3503.03030268,42.0,42.0,?
2017-07-31 18:10:06.495657,4515.81818137,3742.06060569,4217.54545412,0.0,3833.75757537,247.272727248,3920.30302991,375.030302993,4290.69696927,152.48484847,4413.30302986,2913.69696941,4208.78787837,3177.45454514,4376.21212077,2719.99999973,4976.87878738,3053.81818151,4252.06060564,65.9393939328,4385.99999956,3408.2424239,4207.24242382,482.181818134,4786.78787831,931.393939301,4579.18181772,3503.03030268,42.0,42.0,?
2017-07-31 18:10:06.504695,4510.1515147,3742.06060569,4216.51515109,0.0,3832.21212083,247.272727248,3921.33333294,375.030302993,4297.39393896,152.48484847,4415.36363592,2913.69696941,4209.30302988,3177.45454514,4374.66666623,2719.99999973,4970.18181768,3053.81818151,4250.51515109,65.9393939328,4383.42424199,3408.2424239,4206.72727231,482.181818134,4785.75757528,931.393939301,4580.72727227,3503.03030268,42.0,42.0,?
2017-07-31 18:10:06.512955,4510.66666622,3742.06060569,4215.99999958,0.0,3833.75757537,247.272727248,3921.33333294,375.030302993,4295.3333329,152.48484847,4413.30302986,2913.69696941,4213.424242,3177.45454514,4376.72727229,2719.99999973,4970.6969692,3053.81818151,4252.06060564,65.9393939328,4379.30302987,3408.2424239,4207.75757534,482.181818134,4787.30302982,931.393939301,4575.57575712,3503.03030268,42.0,42.0,?
2017-07-31 18:10:06.525630,4512.72727228,3742.06060569,4218.06060564,0.0,3837.87878749,247.272727248,3915.66666628,375.030302993,4288.12121169,152.48484847,4410.21212077,2913.69696941,4217.03030261,3177.45454514,4381.36363593,2719.99999973,4977.90909041,3053.81818151,4251.03030261,65.9393939328,4378.27272683,3408.2424239,4209.30302988,482.181818134,4788.33333285,931.393939301,4578.15151469,3503.03030268,42.0,42.0,?
2017-07-31 18:10:06.529722,4518.90909046,3742.06060569,4216.51515109,0.0,3842.51515113,247.272727248,3915.15151476,375.030302993,4291.7272723,152.48484847,4415.36363592,2913.69696941,4220.63636321,3177.45454514,4383.9393935,2719.99999973,4978.93939344,3053.81818151,4253.60606018,65.9393939328,4385.99999956,3408.2424239,4209.30302988,482.181818134,4790.90909043,931.393939301,4582.27272681,3503.03030268,42.0,42.0,?
2017-07-31 18:10:06.534868,4528.69696924,3742.06060569,4215.48484806,0.0,3848.1818178,247.272727248,3922.36363597,375.030302993,4299.96969654,152.48484847,4423.60606016,2913.69696941,4222.69696927,3177.45454514,4383.9393935,2719.99999973,4979.96969647,3053.81818151,4259.78787836,65.9393939328,4395.27272683,3408.2424239,4209.30302988,482.181818134,4802.24242376,931.393939301,4585.36363591,3503.03030268,42.0,42.0,?
2017-07-31 18:10:06.546718,4529.21212076,3742.06060569,4215.48484806,0.0,3853.84848446,247.272727248,3929.57575718,375.030302993,4307.69696927,152.48484847,4424.63636319,2913.69696941,4221.66666624,3177.45454514,4382.90909047,2719.99999973,4985.12121162,3053.81818151,4261.33333291,65.9393939328,4395.78787835,3408.2424239,4208.78787837,482.181818134,4801.21212073,931.393939301,4588.96969651,3503.03030268,42.0,42.0,?
2017-07-31 18:10:06.551517,4519.93939349,3742.06060569,4217.54545412,0.0,3851.27272689,247.272727248,3929.06060567,375.030302993,4308.7272723,152.48484847,4422.57575713,2913.69696941,4220.63636321,3177.45454514,4384.96969653,2719.99999973,4984.09090859,3053.81818151,4255.15151473,65.9393939328,4391.15151471,3408.2424239,4209.30302988,482.181818134,4795.03030255,931.393939301,4586.39393894,3503.03030268,42.0,42.0,?
2017-07-31 18:10:06.559984,4516.8484844,3742.06060569,4219.60606018,0.0,3844.06060568,247.272727248,3924.93939355,375.030302993,4298.93939351,152.48484847,4425.66666622,2913.69696941,4224.75757534,3177.45454514,4389.09090865,2719.99999973,4977.90909041,3053.81818151,4246.90909048,65.9393939328,4388.57575714,3408.2424239,4210.84848443,482.181818134,4797.09090861,931.393939301,4581.24242378,3503.03030268,42.0,42.0,?
2017-07-31 18:10:06.567339,4524.06060561,3742.06060569,4218.57575715,0.0,3845.09090871,247.272727248,3923.90909052,375.030302993,4291.7272723,152.48484847,4425.66666622,2913.69696941,4225.78787837,3177.45454514,4385.99999956,2719.99999973,4979.96969647,3053.81818151,4245.87878745,65.9393939328,4389.60606017,3408.2424239,4207.24242382,482.181818134,4796.5757571,931.393939301,4582.27272681,3503.03030268,42.0,42.0,?
2017-07-31 18:10:06.574161,4528.18181773,3742.06060569,4221.66666624,0.0,3848.1818178,247.272727248,3924.93939355,375.030302993,4296.36363593,152.48484847,4423.60606016,2913.69696941,4222.18181776,3177.45454514,4379.30302987,2719.99999973,4980.48484799,3053.81818151,4248.96969654,65.9393939328,4391.15151471,3408.2424239,4207.24242382,482.181818134,4799.66666619,931.393939301,4586.90909045,3503.03030268,42.0,42.0,?
2017-07-31 18:10:06.583516,4528.18181773,3742.06060569,4221.15151473,0.0,3845.09090871,247.272727248,3916.18181779,375.030302993,4303.57575715,152.48484847,4427.72727228,2913.69696941,4225.78787837,3177.45454514,4382.90909047,2719.99999973,4978.93939344,3053.81818151,4249.99999958,65.9393939328,4393.21212077,3408.2424239,4211.36363594,482.181818134,4803.78787831,931.393939301,4587.93939348,3503.03030268,42.0,42.0,?
2017-07-31 18:10:06.595844,4525.09090864,3742.06060569,4218.57575715,0.0,3842.51515113,247.272727248,3907.42424203,375.030302993,4304.09090866,152.48484847,4428.75757531,2913.69696941,4228.87878746,3177.45454514,4385.48484805,2719.99999973,4978.42424193,3053.81818151,4245.36363594,65.9393939328,4393.72727229,3408.2424239,4210.84848443,482.181818134,4803.78787831,931.393939301,4586.90909045,3503.03030268,42.0,42.0,?
2017-07-31 18:10:06.600991,4523.54545409,3742.06060569,4222.18181776,0.0,3846.63636325,247.272727248,3915.15151476,375.030302993,4300.99999957,152.48484847,4428.75757531,2913.69696941,4226.30302988,3177.45454514,4383.9393935,2719.99999973,4978.42424193,3053.81818151,4241.75757533,65.9393939328,4393.21212077,3408.2424239,4208.27272685,482.181818134,4805.84848437,931.393939301,4590.51515106,3503.03030268,42.0,42.0,?
2017-07-31 18:10:06.608519,4527.1515147,3742.06060569,4220.63636321,0.0,3850.75757537,247.272727248,3925.45454506,375.030302993,4304.09090866,152.48484847,4430.30302986,2913.69696941,4224.75757534,3177.45454514,4385.48484805,2719.99999973,4981.51515102,3053.81818151,4244.33333291,65.9393939328,4396.30302986,3408.2424239,4208.78787837,482.181818134,4807.90909043,931.393939301,4592.57575712,3503.03030268,42.0,42.0,?
2017-07-31 18:10:06.613663,4521.99999955,3742.06060569,4217.03030261,0.0,3842.51515113,247.272727248,3920.30302991,375.030302993,4300.99999957,152.48484847,4426.18181774,2913.69696941,4217.54545412,3177.45454514,4378.78787835,2719.99999973,4977.90909041,3053.81818151,4239.18181776,65.9393939328,4394.2424238,3408.2424239,4210.84848443,482.181818134,4805.84848437,931.393939301,4585.36363591,3503.03030268,42.0,42.0,?
2017-07-31 18:10:06.625495,4505.51515106,3742.06060569,4217.54545412,0.0,3822.93939356,247.272727248,3904.84848446,375.030302993,4275.24242381,152.48484847,4411.75757532,2913.69696941,4201.06060564,3177.45454514,4360.75757532,2719.99999973,4958.33333284,3053.81818151,4219.09090867,65.9393939328,4376.21212077,3408.2424239,4208.78787837,482.181818134,4788.84848437,931.393939301,4569.90909045,3503.03030268,42.0,42.0,?
2017-07-31 18:10:06.629997,4483.87878743,3742.06060569,4219.09090867,0.0,3808.51515113,247.272727248,3885.7878784,375.030302993,4247.424242,152.48484847,4395.27272683,2913.69696941,4184.57575716,3177.45454514,4343.75757532,2719.99999973,4937.72727223,3053.81818151,4195.39393897,65.9393939328,4354.06060563,3408.2424239,4205.18181776,482.181818134,4768.24242377,931.393939301,4550.33333288,3503.03030268,42.0,42.0,?
2017-07-31 18:10:06.639083,4467.39393895,3742.06060569,4219.09090867,0.0,3799.75757538,247.272727248,3867.75757537,375.030302993,4238.15151473,152.48484847,4383.42424199,2913.69696941,4173.24242383,3177.45454514,4330.36363593,2719.99999973,4924.84848436,3053.81818151,4177.87878746,65.9393939328,4338.09090866,3408.2424239,4205.18181776,482.181818134,4759.99999952,931.393939301,4535.90909046,3503.03030268,42.0,42.0,?
2017-07-31 18:10:06.646563,4457.09090865,3742.06060569,4217.03030261,0.0,3788.42424205,247.272727248,3861.06060567,375.030302993,4234.54545412,152.48484847,4376.72727229,2913.69696941,4159.84848443,3177.45454514,4319.54545411,2719.99999973,4910.42424193,3053.81818151,4164.99999958,65.9393939328,4324.69696926,3408.2424239,4202.09090867,482.181818134,4748.66666619,931.393939301,4527.1515147,3503.03030268,42.0,42.0,?
2017-07-31 18:10:06.653027,4446.78787834,3742.06060569,4217.03030261,0.0,3777.60606023,247.272727248,3858.4848481,375.030302993,4230.424242,152.48484847,4371.06060562,2913.69696941,4143.36363595,3177.45454514,4309.24242381,2719.99999973,4894.96969648,3053.81818151,4155.2121208,65.9393939328,4314.90909048,3408.2424239,4197.96969655,482.181818134,4740.42424195,931.393939301,4519.42424197,3503.03030268,42.0,42.0,?
2017-07-31 18:10:06.660526,4442.66666622,3742.06060569,4215.99999958,0.0,3779.15151477,247.272727248,3850.24242386,375.030302993,4228.36363594,152.48484847,4368.99999956,2913.69696941,4136.66666625,3177.45454514,4304.60606018,2719.99999973,4894.96969648,3053.81818151,4151.09090868,65.9393939328,4312.3333329,3408.2424239,4202.09090867,482.181818134,4738.8787874,931.393939301,4514.78787834,3503.03030268,42.0,42.0,?
2017-07-31 18:10:06.668376,4447.81818137,3742.06060569,4214.96969655,0.0,3785.33333295,247.272727248,3852.30302992,375.030302993,4226.30302988,152.48484847,4372.09090865,2913.69696941,4146.96969656,3177.45454514,4312.3333329,2719.99999973,4902.18181769,3053.81818151,4158.30302989,65.9393939328,4317.48484805,3408.2424239,4206.21212079,482.181818134,4742.99999953,931.393939301,4519.42424197,3503.03030268,42.0,42.0,?
2017-07-31 18:10:06.676603,4453.48484804,3742.06060569,4215.99999958,0.0,3784.81818144,247.272727248,3856.93939355,375.030302993,4227.33333291,152.48484847,4371.06060562,2913.69696941,4153.15151474,3177.45454514,4317.99999957,2719.99999973,4899.60606012,3053.81818151,4163.96969655,65.9393939328,4327.78787836,3408.2424239,4203.1212117,482.181818134,4752.2727268,931.393939301,4528.18181773,3503.03030268,42.0,42.0,?
2017-07-31 18:10:06.685996,4457.09090865,3742.06060569,4214.96969655,0.0,3787.90909053,247.272727248,3854.87878749,375.030302993,4229.39393897,152.48484847,4366.42424199,2913.69696941,4149.03030262,3177.45454514,4313.36363593,2719.99999973,4901.15151466,3053.81818151,4164.48484807,65.9393939328,4331.39393896,3408.2424239,4202.09090867,482.181818134,4751.75757528,931.393939301,4529.21212076,3503.03030268,42.0,42.0,?
2017-07-31 18:10:06.692269,4459.66666622,3742.06060569,4215.48484806,0.0,3787.90909053,247.272727248,3854.87878749,375.030302993,4225.78787837,152.48484847,4367.45454502,2913.69696941,4145.93939352,3177.45454514,4308.21212078,2719.99999973,4908.87878739,3053.81818151,4164.48484807,65.9393939328,4328.81818139,3408.2424239,4206.21212079,482.181818134,4750.21212074,931.393939301,4527.1515147,3503.03030268,42.0,42.0,?
2017-07-31 18:10:06.699913,4450.90909046,3742.06060569,4216.51515109,0.0,3780.69696932,247.272727248,3852.81818143,375.030302993,4222.69696927,152.48484847,4366.9393935,2913.69696941,4140.78787837,3177.45454514,4304.09090866,2719.99999973,4902.18181769,3053.81818151,4159.84848443,65.9393939328,4324.69696926,3408.2424239,4201.57575716,482.181818134,4747.63636316,931.393939301,4524.06060561,3503.03030268,42.0,42.0,?
2017-07-31 18:10:06.711794,4441.63636319,3742.06060569,4213.424242,0.0,3778.12121174,247.272727248,3849.72727234,375.030302993,4223.7272723,152.48484847,4362.81818138,2913.69696941,4136.66666625,3177.45454514,4300.99999957,2719.99999973,4894.45454497,3053.81818151,4154.69696928,65.9393939328,4321.09090866,3408.2424239,4198.48484806,482.181818134,4744.54545407,931.393939301,4519.42424197,3503.03030268,42.0,42.0,?
2017-07-31 18:10:06.716717,4443.18181774,3742.06060569,4214.96969655,0.0,3776.06060568,247.272727248,3849.72727234,375.030302993,4218.57575715,152.48484847,4362.30302987,2913.69696941,4138.72727231,3177.45454514,4300.48484805,2719.99999973,4898.06060557,3053.81818151,4150.57575716,65.9393939328,4319.0303026,3408.2424239,4205.18181776,482.181818134,4749.69696922,931.393939301,4518.90909046,3503.03030268,42.0,42.0,?
2017-07-31 18:10:06.724413,4443.69696925,3742.06060569,4217.54545412,12.3636363624,3776.06060568,247.272727248,3852.30302992,375.030302993,4214.96969655,152.48484847,4363.84848441,2913.69696941,4142.33333292,3177.45454514,4300.48484805,2719.99999973,4895.99999951,3053.81818151,4146.96969656,65.9393939328,4314.39393896,3408.2424239,4205.18181776,482.181818134,4745.06060559,931.393939301,4519.42424197,3503.03030268,42.0,42.0,?
2017-07-31 18:10:06.731746,4439.57575713,3742.06060569,4215.99999958,12.3636363624,3771.93939356,247.272727248,3845.09090871,375.030302993,4220.1212117,152.48484847,4368.48484805,2913.69696941,4145.42424201,3177.45454514,4299.45454502,2719.99999973,4889.30302981,3053.81818151,4145.42424201,65.9393939328,4310.78787836,3408.2424239,4200.03030261,482.181818134,4736.81818134,931.393939301,4513.75757531,3494.78787844,42.0,42.0,?
2017-07-31 18:10:06.739374,4438.03030259,3742.06060569,4214.45454503,12.3636363624,3750.81818144,259.63636361,3826.54545416,375.030302993,4222.18181776,152.48484847,4372.09090865,2913.69696941,4149.54545413,3177.45454514,4299.96969654,2719.99999973,4890.84848436,3053.81818151,4142.33333292,65.9393939328,4309.24242381,3408.2424239,4202.60606019,482.181818134,4741.45454498,931.393939301,4504.48484803,3494.78787844,42.0,42.0,?
2017-07-31 18:10:06.746403,4440.09090865,3742.06060569,4216.51515109,12.3636363624,3751.33333296,259.63636361,3832.72727234,366.787878751,4218.57575715,152.48484847,4368.99999956,2913.69696941,4150.06060565,3177.45454514,4298.93939351,2719.99999973,4890.33333284,3053.81818151,4138.2121208,65.9393939328,4310.78787836,3408.2424239,4205.18181776,482.181818134,4742.48484801,931.393939301,4505.51515106,3494.78787844,42.0,42.0,?
2017-07-31 18:10:06.753686,4443.18181774,3742.06060569,4220.1212117,12.3636363624,3784.30302992,259.63636361,3858.99999961,366.787878751,4217.54545412,164.848484832,4364.36363593,2913.69696941,4143.87878746,3177.45454514,4292.24242381,2719.99999973,4884.15151466,3053.81818151,4136.15151474,65.9393939328,4317.99999957,3408.2424239,4202.09090867,482.181818134,4743.51515104,931.393939301,4516.33333288,3494.78787844,42.0,42.0,?
2017-07-31 18:10:06.762460,4448.8484844,3742.06060569,4217.54545412,12.3636363624,3799.24242386,259.63636361,3860.03030264,366.787878751,4219.60606018,164.848484832,4363.84848441,2913.69696941,4138.72727231,3177.45454514,4287.60606018,2719.99999973,4884.15151466,3053.81818151,4129.45454504,65.9393939328,4321.09090866,3408.2424239,4197.96969655,482.181818134,4745.5757571,931.393939301,4522.51515106,3494.78787844,42.0,42.0,?
2017-07-31 18:10:06.770124,4451.42424198,3742.06060569,4214.96969655,12.3636363624,3791.51515114,259.63636361,3845.09090871,366.787878751,4220.63636321,164.848484832,4361.27272684,2913.69696941,4136.15151474,3173.33333302,4288.12121169,2719.99999973,4884.15151466,3053.81818151,4117.09090868,65.9393939328,4316.96969654,3408.2424239,4200.03030261,482.181818134,4745.06060559,931.393939301,4523.03030258,3494.78787844,42.0,42.0,?
2017-07-31 18:10:06.779754,4448.33333289,3742.06060569,4218.57575715,12.3636363624,3793.5757572,259.63636361,3850.75757537,366.787878751,4222.18181776,164.848484832,4358.18181775,2913.69696941,4132.03030262,3173.33333302,4283.99999957,2719.99999973,4878.99999951,3053.81818151,4109.87878747,65.9393939328,4316.45454502,3408.2424239,4204.15151473,482.181818134,4742.48484801,931.393939301,4521.99999955,3494.78787844,42.0,42.0,?
2017-07-31 18:10:06.785962,4447.81818137,3742.06060569,4218.57575715,12.3636363624,3799.24242386,259.63636361,3857.96969658,366.787878751,4225.27272685,164.848484832,4362.30302987,2913.69696941,4126.87878747,3173.33333302,4277.81818139,2719.99999973,4877.45454497,3049.69696939,4108.84848444,65.9393939328,4319.54545411,3408.2424239,4203.1212117,482.181818134,4741.45454498,931.393939301,4523.54545409,3494.78787844,42.0,42.0,?
2017-07-31 18:10:06.794836,4453.99999955,3742.06060569,4217.03030261,12.3636363624,3797.1818178,259.63636361,3852.30302992,366.787878751,4227.33333291,164.848484832,4365.39393896,2913.69696941,4128.42424201,3173.33333302,4283.48484806,2719.99999973,4877.96969648,3049.69696939,4108.84848444,90.6666666576,4324.18181775,3408.2424239,4202.09090867,482.181818134,4749.18181771,931.393939301,4529.21212076,3494.78787844,42.0,42.0,?
2017-07-31 18:10:06.801733,4457.09090865,3742.06060569,4217.54545412,12.3636363624,3795.63636326,259.63636361,3858.99999961,366.787878751,4225.27272685,164.848484832,4363.3333329,2913.69696941,4134.09090868,3173.33333302,4291.7272723,2719.99999973,4877.96969648,3049.69696939,4110.39393898,90.6666666576,4325.21212078,3420.60606026,4203.1212117,482.181818134,4749.18181771,931.393939301,4532.81818136,3494.78787844,42.0,42.0,?
2017-07-31 18:10:06.810487,4453.48484804,3742.06060569,4215.48484806,12.3636363624,3791.51515114,259.63636361,3862.0909087,366.787878751,4221.66666624,164.848484832,4359.72727229,2913.69696941,4136.66666625,3173.33333302,4290.69696927,2719.99999973,4881.57575709,3049.69696939,4104.72727232,90.6666666576,4319.0303026,3420.60606026,4203.1212117,490.424242375,4738.8787874,931.393939301,4528.18181773,3494.78787844,42.0,42.0,?
2017-07-31 18:10:06.816638,4452.45454501,3742.06060569,4215.48484806,12.3636363624,3787.39393902,259.63636361,3852.30302992,366.787878751,4222.69696927,164.848484832,4360.24242381,2913.69696941,4137.18181777,3173.33333302,4287.09090866,2719.99999973,4886.21212072,3049.69696939,4098.54545414,90.6666666576,4316.96969654,3420.60606026,4203.63636322,490.424242375,4738.8787874,989.090908992,4529.21212076,3494.78787844,42.0,42.0,?
2017-07-31 18:10:06.824671,4449.87878743,3742.06060569,4217.03030261,12.3636363624,3791.51515114,259.63636361,3854.36363598,366.787878751,4228.36363594,164.848484832,4362.30302987,2913.69696941,4141.8181814,3173.33333302,4292.24242381,2719.99999973,4888.7878783,3049.69696939,4102.15151474,82.424242416,4322.12121169,3420.60606026,4203.63636322,490.424242375,4741.45454498,989.090908992,4537.454545,3494.78787844,42.0,42.0,?
2017-07-31 18:10:06.832200,4447.30302986,3742.06060569,4217.03030261,12.3636363624,3794.09090871,259.63636361,3858.99999961,366.787878751,4227.33333291,164.848484832,4362.81818138,2913.69696941,4144.90909049,3173.33333302,4299.96969654,2719.99999973,4886.72727224,3049.69696939,4105.75757535,82.424242416,4321.09090866,3416.48484814,4203.63636322,490.424242375,4742.99999953,989.090908992,4539.51515106,3494.78787844,42.0,42.0,?
2017-07-31 18:10:06.840676,4446.27272683,3742.06060569,4215.99999958,12.3636363624,3792.54545417,259.63636361,3852.81818143,366.787878751,4222.18181776,164.848484832,4362.81818138,2913.69696941,4144.90909049,3173.33333302,4302.0303026,2719.99999973,4883.63636315,3049.69696939,4099.57575717,82.424242416,4312.84848442,3416.48484814,4207.75757534,482.181818134,4740.93939347,989.090908992,4534.36363591,3494.78787844,42.0,42.0,?
2017-07-31 18:10:06.848104,4443.69696925,3742.06060569,4214.45454503,12.3636363624,3791.51515114,259.63636361,3853.33333295,366.787878751,4225.27272685,164.848484832,4359.21212078,2913.69696941,4144.90909049,3173.33333302,4299.45454502,2719.99999973,4886.72727224,3049.69696939,4092.87878747,82.424242416,4312.3333329,3416.48484814,4206.21212079,482.181818134,4737.84848437,989.090908992,4532.81818136,3494.78787844,42.0,42.0,?
2017-07-31 18:10:06.856675,4446.27272683,3742.06060569,4214.45454503,12.3636363624,3796.66666629,259.63636361,3863.12121173,366.787878751,4230.424242,164.848484832,4356.12121169,2913.69696941,4145.42424201,3173.33333302,4299.45454502,2719.99999973,4892.3939389,3049.69696939,4095.96969656,82.424242416,4319.0303026,3416.48484814,4202.60606019,482.181818134,4741.9696965,989.090908992,4540.03030258,3494.78787844,42.0,42.0,?
