Timestamp,F3 Value,F3 Quality,FC5 Value,FC5 Quality,F7 Value,F7 Quality,T7 Value,T7 Quality,P7 Value,P7 Quality,O1 Value,O1 Quality,O2 Value,O2 Quality,P8 Value,P8 Quality,T8 Value,T8 Quality,F8 Value,F8 Quality,AF4 Value,AF4 Quality,FC6 Value,FC6 Quality,F4 Value,F4 Quality,AF3 Value,AF3 Quality,X Value,Y Value,Z Value
2017-08-01 19:18:45.045178,4559.60606015,0,4189.21212079,0,3925.96969658,2748.84848457,3879.0909087,0,4287.60606018,0,4459.66666622,0,4228.87878746,0,4358.18181775,0,5031.48484798,0,4231.45454503,0,4431.33333289,0,4254.1212117,0,4836.75757527,0,4510.66666622,0,42.0,42.0,?
2017-08-01 19:18:45.046827,4559.60606015,0,4189.21212079,0,3925.96969658,2748.84848457,3879.0909087,0,4287.60606018,0,4459.66666622,0,4228.87878746,0,4358.18181775,0,5031.48484798,0,4231.45454503,0,4431.33333289,0,4254.1212117,0,4836.75757527,0,4510.66666622,0,42.0,42.0,?
2017-08-01 19:18:45.050203,4560.12121167,0,4191.27272685,0,3929.06060567,2748.84848457,3883.21212082,0,4294.30302987,0,4467.39393895,0,4236.09090867,0,4360.75757532,0,5036.12121162,0,4229.90909049,0,4427.21212077,0,4249.48484806,0,4835.21212073,0,4509.12121167,0,42.0,42.0,?
2017-08-01 19:18:45.054649,4557.03030257,0,4194.87878746,0,3924.93939355,2748.84848457,3887.84848446,0,4301.51515109,0,4474.60606016,0,4235.57575715,0,4365.90909047,0,5031.48484798,0,4235.06060564,0,4425.66666622,0,4256.18181776,0,4835.21212073,0,4499.33333288,0,42.0,42.0,?
2017-08-01 19:18:45.059700,4542.60606015,0,4185.60606019,0,3918.75757537,2748.84848457,3874.45454507,0,4296.36363593,0,4467.39393895,0,4227.84848443,0,4359.21212078,0,5022.21212071,0,4221.15151473,0,4417.42424198,0,4253.60606018,0,4826.45454497,0,4497.78787834,0,42.0,42.0,?
2017-08-01 19:18:45.062869,4544.1515147,0,4184.57575716,0,3926.99999961,2748.84848457,3858.99999961,0,4293.27272684,0,4462.75757531,0,4220.1212117,0,4350.96969653,0,5020.66666616,0,4202.09090867,0,4419.99999956,0,4249.99999958,0,4826.96969649,0,4501.90909046,0,42.0,42.0,?
2017-08-01 19:18:45.069774,4560.12121167,0,4192.8181814,0,3931.63636324,2748.84848457,3871.87878749,0,4293.27272684,0,4462.75757531,0,4215.48484806,0,4357.66666623,0,5033.54545404,0,4221.15151473,0,4432.36363592,0,4260.81818139,0,4840.87878739,0,4506.03030258,0,42.0,42.0,?
2017-08-01 19:18:45.073204,4559.60606015,0,4192.30302988,0,3924.42424203,2748.84848457,3886.81818143,0,4284.51515109,0,4452.96969652,0,4208.27272685,0,4362.81818138,0,5038.69696919,0,4244.33333291,0,4433.39393895,0,4265.45454503,0,4840.36363588,0,4512.72727228,0,42.0,42.0,?
2017-08-01 19:18:45.077490,4551.87878742,0,4188.69696928,0,3923.393939,2748.84848457,3880.12121173,0,4281.424242,0,4441.63636319,0,4197.45454503,0,4350.96969653,0,5022.21212071,0,4234.54545412,0,4428.75757531,0,4257.21212079,0,4830.57575709,0,4513.24242379,0,42.0,42.0,?
2017-08-01 19:18:45.080500,4552.39393894,0,4187.15151473,0,3924.42424203,2748.84848457,3876.51515113,0,4286.06060563,0,4443.69696925,0,4192.8181814,0,4338.60606017,0,5005.21212071,0,4223.7272723,0,4429.27272683,0,4251.54545412,0,4832.63636315,0,4502.42424197,0,42.0,42.0,?
2017-08-01 19:18:45.085024,4554.454545,0,4191.78787837,0,3921.33333294,2748.84848457,3882.18181779,0,4281.93939351,0,4450.90909046,0,4200.03030261,0,4334.99999957,0,4999.03030253,0,4219.60606018,0,4428.2424238,0,4252.06060564,0,4836.24242376,0,4494.69696925,0,42.0,42.0,?
2017-08-01 19:18:45.089493,4554.96969651,0,4192.30302988,0,3922.87878749,2748.84848457,3881.66666628,0,4282.96969654,0,4456.57575713,0,4215.48484806,0,4337.06060563,0,5007.78787829,0,4213.93939352,0,4422.57575713,0,4256.69696927,0,4831.60606012,0,4501.39393894,0,42.0,42.0,?
2017-08-01 19:18:45.093957,4553.93939348,0,4188.69696928,0,3929.06060567,2748.84848457,3881.66666628,0,4294.81818139,0,4463.27272683,0,4228.36363594,0,4347.87878744,0,5029.93939344,0,4215.48484806,0,4417.9393935,0,4261.84848442,0,4829.54545406,0,4508.09090864,0,42.0,42.0,?
2017-08-01 19:18:45.097338,4548.27272682,0,4188.69696928,0,3927.51515112,2748.84848457,3878.57575719,0,4297.90909048,0,4464.30302986,0,4223.7272723,0,4353.03030259,0,5033.03030253,0,4212.90909049,0,4412.78787835,0,4258.75757533,0,4829.54545406,0,4498.30302985,0,42.0,42.0,?
2017-08-01 19:18:45.100851,4543.63636318,0,4187.15151473,0,3920.30302991,2748.84848457,3871.87878749,0,4293.27272684,0,4460.18181774,0,4204.66666625,0,4343.24242381,0,5011.39393889,0,4203.1212117,0,4411.2424238,0,4249.99999958,0,4827.484848,0,4488.51515107,0,42.0,42.0,?
2017-08-01 19:18:45.104772,4547.7575753,0,4189.21212079,0,3920.30302991,2748.84848457,3874.96969658,0,4287.60606018,0,4456.06060561,0,4189.72727231,0,4333.96969654,0,4997.9999995,0,4203.1212117,0,4414.33333289,0,4248.96969654,0,4824.90909043,0,4486.96969652,0,42.0,42.0,?
2017-08-01 19:18:45.108070,4545.69696924,0,4188.69696928,0,3922.87878749,2748.84848457,3881.15151476,0,4286.06060563,0,4456.57575713,0,4193.84848443,0,4340.15151472,0,5003.15151465,0,4205.69696928,0,4410.72727229,0,4255.15151473,0,4821.30302982,0,4487.48484804,0,42.0,42.0,?
2017-08-01 19:18:45.112514,4535.39393894,0,4185.60606019,0,3918.75757537,2748.84848457,3878.57575719,0,4293.27272684,0,4463.78787834,0,4208.27272685,0,4352.51515108,0,5013.96969647,0,4205.69696928,0,4405.57575714,0,4258.24242382,0,4818.21212073,0,4493.66666622,0,42.0,42.0,?
2017-08-01 19:18:45.116001,4537.454545,0,4188.69696928,0,3915.15151476,2748.84848457,3879.60606022,0,4294.30302987,0,4468.42424198,0,4219.09090867,0,4350.96969653,0,5019.12121162,0,4209.8181814,0,4410.21212077,0,4258.24242382,0,4819.24242376,0,4498.30302985,0,42.0,42.0,?
2017-08-01 19:18:45.122525,4549.81818136,0,4186.63636322,0,3920.30302991,2748.84848457,3885.27272688,0,4286.06060563,0,4464.30302986,0,4224.24242382,0,4344.27272684,0,5020.15151465,0,4219.09090867,0,4422.57575713,0,4257.21212079,0,4827.99999952,0,4502.42424197,0,42.0,42.0,?
2017-08-01 19:18:45.131268,4551.36363591,0,4186.63636322,0,3919.7878784,2748.84848457,3877.54545416,0,4284.51515109,0,4455.5454541,0,4220.1212117,0,4343.75757532,0,5014.9999995,0,4221.15151473,0,4424.12121168,0,4257.21212079,0,4829.54545406,0,4503.454545,0,42.0,42.0,?
2017-08-01 19:18:45.137526,4537.96969652,0,4188.18181776,0,3909.48484809,2748.84848457,3862.0909087,0,4289.66666624,0,4451.42424198,0,4215.48484806,0,4344.78787835,0,5007.78787829,0,4212.90909049,0,4409.69696926,0,4253.09090867,0,4818.21212073,0,4492.12121167,0,42.0,42.0,?
2017-08-01 19:18:45.145554,4529.21212076,0,4186.63636322,0,3905.36363597,2748.84848457,3859.51515113,0,4289.66666624,0,4458.63636319,0,4219.60606018,0,4348.39393896,0,5001.09090859,0,4196.93939352,0,4400.42424198,0,4249.99999958,0,4809.96969649,0,4479.24242379,0,42.0,42.0,?
2017-08-01 19:18:45.155183,4538.48484803,0,4190.24242382,0,3913.0909087,2748.84848457,3878.57575719,0,4288.63636321,0,4469.96969652,0,4224.24242382,0,4354.06060563,0,5005.21212071,0,4191.78787837,0,4407.6363632,0,4253.09090867,0,4817.1818177,0,4481.81818137,0,42.0,42.0,?
2017-08-01 19:18:45.162524,4545.18181773,0,4188.69696928,0,3914.63636324,2748.84848457,3890.42424204,0,4290.69696927,0,4472.03030258,0,4224.75757534,0,4353.03030259,0,5017.06060556,0,4209.30302988,0,4413.30302986,0,4254.1212117,0,4829.03030255,0,4497.78787834,0,42.0,42.0,?
2017-08-01 19:18:45.170664,4540.03030258,0,4188.18181776,0,3909.99999961,2748.84848457,3867.24242386,0,4283.99999957,0,4460.18181774,0,4221.66666624,0,4342.72727229,0,5014.9999995,0,4222.18181776,0,4408.15151471,0,4251.54545412,0,4829.03030255,0,4502.42424197,0,42.0,42.0,?
2017-08-01 19:18:45.177476,4534.36363591,0,4189.21212079,0,3912.06060567,2748.84848457,3854.87878749,0,4278.33333291,0,4455.03030258,0,4217.54545412,0,4341.18181775,0,5007.78787829,0,4219.60606018,0,4407.12121168,0,4252.57575715,0,4823.8787874,0,4489.5454541,0,42.0,42.0,?
2017-08-01 19:18:45.185674,4536.93939349,0,4187.15151473,0,3911.54545415,2748.84848457,3875.99999961,0,4285.0303026,0,4460.18181774,0,4212.39393897,0,4346.84848441,0,5011.39393889,0,4206.72727231,0,4410.21212077,0,4252.06060564,0,4821.30302982,0,4482.33333289,0,42.0,42.0,?
2017-08-01 19:18:45.196920,4543.63636318,0,4189.21212079,0,3907.93939355,2748.84848457,3889.90909052,0,4289.66666624,0,4461.21212077,0,4203.1212117,0,4336.54545411,0,5008.3030298,0,4194.87878746,0,4407.12121168,0,4251.03030261,0,4818.21212073,0,4488.51515107,0,42.0,42.0,?
2017-08-01 19:18:45.200832,4545.18181773,0,4187.66666625,0,3911.03030264,2748.84848457,3879.60606022,0,4282.96969654,0,4457.60606016,0,4195.39393897,0,4324.69696926,0,5001.60606011,0,4200.03030261,0,4401.45454501,0,4250.51515109,0,4814.09090861,0,4491.09090864,0,42.0,42.0,?
2017-08-01 19:18:45.209001,4544.66666621,0,4188.69696928,0,3917.72727234,2748.84848457,3875.4848481,0,4277.81818139,0,4457.60606016,0,4197.45454503,0,4333.96969654,0,5010.87878738,0,4208.78787837,0,4405.06060562,0,4249.99999958,0,4816.66666619,0,4489.03030258,0,42.0,42.0,?
2017-08-01 19:18:45.217682,4541.06060561,0,4193.33333291,0,3915.15151476,2748.84848457,3882.69696931,0,4280.90909048,0,4459.66666622,0,4201.06060564,0,4342.21212078,0,5019.63636313,0,4200.54545413,0,4412.78787835,0,4250.51515109,0,4819.24242376,0,4496.24242379,0,42.0,42.0,?
2017-08-01 19:18:45.223673,4536.93939349,0,4189.72727231,0,3910.51515112,2748.84848457,3882.69696931,0,4281.93939351,0,4461.21212077,0,4202.60606019,0,4333.45454502,0,5009.33333283,0,4200.54545413,0,4412.78787835,0,4251.03030261,0,4813.57575709,0,4500.87878743,0,42.0,42.0,?
2017-08-01 19:18:45.233783,4545.69696924,0,4188.69696928,0,3915.15151476,2748.84848457,3878.57575719,0,4281.424242,0,4464.30302986,0,4210.33333291,0,4328.30302987,0,5003.15151465,0,4216.51515109,0,4410.21212077,0,4250.51515109,0,4815.63636315,0,4500.87878743,0,42.0,42.0,?
2017-08-01 19:18:45.239774,4555.48484803,0,4188.69696928,0,3914.12121173,2748.84848457,3873.42424204,0,4287.09090866,0,4466.36363592,0,4220.1212117,0,4338.09090866,0,5011.90909041,0,4218.06060564,0,4414.84848441,0,4253.09090867,0,4828.51515103,0,4502.93939349,0,42.0,42.0,?
2017-08-01 19:18:45.249231,4553.93939348,0,4189.21212079,0,3913.0909087,2748.84848457,3875.99999961,0,4295.3333329,0,4466.87878743,0,4226.30302988,0,4349.9393935,0,5014.48484798,0,4217.03030261,0,4423.09090865,0,4259.27272685,0,4837.27272679,0,4505.51515106,0,42.0,42.0,?
2017-08-01 19:18:45.255700,4553.93939348,0,4193.84848443,0,3922.87878749,2748.84848457,3885.27272688,0,4293.78787836,0,4469.45454501,0,4224.75757534,0,4354.57575714,0,5005.72727223,0,4226.30302988,0,4425.15151471,0,4258.75757533,0,4831.09090861,0,4505.51515106,0,42.0,42.0,?
2017-08-01 19:18:45.267861,4555.48484803,3020.84848455,4189.21212079,0,3926.48484809,2748.84848457,3884.75757537,0,4289.15151472,0,4469.96969652,0,4215.48484806,0,4353.54545411,0,5007.27272677,0,4220.63636321,0,4417.9393935,0,4250.51515109,0,4821.30302982,0,4505.51515106,0,42.0,42.0,?
2017-08-01 19:18:45.271615,4550.33333288,3020.84848455,4185.09090867,1232.24242412,3924.93939355,2748.84848457,3884.75757537,0,4290.69696927,0,4468.93939349,0,4208.27272685,0,4348.90909047,0,5013.96969647,0,4205.69696928,0,4411.2424238,0,4248.96969654,0,4820.27272679,0,4501.39393894,0,42.0,42.0,?
2017-08-01 19:18:45.282350,4543.63636318,3020.84848455,4187.66666625,1232.24242412,3931.12121173,2748.84848457,3895.06060567,0,4293.27272684,0,4468.42424198,0,4202.60606019,0,4343.24242381,0,5014.48484798,0,4202.60606019,0,4410.72727229,0,4252.57575715,0,4821.30302982,0,4497.27272682,4112.96969656,42.0,42.0,?
2017-08-01 19:18:45.287497,4543.12121167,3020.84848455,4192.30302988,1232.24242412,3931.63636324,2744.72727245,3903.30302991,0,4292.24242381,0,4466.36363592,0,4196.424242,0,4338.09090866,0,5010.36363586,0,4204.15151473,0,4412.78787835,0,4252.57575715,0,4818.21212073,0,4495.21212076,4112.96969656,42.0,42.0,?
2017-08-01 19:18:45.298250,4542.60606015,3020.84848455,4192.8181814,1232.24242412,3926.99999961,2744.72727245,3895.06060567,2967.27272698,4293.27272684,0,4465.33333289,0,4194.36363594,0,4331.39393896,0,5003.66666617,0,4208.27272685,0,4411.2424238,0,4248.45454503,0,4815.12121164,0,4481.30302985,4112.96969656,42.0,42.0,?
2017-08-01 19:18:45.307520,4538.48484803,3020.84848455,4185.60606019,1232.24242412,3930.0909087,2744.72727245,3886.81818143,2967.27272698,4295.84848442,70.0606060536,4469.96969652,0,4201.57575716,0,4333.45454502,0,5004.18181768,0,4218.57575715,0,4407.6363632,0,4247.424242,0,4813.57575709,0,4470.99999955,4112.96969656,42.0,42.0,?
2017-08-01 19:18:45.313283,4541.06060561,3020.84848455,4188.18181776,1232.24242412,3931.63636324,2744.72727245,3882.69696931,2967.27272698,4293.27272684,70.0606060536,4473.57575713,4187.15151473,4211.36363594,0,4342.21212078,0,5010.36363586,0,4211.36363594,0,4411.75757532,0,4249.48484806,0,4817.69696922,0,4479.75757531,4112.96969656,42.0,42.0,?
2017-08-01 19:18:45.319009,4544.1515147,3020.84848455,4190.75757534,1232.24242412,3925.45454506,2744.72727245,3876.51515113,2967.27272698,4288.12121169,70.0606060536,4475.12121167,4187.15151473,4219.09090867,3243.39393907,4350.45454502,0,5013.45454495,0,4206.21212079,0,4418.96969653,0,4249.48484806,0,4824.90909043,0,4491.09090864,4112.96969656,42.0,42.0,?
2017-08-01 19:18:45.328408,4540.03030258,3020.84848455,4185.09090867,1232.24242412,3925.45454506,2744.72727245,3885.27272688,2967.27272698,4289.66666624,70.0606060536,4476.66666622,4187.15151473,4228.36363594,3243.39393907,4358.69696926,2728.24242397,5018.09090859,0,4223.21212079,0,4419.48484804,0,4249.48484806,0,4824.90909043,0,4493.1515147,4112.96969656,42.0,42.0,?
2017-08-01 19:18:45.334328,4541.06060561,3020.84848455,4190.24242382,1232.24242412,3927.51515112,2744.72727245,3903.30302991,2967.27272698,4294.81818139,70.0606060536,4475.12121167,4187.15151473,4230.424242,3243.39393907,4357.15151472,2728.24242397,5020.66666616,2930.18181789,4214.96969655,0,4415.87878744,0,4252.57575715,0,4824.90909043,0,4484.39393895,4112.96969656,42.0,42.0,?
2017-08-01 19:18:45.341643,4544.1515147,3020.84848455,4188.18181776,1232.24242412,3924.42424203,2744.72727245,3898.66666628,2967.27272698,4293.78787836,70.0606060536,4469.96969652,4187.15151473,4222.18181776,3243.39393907,4347.36363593,2728.24242397,5011.39393889,2930.18181789,4194.36363594,135.999999986,4421.03030259,0,4254.1212117,0,4828.51515103,0,4475.12121167,4112.96969656,42.0,42.0,?
2017-08-01 19:18:45.349966,4543.63636318,3020.84848455,4186.1212117,1232.24242412,3923.90909052,2744.72727245,3881.15151476,2967.27272698,4282.96969654,70.0606060536,4466.36363592,4187.15151473,4213.424242,3243.39393907,4340.15151472,2728.24242397,4999.54545405,2930.18181789,4204.66666625,135.999999986,4431.84848441,3552.48484813,4250.51515109,0,4825.42424194,0,4473.06060561,4112.96969656,42.0,42.0,?
2017-08-01 19:18:45.357823,4546.21212076,3020.84848455,4192.8181814,1232.24242412,3927.51515112,2744.72727245,3878.57575719,2967.27272698,4279.87878745,70.0606060536,4467.90909046,4187.15151473,4213.424242,3243.39393907,4341.69696926,2728.24242397,5010.36363586,2930.18181789,4218.57575715,135.999999986,4427.72727228,3552.48484813,4251.03030261,2658.18181792,4820.78787831,0,4485.93939349,4112.96969656,42.0,42.0,?
2017-08-01 19:18:45.365733,4549.30302985,3020.84848455,4189.72727231,1232.24242412,3926.99999961,2744.72727245,3884.24242385,2967.27272698,4288.63636321,70.0606060536,4470.99999955,4187.15151473,4209.30302988,3243.39393907,4345.30302987,2728.24242397,5023.24242374,2930.18181789,4212.90909049,135.999999986,4417.42424198,3552.48484813,4254.1212117,2658.18181792,4823.36363588,2979.63636334,4502.42424197,4112.96969656,42.0,42.0,?
2017-08-01 19:18:45.372503,4550.84848439,3020.84848455,4185.60606019,1232.24242412,3927.51515112,2744.72727245,3884.24242385,2967.27272698,4290.18181775,70.0606060536,4465.8484844,4187.15151473,4198.48484806,3243.39393907,4342.72727229,2728.24242397,5010.36363586,2930.18181789,4205.18181776,135.999999986,4415.36363592,3552.48484813,4245.87878745,2658.18181792,4824.39393891,2979.63636334,4498.81818137,4112.96969656,42.0,42.0,?
2017-08-01 19:18:45.383808,4549.30302985,3020.84848455,4185.09090867,1232.24242412,3928.54545415,2744.72727245,3884.75757537,2967.27272698,4285.54545412,70.0606060536,4455.03030258,4187.15151473,4196.93939352,3243.39393907,4342.72727229,2728.24242397,4996.96969647,2930.18181789,4201.06060564,135.999999986,4413.81818138,3544.24242389,4239.69696927,2658.18181792,4819.75757528,2979.63636334,4489.03030258,4112.96969656,42.0,42.0,?
2017-08-01 19:18:45.389173,4547.7575753,3020.84848455,4190.75757534,1232.24242412,3924.93939355,2744.72727245,3887.84848446,2967.27272698,4281.93939351,70.0606060536,4451.93939349,4187.15151473,4197.96969655,3243.39393907,4343.24242381,2728.24242397,5001.09090859,2930.18181789,4195.39393897,135.999999986,4411.2424238,3544.24242389,4247.424242,2662.30303004,4819.75757528,2979.63636334,4486.96969652,4112.96969656,42.0,42.0,?
2017-08-01 19:18:45.398417,4552.90909045,3020.84848455,4186.1212117,1232.24242412,3931.63636324,2744.72727245,3900.72727234,2967.27272698,4291.21212078,70.0606060536,4455.5454541,4187.15151473,4208.27272685,3243.39393907,4349.9393935,2728.24242397,5025.3030298,2930.18181789,4210.33333291,135.999999986,4430.81818138,3544.24242389,4246.39393897,2662.30303004,4826.96969649,2979.63636334,4502.42424197,4112.96969656,42.0,42.0,?
2017-08-01 19:18:45.405024,4552.90909045,3020.84848455,4186.1212117,1232.24242412,3931.63636324,2744.72727245,3900.72727234,2967.27272698,4291.21212078,70.0606060536,4455.5454541,4187.15151473,4208.27272685,3243.39393907,4349.9393935,2728.24242397,5025.3030298,2930.18181789,4210.33333291,135.999999986,4430.81818138,3544.24242389,4246.39393897,2662.30303004,4826.96969649,2979.63636334,4502.42424197,4112.96969656,42.0,42.0,?
2017-08-01 19:18:45.414204,4557.54545409,3020.84848455,4189.21212079,1232.24242412,3933.18181779,2744.72727245,3887.33333294,2967.27272698,4285.54545412,70.0606060536,4451.42424198,4187.15151473,4209.30302988,3243.39393907,4344.27272684,2728.24242397,5017.57575707,2930.18181789,4207.24242382,135.999999986,4426.18181774,3544.24242389,4246.39393897,2662.30303004,4826.96969649,2979.63636334,4502.42424197,4112.96969656,42.0,42.0,?
2017-08-01 19:18:45.421444,4552.90909045,3020.84848455,4190.24242382,1232.24242412,3928.03030264,2744.72727245,3884.75757537,2967.27272698,4279.87878745,70.0606060536,4453.99999955,4187.15151473,4211.36363594,3243.39393907,4339.6363632,2728.24242397,4997.48484799,2930.18181789,4211.87878746,135.999999986,4422.57575713,3544.24242389,4249.99999958,2662.30303004,4826.45454497,2979.63636334,4501.39393894,4112.96969656,42.0,42.0,?
2017-08-01 19:18:45.429063,4542.60606015,3020.84848455,4187.66666625,1232.24242412,3924.42424203,2744.72727245,3891.96969658,2967.27272698,4283.99999957,70.0606060536,4460.69696925,4187.15151473,4218.06060564,3243.39393907,4347.87878744,2728.24242397,4997.9999995,2930.18181789,4211.87878746,135.999999986,4416.39393895,3544.24242389,4247.424242,2662.30303004,4818.21212073,2979.63636334,4501.39393894,4112.96969656,42.0,42.0,?
2017-08-01 19:18:45.440345,4536.93939349,3020.84848455,4189.21212079,1232.24242412,3923.90909052,2744.72727245,3891.96969658,2967.27272698,4285.54545412,70.0606060536,4458.63636319,4187.15151473,4214.45454503,3243.39393907,4345.81818138,2728.24242397,5006.75757526,2930.18181789,4196.424242,135.999999986,4401.96969653,3544.24242389,4239.18181776,2662.30303004,4807.90909043,2979.63636334,4486.96969652,4112.96969656,42.0,42.0,?
2017-08-01 19:18:45.444525,4536.93939349,3020.84848455,4184.57575716,1232.24242412,3918.75757537,2744.72727245,3891.96969658,2967.27272698,4285.0303026,70.0606060536,4456.57575713,4187.15151473,4203.63636322,3243.39393907,4334.99999957,2728.24242397,4992.33333283,2930.18181789,4193.33333291,135.999999986,4397.33333289,3544.24242389,4238.15151473,2662.30303004,4807.90909043,2979.63636334,4473.57575713,4112.96969656,42.0,42.0,?
2017-08-01 19:18:45.452700,4546.21212076,3020.84848455,4187.66666625,1232.24242412,3924.42424203,2744.72727245,3898.15151476,2967.27272698,4293.78787836,70.0606060536,4463.27272683,4187.15151473,4208.78787837,3243.39393907,4343.75757532,2728.24242397,4987.6969692,2930.18181789,4205.69696928,135.999999986,4418.45454501,3544.24242389,4247.93939351,2662.30303004,4820.27272679,2979.63636334,4490.57575713,4112.96969656,42.0,42.0,?
2017-08-01 19:18:45.458582,4558.57575712,3020.84848455,4193.84848443,1232.24242412,3936.27272688,2744.72727245,3899.18181779,2967.27272698,4299.45454502,70.0606060536,4464.30302986,4187.15151473,4221.15151473,3243.39393907,4361.27272684,2728.24242397,5021.69696919,2930.18181789,4214.45454503,135.999999986,4436.99999956,3544.24242389,4257.21212079,2662.30303004,4838.30302982,2979.63636334,4518.39393894,4112.96969656,42.0,42.0,?
2017-08-01 19:18:45.468658,4559.09090864,3020.84848455,4189.72727231,1232.24242412,3932.66666627,2744.72727245,3889.393939,2967.27272698,4288.63636321,70.0606060536,4456.06060561,4187.15151473,4218.57575715,3243.39393907,4361.27272684,2728.24242397,5042.3030298,2930.18181789,4210.84848443,135.999999986,4427.72727228,3544.24242389,4251.54545412,2662.30303004,4843.96969649,2979.63636334,4519.93939349,4112.96969656,42.0,42.0,?
2017-08-01 19:18:45.475285,4551.87878742,3020.84848455,4188.69696928,1232.24242412,3924.42424203,2744.72727245,3889.393939,2967.27272698,4276.27272685,70.0606060536,4449.87878743,4187.15151473,4208.27272685,3243.39393907,4347.87878744,2728.24242397,5013.96969647,2930.18181789,4199.5151511,135.999999986,4422.06060562,3544.24242389,4238.66666624,2662.30303004,4834.69696921,2979.63636334,4500.87878743,4112.96969656,42.0,42.0,?
2017-08-01 19:18:45.482608,4551.87878742,3020.84848455,4186.63636322,1232.24242412,3921.84848446,2744.72727245,3899.18181779,2967.27272698,4278.33333291,70.0606060536,4452.45454501,4187.15151473,4207.24242382,3243.39393907,4343.24242381,2728.24242397,4996.96969647,2930.18181789,4203.1212117,135.999999986,4432.36363592,3544.24242389,4238.66666624,2662.30303004,4830.57575709,2979.63636334,4489.03030258,4112.96969656,42.0,42.0,?
2017-08-01 19:18:45.489877,4559.60606015,3020.84848455,4187.15151473,1232.24242412,3921.33333294,2744.72727245,3887.84848446,2967.27272698,4285.0303026,70.0606060536,4458.12121168,4187.15151473,4215.99999958,3243.39393907,4347.87878744,2728.24242397,5012.42424192,2930.18181789,4222.18181776,135.999999986,4429.78787834,3544.24242389,4247.93939351,2662.30303004,4839.33333285,2979.63636334,4495.21212076,4112.96969656,42.0,42.0,?
2017-08-01 19:18:45.498646,4556.51515106,3020.84848455,4190.75757534,1232.24242412,3920.30302991,2744.72727245,3870.84848446,2967.27272698,4280.90909048,70.0606060536,4457.09090865,4187.15151473,4215.48484806,3243.39393907,4344.27272684,2728.24242397,5007.27272677,2930.18181789,4226.30302988,135.999999986,4416.90909047,3544.24242389,4248.96969654,2662.30303004,4837.7878783,2979.63636334,4506.03030258,4112.96969656,42.0,42.0,?
2017-08-01 19:18:45.506730,4550.33333288,3020.84848455,4186.63636322,1232.24242412,3922.36363597,2744.72727245,3886.30302991,2967.27272698,4279.36363594,70.0606060536,4451.42424198,4187.15151473,4210.84848443,3243.39393907,4335.51515108,2728.24242397,4993.36363586,2930.18181789,4213.93939352,135.999999986,4424.63636319,3544.24242389,4246.90909048,2662.30303004,4833.66666618,2979.63636334,4508.09090864,4112.96969656,42.0,42.0,?
2017-08-01 19:18:45.513557,4559.60606015,3020.84848455,4187.66666625,1232.24242412,3928.03030264,2744.72727245,3903.81818143,2967.27272698,4289.15151472,70.0606060536,4455.03030258,4187.15151473,4215.48484806,3243.39393907,4337.57575714,2728.24242397,5007.27272677,2930.18181789,4206.21212079,135.999999986,4440.60606016,3544.24242389,4248.96969654,2662.30303004,4844.99999952,2979.63636334,4500.36363591,4112.96969656,42.0,42.0,?
2017-08-01 19:18:45.522651,4563.72727227,3020.84848455,4190.24242382,1232.24242412,3928.54545415,2744.72727245,3895.57575719,2967.27272698,4293.78787836,70.0606060536,4462.75757531,4187.15151473,4220.63636321,3243.39393907,4344.27272684,2728.24242397,5028.39393889,2930.18181789,4208.78787837,135.999999986,4433.90909047,3544.24242389,4248.45454503,2662.30303004,4850.66666618,2979.63636334,4499.33333288,4112.96969656,42.0,42.0,?
2017-08-01 19:18:45.532786,4553.93939348,3020.84848455,4188.69696928,1232.24242412,3920.81818143,2744.72727245,3889.90909052,2967.27272698,4285.54545412,70.0606060536,4460.69696925,4187.15151473,4215.48484806,3243.39393907,4345.30302987,2728.24242397,5026.33333283,2930.18181789,4215.48484806,135.999999986,4420.51515107,3544.24242389,4243.81818139,2662.30303004,4841.90909042,2979.63636334,4507.06060561,4112.96969656,42.0,42.0,?
2017-08-01 19:18:45.537186,4554.96969651,3020.84848455,4189.72727231,1232.24242412,3919.7878784,2744.72727245,3898.15151476,2967.27272698,4286.06060563,70.0606060536,4458.12121168,4187.15151473,4207.75757534,3243.39393907,4346.3333329,2728.24242397,5008.81818132,2930.18181789,4219.60606018,135.999999986,4427.21212077,3544.24242389,4241.75757533,2662.30303004,4842.42424194,2979.63636334,4503.454545,4112.96969656,42.0,42.0,?
2017-08-01 19:18:45.544993,4563.21212076,3020.84848455,4187.66666625,1232.24242412,3924.93939355,2744.72727245,3899.69696931,2967.27272698,4290.18181775,70.0606060536,4460.69696925,4187.15151473,4206.21212079,3243.39393907,4345.81818138,2728.24242397,5007.78787829,2930.18181789,4220.63636321,135.999999986,4434.42424198,3544.24242389,4243.81818139,2662.30303004,4850.66666618,2979.63636334,4500.87878743,4112.96969656,42.0,42.0,?
2017-08-01 19:18:45.554790,4563.72727227,3020.84848455,4189.21212079,1232.24242412,3920.81818143,2744.72727245,3887.33333294,2967.27272698,4284.51515109,70.0606060536,4458.12121168,4187.15151473,4204.15151473,3243.39393907,4337.57575714,2728.24242397,5018.6060601,2930.18181789,4218.57575715,135.999999986,4428.75757531,3544.24242389,4243.30302988,2662.30303004,4844.99999952,2979.63636334,4502.42424197,4112.96969656,42.0,42.0,?
2017-08-01 19:18:45.561078,4558.57575712,3020.84848455,4190.24242382,1232.24242412,3916.69696931,2744.72727245,3877.54545416,2967.27272698,4286.57575715,70.0606060536,4455.5454541,4187.15151473,4204.15151473,3243.39393907,4337.57575714,2728.24242397,5021.69696919,2930.18181789,4217.54545412,135.999999986,4428.75757531,3544.24242389,4243.81818139,2662.30303004,4836.75757527,2979.63636334,4497.27272682,4112.96969656,42.0,42.0,?
2017-08-01 19:18:45.569487,4558.57575712,3020.84848455,4188.18181776,1232.24242412,3925.45454506,2744.72727245,3894.03030264,2967.27272698,4298.42424199,70.0606060536,4458.12121168,4187.15151473,4210.84848443,3243.39393907,4348.90909047,2728.24242397,5020.15151465,2930.18181789,4222.69696927,135.999999986,4434.42424198,3544.24242389,4246.90909048,2662.30303004,4840.36363588,2979.63636334,4502.93939349,4112.96969656,42.0,42.0,?
2017-08-01 19:18:45.575910,4562.18181773,3020.84848455,4190.24242382,1232.24242412,3932.66666627,2744.72727245,3918.75757537,2967.27272698,4298.42424199,70.0606060536,4454.51515107,4187.15151473,4213.93939352,3243.39393907,4351.99999956,2728.24242397,5023.75757526,2930.18181789,4223.7272723,135.999999986,4430.81818138,3544.24242389,4245.87878745,2662.30303004,4842.42424194,2979.63636334,4516.33333288,4112.96969656,42.0,42.0,?
2017-08-01 19:18:45.583679,4554.96969651,3020.84848455,4188.18181776,1232.24242412,3923.393939,2744.72727245,3910.51515112,2967.27272698,4288.63636321,70.0606060536,4446.78787834,4187.15151473,4206.21212079,3243.39393907,4342.72727229,2728.24242397,5019.12121162,2930.18181789,4209.8181814,135.999999986,4415.87878744,3544.24242389,4235.57575715,2662.30303004,4832.63636315,2979.63636334,4506.03030258,4112.96969656,42.0,42.0,?
2017-08-01 19:18:45.593626,4545.69696924,3020.84848455,4188.69696928,1232.24242412,3916.18181779,2744.72727245,3890.93939355,2967.27272698,4282.45454503,70.0606060536,4445.2424238,4187.15151473,4197.96969655,3243.39393907,4332.93939351,2728.24242397,5002.12121162,2930.18181789,4200.54545413,135.999999986,4409.69696926,3544.24242389,4233.51515109,2662.30303004,4830.57575709,2979.63636334,4486.45454501,4112.96969656,42.0,42.0,?
2017-08-01 19:18:45.599977,4549.30302985,3020.84848455,4190.75757534,1232.24242412,3919.27272688,2744.72727245,3896.60606022,2967.27272698,4279.87878745,70.0606060536,4451.93939349,4187.15151473,4205.18181776,3243.39393907,4336.0303026,2728.24242397,5001.60606011,2930.18181789,4209.8181814,135.999999986,4416.39393895,3544.24242389,4240.7272723,2662.30303004,4837.7878783,2979.63636334,4489.5454541,4112.96969656,42.0,42.0,?
2017-08-01 19:18:45.607630,4550.33333288,3020.84848455,4184.57575716,1232.24242412,3913.60606021,2744.72727245,3895.06060567,2967.27272698,4281.424242,70.0606060536,4458.63636319,4187.15151473,4213.424242,3243.39393907,4343.75757532,2728.24242397,5014.9999995,2930.18181789,4211.87878746,135.999999986,4405.06060562,3544.24242389,4241.75757533,2662.30303004,4831.09090861,2979.63636334,4493.1515147,4112.96969656,42.0,42.0,?
2017-08-01 19:18:45.615320,4542.09090864,3020.84848455,4188.18181776,1232.24242412,3907.42424203,2744.72727245,3878.57575719,2967.27272698,4279.87878745,70.0606060536,4455.5454541,4187.15151473,4207.75757534,3243.39393907,4337.06060563,2728.24242397,5011.90909041,2930.18181789,4200.03030261,135.999999986,4392.69696926,3544.24242389,4239.69696927,2662.30303004,4821.30302982,2979.63636334,4479.75757531,4112.96969656,42.0,42.0,?
2017-08-01 19:18:45.622546,4540.03030258,3020.84848455,4192.8181814,1232.24242412,3909.99999961,2744.72727245,3882.18181779,2967.27272698,4275.24242381,70.0606060536,4446.27272683,4187.15151473,4201.06060564,3243.39393907,4326.75757532,2728.24242397,4999.54545405,2930.18181789,4201.57575716,135.999999986,4407.12121168,3544.24242389,4237.1212117,2662.30303004,4826.96969649,2979.63636334,4473.06060561,4112.96969656,42.0,42.0,?
2017-08-01 19:18:45.632050,4547.24242379,3020.84848455,4189.72727231,1232.24242412,3912.06060567,2744.72727245,3898.15151476,2967.27272698,4272.15151472,70.0606060536,4444.21212077,4187.15151473,4204.15151473,3243.39393907,4326.75757532,2728.24242397,4998.51515102,2930.18181789,4209.8181814,135.999999986,4421.5454541,3544.24242389,4237.63636321,2662.30303004,4834.69696921,2979.63636334,4480.27272682,4112.96969656,42.0,42.0,?
2017-08-01 19:18:45.639506,4549.81818136,3020.84848455,4193.33333291,1232.24242412,3915.66666628,2744.72727245,3901.24242385,2967.27272698,4273.18181775,70.0606060536,4446.78787834,4187.15151473,4208.78787837,3243.39393907,4329.84848442,2728.24242397,5002.12121162,2930.18181789,4204.15151473,135.999999986,4414.84848441,3544.24242389,4239.69696927,2662.30303004,4833.66666618,2979.63636334,4490.06060561,4112.96969656,42.0,42.0,?
2017-08-01 19:18:45.649953,4548.27272682,3020.84848455,4192.8181814,1232.24242412,3922.87878749,2744.72727245,3896.0909087,2967.27272698,4278.84848442,70.0606060536,4443.18181774,4187.15151473,4203.63636322,3243.39393907,4333.96969654,2728.24242397,5002.63636314,2930.18181789,4200.54545413,135.999999986,4407.12121168,3544.24242389,4234.54545412,2662.30303004,4830.06060558,2979.63636334,4492.63636319,4112.96969656,42.0,42.0,?
2017-08-01 19:18:45.655077,4547.24242379,3020.84848455,4190.75757534,1232.24242412,3919.7878784,2744.72727245,3886.30302991,2967.27272698,4273.69696927,70.0606060536,4433.39393895,4187.15151473,4188.69696928,3243.39393907,4332.42424199,2728.24242397,4997.9999995,2930.18181789,4204.15151473,135.999999986,4405.57575714,3544.24242389,4234.03030261,2662.30303004,4833.66666618,2979.63636334,4486.96969652,4112.96969656,42.0,42.0,?
2017-08-01 19:18:45.664406,4545.69696924,3020.84848455,4189.21212079,1232.24242412,3910.51515112,2744.72727245,3881.66666628,2967.27272698,4263.39393897,70.0606060536,4424.12121168,4187.15151473,4179.42424201,3243.39393907,4327.27272684,2728.24242397,4995.93939344,2930.18181789,4208.27272685,135.999999986,4407.12121168,3544.24242389,4238.15151473,2662.30303004,4838.81818133,2979.63636334,4482.8484844,4112.96969656,42.0,42.0,?
2017-08-01 19:18:45.671524,4541.57575712,3020.84848455,4185.09090867,1232.24242412,3907.42424203,2744.72727245,3882.69696931,2967.27272698,4262.87878745,70.0606060536,4419.99999956,4187.15151473,4180.96969655,3243.39393907,4325.72727229,2728.24242397,4999.54545405,2930.18181789,4213.93939352,135.999999986,4411.75757532,3544.24242389,4238.15151473,2662.30303004,4835.21212073,2979.63636334,4480.27272682,4112.96969656,42.0,42.0,?
2017-08-01 19:18:45.679966,4535.39393894,3020.84848455,4185.60606019,1232.24242412,3905.87878749,2744.72727245,3876.51515113,2967.27272698,4267.51515109,70.0606060536,4428.75757531,4187.15151473,4184.06060564,3243.39393907,4325.21212078,2728.24242397,4994.39393889,2930.18181789,4204.15151473,135.999999986,4403.51515107,3544.24242389,4236.09090867,2662.30303004,4822.33333285,2979.63636334,4472.5454541,4112.96969656,42.0,42.0,?
2017-08-01 19:18:45.686318,4534.36363591,3020.84848455,4187.15151473,1232.24242412,3908.45454506,2744.72727245,3878.57575719,2967.27272698,4273.18181775,70.0606060536,4441.12121168,4187.15151473,4191.78787837,3243.39393907,4327.27272684,2728.24242397,4991.3030298,2930.18181789,4188.18181776,135.999999986,4395.27272683,3544.24242389,4234.03030261,2662.30303004,4817.1818177,2979.63636334,4476.66666622,4112.96969656,42.0,42.0,?
2017-08-01 19:18:45.694950,4547.24242379,3020.84848455,4192.8181814,1232.24242412,3916.69696931,2744.72727245,3900.72727234,2967.27272698,4279.36363594,70.0606060536,4443.18181774,4187.15151473,4207.75757534,3243.39393907,4332.42424199,2728.24242397,4997.9999995,2930.18181789,4201.06060564,135.999999986,4409.69696926,3544.24242389,4236.09090867,2662.30303004,4832.12121164,2979.63636334,4490.57575713,4112.96969656,42.0,42.0,?
2017-08-01 19:18:45.714810,4552.90909045,3020.84848455,4191.27272685,1232.24242412,3913.60606021,2744.72727245,3903.81818143,2967.27272698,4276.27272685,70.0606060536,4435.96969653,4187.15151473,4215.48484806,3243.39393907,4338.09090866,2728.24242397,5004.18181768,2930.18181789,4219.60606018,135.999999986,4422.57575713,3544.24242389,4239.69696927,2662.30303004,4847.06060558,2979.63636334,4494.69696925,4112.96969656,42.0,42.0,?
2017-08-01 19:18:45.714990,4542.09090864,3020.84848455,4188.18181776,1232.24242412,3907.42424203,2744.72727245,3882.18181779,2967.27272698,4261.84848442,70.0606060536,4425.66666622,4187.15151473,4197.96969655,3243.39393907,4336.54545411,2728.24242397,5007.78787829,2930.18181789,4204.15151473,135.999999986,4401.45454501,3544.24242389,4231.96969655,2662.30303004,4828.51515103,2979.63636334,4489.03030258,4112.96969656,42.0,42.0,?
2017-08-01 19:18:45.716886,4542.09090864,3020.84848455,4188.18181776,1232.24242412,3907.42424203,2744.72727245,3882.18181779,2967.27272698,4261.84848442,70.0606060536,4425.66666622,4187.15151473,4197.96969655,3243.39393907,4336.54545411,2728.24242397,5007.78787829,2930.18181789,4204.15151473,135.999999986,4401.45454501,3544.24242389,4231.96969655,2662.30303004,4828.51515103,2979.63636334,4489.03030258,4112.96969656,42.0,42.0,?
2017-08-01 19:18:45.724627,4539.51515106,3020.84848455,4188.69696928,1232.24242412,3907.93939355,2744.72727245,3894.03030264,2967.27272698,4264.424242,70.0606060536,4428.75757531,4187.15151473,4191.78787837,3243.39393907,4328.30302987,2728.24242397,4997.48484799,2930.18181789,4204.15151473,135.999999986,4399.90909047,3544.24242389,4232.48484806,2662.30303004,4821.81818134,2979.63636334,4481.30302985,4112.96969656,42.0,42.0,?
2017-08-01 19:18:45.733543,4536.93939349,3020.84848455,4187.15151473,1232.24242412,3899.18181779,2744.72727245,3884.24242385,2967.27272698,4259.27272685,70.0606060536,4430.81818138,4187.15151473,4178.39393898,3243.39393907,4314.90909048,2728.24242397,4972.75757526,2930.18181789,4198.99999958,135.999999986,4403.51515107,3544.24242389,4235.57575715,2662.30303004,4825.42424194,2979.63636334,4470.99999955,4112.96969656,42.0,42.0,?
2017-08-01 19:18:45.741520,4543.12121167,3020.84848455,4188.18181776,1232.24242412,3902.7878784,2744.72727245,3874.96969658,2967.27272698,4259.27272685,70.0606060536,4428.2424238,4187.15151473,4170.66666625,3243.39393907,4307.69696927,2728.24242397,4968.63636314,2930.18181789,4197.96969655,135.999999986,4409.18181774,3544.24242389,4238.15151473,2662.30303004,4838.30302982,2979.63636334,4478.72727228,4112.96969656,42.0,42.0,?
2017-08-01 19:18:45.748047,4550.84848439,3020.84848455,4188.69696928,1232.24242412,3909.48484809,2744.72727245,3885.27272688,2967.27272698,4261.33333291,70.0606060536,4424.12121168,4187.15151473,4170.15151473,3243.39393907,4306.66666624,2728.24242397,4983.06060556,2930.18181789,4204.66666625,135.999999986,4407.12121168,3544.24242389,4235.06060564,2662.30303004,4838.30302982,2979.63636334,4493.66666622,4112.96969656,42.0,42.0,?
2017-08-01 19:18:45.757611,4544.1515147,3020.84848455,4190.24242382,1232.24242412,3905.36363597,2744.72727245,3884.75757537,2967.27272698,4259.27272685,70.0606060536,4422.06060562,4187.15151473,4170.15151473,3243.39393907,4309.75757533,2728.24242397,4992.33333283,2930.18181789,4202.09090867,135.999999986,4399.90909047,3544.24242389,4227.33333291,2662.30303004,4822.84848437,2979.63636334,4490.57575713,4112.96969656,42.0,42.0,?
2017-08-01 19:18:45.769043,4530.24242379,3020.84848455,4186.1212117,1232.24242412,3900.21212082,2744.72727245,3872.39393901,2967.27272698,4260.30302988,70.0606060536,4425.66666622,4187.15151473,4180.45454504,3243.39393907,4323.66666623,2728.24242397,5000.06060556,2930.18181789,4198.99999958,135.999999986,4401.96969653,3544.24242389,4229.39393897,2662.30303004,4819.24242376,2979.63636334,4481.81818137,4112.96969656,42.0,42.0,?
2017-08-01 19:18:45.772451,4534.87878743,3029.09090879,4187.15151473,1232.24242412,3903.81818143,2744.72727245,3889.393939,2967.27272698,4265.45454503,70.0606060536,4431.84848441,4187.15151473,4199.5151511,3243.39393907,4337.57575714,2728.24242397,5003.66666617,2930.18181789,4202.60606019,135.999999986,4413.81818138,3544.24242389,4237.63636321,2662.30303004,4831.60606012,2979.63636334,4479.75757531,4112.96969656,42.0,42.0,?
2017-08-01 19:18:45.782311,4546.72727227,3029.09090879,4189.21212079,1199.27272715,3903.81818143,2744.72727245,3899.18181779,2967.27272698,4268.0303026,70.0606060536,4433.90909047,4187.15151473,4208.27272685,3243.39393907,4337.06060563,2728.24242397,4996.45454495,2930.18181789,4208.27272685,135.999999986,4413.81818138,3544.24242389,4236.60606018,2662.30303004,4833.66666618,2979.63636334,4477.18181773,4112.96969656,42.0,42.0,?
2017-08-01 19:18:45.786565,4542.09090864,3029.09090879,4186.63636322,1199.27272715,3898.15151476,2744.72727245,3871.87878749,2967.27272698,4268.54545412,70.0606060536,4437.51515107,4187.15151473,4208.27272685,3243.39393907,4328.81818139,2728.24242397,4990.78787829,2930.18181789,4209.30302988,135.999999986,4405.06060562,3544.24242389,4232.99999958,2662.30303004,4831.60606012,2979.63636334,4478.21212076,4112.96969656,42.0,42.0,?
2017-08-01 19:18:45.794770,4537.454545,3029.09090879,4188.69696928,1199.27272715,3901.24242385,2765.33333306,3873.42424204,2967.27272698,4266.99999957,70.0606060536,4440.09090865,4187.15151473,4207.24242382,3243.39393907,4323.15151472,2728.24242397,4987.6969692,2930.18181789,4200.03030261,135.999999986,4401.96969653,3544.24242389,4231.96969655,2662.30303004,4838.30302982,2979.63636334,4490.57575713,4112.96969656,42.0,42.0,?
2017-08-01 19:18:45.806845,4542.09090864,3029.09090879,4187.15151473,1199.27272715,3907.42424203,2765.33333306,3906.393939,2975.51515122,4269.06060563,70.0606060536,4433.39393895,4187.15151473,4199.5151511,3243.39393907,4319.54545411,2728.24242397,4986.15151465,2930.18181789,4195.39393897,135.999999986,4405.06060562,3544.24242389,4235.06060564,2662.30303004,4841.39393891,2979.63636334,4495.72727228,4112.96969656,42.0,42.0,?
2017-08-01 19:18:45.812145,4542.60606015,3029.09090879,4187.15151473,1199.27272715,3904.84848446,2765.33333306,3902.7878784,2975.51515122,4269.06060563,74.1818181744,4423.09090865,4187.15151473,4191.27272685,3243.39393907,4320.06060563,2728.24242397,4994.90909041,2930.18181789,4197.96969655,135.999999986,4399.39393895,3544.24242389,4234.54545412,2662.30303004,4831.60606012,2979.63636334,4481.81818137,4112.96969656,42.0,42.0,?
2017-08-01 19:18:45.819394,4533.33333288,3029.09090879,4189.72727231,1199.27272715,3899.18181779,2765.33333306,3873.42424204,2975.51515122,4261.33333291,74.1818181744,4417.42424198,4199.5151511,4182.5151511,3243.39393907,4321.60606017,2728.24242397,5002.63636314,2930.18181789,4199.5151511,135.999999986,4392.18181774,3544.24242389,4228.36363594,2662.30303004,4815.63636315,2979.63636334,4469.45454501,4112.96969656,42.0,42.0,?
2017-08-01 19:18:45.827004,4531.78787833,3029.09090879,4186.63636322,1199.27272715,3899.18181779,2765.33333306,3877.03030264,2975.51515122,4261.33333291,74.1818181744,4417.42424198,4199.5151511,4178.39393898,3243.39393907,4323.15151472,2728.24242397,5003.15151465,2930.18181789,4205.18181776,135.999999986,4401.96969653,3544.24242389,4228.87878746,2662.30303004,4812.03030255,2979.63636334,4473.57575713,4112.96969656,42.0,42.0,?
2017-08-01 19:18:45.834634,4536.42424197,3029.09090879,4188.69696928,1199.27272715,3903.81818143,2765.33333306,3897.63636325,2975.51515122,4270.09090866,74.1818181744,4417.42424198,4199.5151511,4180.96969655,3243.39393907,4320.06060563,2732.36363609,4994.39393889,2930.18181789,4209.8181814,135.999999986,4409.18181774,3544.24242389,4226.8181814,2662.30303004,4821.30302982,2979.63636334,4478.21212076,4112.96969656,42.0,42.0,?
2017-08-01 19:18:45.842437,4536.42424197,3029.09090879,4189.21212079,1199.27272715,3905.36363597,2765.33333306,3890.93939355,2975.51515122,4266.48484806,74.1818181744,4413.81818138,4199.5151511,4179.93939352,3243.39393907,4311.81818139,2732.36363609,4976.36363587,2917.81818153,4200.03030261,135.999999986,4399.39393895,3544.24242389,4224.24242382,2662.30303004,4830.57575709,2979.63636334,4480.27272682,4112.96969656,42.0,42.0,?
2017-08-01 19:18:45.851611,4533.33333288,3029.09090879,4185.60606019,1199.27272715,3904.33333294,2765.33333306,3868.27272689,2975.51515122,4255.66666624,74.1818181744,4410.21212077,4199.5151511,4177.87878746,3243.39393907,4312.84848442,2732.36363609,4976.36363587,2917.81818153,4190.75757534,135.999999986,4392.69696926,3544.24242389,4231.96969655,2662.30303004,4831.09090861,2979.63636334,4486.45454501,4112.96969656,42.0,42.0,?
2017-08-01 19:18:45.858249,4531.27272682,3029.09090879,4188.69696928,1199.27272715,3903.30302991,2765.33333306,3868.7878784,2975.51515122,4257.7272723,74.1818181744,4415.36363592,4199.5151511,4183.54545413,3243.39393907,4323.15151472,2732.36363609,4999.54545405,2917.81818153,4200.54545413,135.999999986,4397.33333289,3556.60606025,4234.54545412,2662.30303004,4827.99999952,2979.63636334,4491.60606016,4112.96969656,42.0,42.0,?
2017-08-01 19:18:45.866167,4530.24242379,3029.09090879,4186.63636322,1199.27272715,3901.75757537,2765.33333306,3893.51515113,2975.51515122,4268.54545412,74.1818181744,4429.27272683,4199.5151511,4193.33333291,3243.39393907,4329.84848442,2732.36363609,5002.63636314,2917.81818153,4213.93939352,135.999999986,4393.72727229,3556.60606025,4229.90909049,2662.30303004,4827.99999952,2979.63636334,4485.42424198,4112.96969656,42.0,42.0,?
2017-08-01 19:18:45.873574,4533.8484844,3029.09090879,4185.60606019,1199.27272715,3901.75757537,2765.33333306,3903.81818143,2975.51515122,4273.69696927,74.1818181744,4438.5454541,4199.5151511,4194.87878746,3243.39393907,4325.72727229,2732.36363609,4979.96969647,2917.81818153,4208.27272685,135.999999986,4390.6363632,3556.60606025,4226.30302988,2662.30303004,4829.03030255,2967.27272698,4468.93939349,4112.96969656,42.0,42.0,?
2017-08-01 19:18:45.881535,4541.06060561,3029.09090879,4188.18181776,1199.27272715,3903.30302991,2765.33333306,3898.66666628,2975.51515122,4272.15151472,74.1818181744,4440.60606016,4199.5151511,4194.36363594,3243.39393907,4323.15151472,2732.36363609,4982.03030253,2917.81818153,4198.48484806,131.878787866,4400.9393935,3556.60606025,4228.36363594,2662.30303004,4827.484848,2967.27272698,4471.51515107,4112.96969656,42.0,42.0,?
2017-08-01 19:18:45.889961,4544.1515147,3029.09090879,4187.15151473,1199.27272715,3903.81818143,2765.33333306,3888.36363597,2975.51515122,4264.93939351,74.1818181744,4435.96969653,4199.5151511,4192.8181814,3243.39393907,4319.0303026,2732.36363609,4998.51515102,2917.81818153,4200.54545413,131.878787866,4410.21212077,3556.60606025,4229.39393897,2662.30303004,4826.96969649,2967.27272698,4494.18181773,4112.96969656,42.0,42.0,?
2017-08-01 19:18:45.900877,4537.454545,3029.09090879,4187.66666625,1199.27272715,3903.81818143,2765.33333306,3883.21212082,2975.51515122,4255.66666624,74.1818181744,4426.18181774,4199.5151511,4188.69696928,3243.39393907,4307.69696927,2732.36363609,4987.6969692,2917.81818153,4194.36363594,131.878787866,4408.15151471,3556.60606025,4227.33333291,2662.30303004,4829.03030255,2967.27272698,4493.1515147,4112.96969656,42.0,42.0,?
2017-08-01 19:18:45.905994,4527.66666621,3029.09090879,4186.1212117,1199.27272715,3901.24242385,2765.33333306,3898.66666628,2975.51515122,4256.69696927,74.1818181744,4423.09090865,4199.5151511,4187.66666625,3243.39393907,4304.09090866,2732.36363609,4969.15151465,2917.81818153,4183.03030261,131.878787866,4397.84848441,3556.60606025,4226.30302988,2662.30303004,4830.06060558,2967.27272698,4475.63636319,4112.96969656,42.0,42.0,?
2017-08-01 19:18:45.914075,4530.7575753,3029.09090879,4186.1212117,1199.27272715,3898.66666628,2765.33333306,3919.7878784,2975.51515122,4264.93939351,74.1818181744,4425.15151471,4199.5151511,4187.15151473,3243.39393907,4315.42424199,2732.36363609,4973.27272678,2917.81818153,4192.30302988,131.878787866,4395.78787835,3556.60606025,4229.90909049,2662.30303004,4835.21212073,2967.27272698,4472.03030258,4112.96969656,42.0,42.0,?
2017-08-01 19:18:45.919575,4540.03030258,3029.09090879,4187.15151473,1199.27272715,3899.18181779,2765.33333306,3920.81818143,2975.51515122,4262.36363594,74.1818181744,4418.45454501,4199.5151511,4190.75757534,3243.39393907,4330.87878745,2732.36363609,4997.9999995,2917.81818153,4211.36363594,131.878787866,4405.57575714,3556.60606025,4235.06060564,2662.30303004,4842.93939346,2967.27272698,4479.24242379,4112.96969656,42.0,42.0,?
2017-08-01 19:18:45.935322,4543.12121167,3029.09090879,4187.66666625,1199.27272715,3900.21212082,2765.33333306,3915.66666628,2975.51515122,4253.09090867,74.1818181744,4408.66666623,4199.5151511,4191.27272685,3243.39393907,4333.96969654,2732.36363609,5012.42424192,2917.81818153,4212.39393897,131.878787866,4413.81818138,3556.60606025,4232.48484806,2662.30303004,4843.45454497,2967.27272698,4485.42424198,4112.96969656,42.0,42.0,?
2017-08-01 19:18:45.937469,4544.1515147,3029.09090879,4190.24242382,1199.27272715,3900.72727234,2765.33333306,3924.93939355,2975.51515122,4255.66666624,74.1818181744,4411.2424238,4199.5151511,4180.96969655,3243.39393907,4321.09090866,2732.36363609,4990.78787829,2917.81818153,4201.06060564,131.878787866,4409.18181774,3556.60606025,4227.33333291,2662.30303004,4838.30302982,2967.27272698,4488.51515107,4112.96969656,42.0,42.0,?
2017-08-01 19:18:45.944031,4542.60606015,3029.09090879,4187.15151473,1199.27272715,3900.72727234,2765.33333306,3933.18181779,2975.51515122,4269.06060563,74.1818181744,4421.5454541,4199.5151511,4172.21212079,3243.39393907,4312.3333329,2732.36363609,4972.24242375,2917.81818153,4200.03030261,131.878787866,4405.57575714,3556.60606025,4227.84848443,2662.30303004,4837.7878783,2967.27272698,4486.45454501,4112.96969656,42.0,42.0,?
2017-08-01 19:18:45.956617,4543.63636318,3029.09090879,4188.69696928,1199.27272715,3901.24242385,2765.33333306,3929.57575718,2975.51515122,4272.66666624,74.1818181744,4426.18181774,4199.5151511,4174.27272686,3243.39393907,4318.51515108,2732.36363609,4984.09090859,2917.81818153,4198.99999958,131.878787866,4412.27272683,3556.60606025,4230.424242,2662.30303004,4842.93939346,2967.27272698,4490.06060561,4112.96969656,42.0,42.0,?
2017-08-01 19:18:45.960559,4548.27272682,3029.09090879,4191.27272685,1199.27272715,3904.84848446,2765.33333306,3931.63636324,2975.51515122,4266.99999957,74.1818181744,4425.15151471,4199.5151511,4174.27272686,3243.39393907,4320.06060563,2732.36363609,4992.33333283,2917.81818153,4194.87878746,131.878787866,4412.78787835,3556.60606025,4228.36363594,2662.30303004,4844.484848,2967.27272698,4496.75757531,4112.96969656,42.0,42.0,?
2017-08-01 19:18:45.966997,4541.06060561,3029.09090879,4185.09090867,1199.27272715,3906.393939,2765.33333306,3939.36363597,2975.51515122,4268.0303026,74.1818181744,4424.12121168,4199.5151511,4175.30302989,3243.39393907,4313.87878745,2732.36363609,4985.63636314,2917.81818153,4197.96969655,131.878787866,4404.54545411,3556.60606025,4224.24242382,2662.30303004,4840.36363588,2967.27272698,4489.5454541,4112.96969656,42.0,42.0,?
2017-08-01 19:18:45.975646,4534.87878743,3029.09090879,4190.75757534,1199.27272715,3908.96969658,2765.33333306,3938.33333294,2975.51515122,4269.06060563,74.1818181744,4423.60606016,4199.5151511,4184.57575716,3243.39393907,4314.39393896,2732.36363609,4983.57575708,2917.81818153,4202.09090867,131.878787866,4402.48484804,3556.60606025,4226.30302988,2662.30303004,4838.81818133,2967.27272698,4477.69696925,4112.96969656,42.0,42.0,?
2017-08-01 19:18:45.986149,4540.54545409,3029.09090879,4193.84848443,1199.27272715,3914.12121173,2765.33333306,3927.51515112,2975.51515122,4268.0303026,74.1818181744,4427.72727228,4199.5151511,4190.24242382,3243.39393907,4319.54545411,2732.36363609,4982.54545405,2917.81818153,4203.63636322,131.878787866,4410.21212077,3556.60606025,4232.48484806,2662.30303004,4840.36363588,2967.27272698,4477.69696925,4112.96969656,42.0,42.0,?
2017-08-01 19:18:45.991021,4542.60606015,3029.09090879,4187.66666625,1199.27272715,3919.7878784,2765.33333306,3918.24242385,2975.51515122,4268.54545412,74.1818181744,4437.51515107,4199.5151511,4187.66666625,3243.39393907,4315.93939351,2732.36363609,4976.87878738,2917.81818153,4200.03030261,131.878787866,4415.36363592,3556.60606025,4231.45454503,2662.30303004,4839.84848436,2967.27272698,4485.93939349,4112.96969656,42.0,42.0,?
2017-08-01 19:18:46.002686,4537.454545,3029.09090879,4190.75757534,1199.27272715,3920.81818143,2765.33333306,3919.7878784,2975.51515122,4269.57575715,74.1818181744,4438.03030259,4199.5151511,4181.99999958,3243.39393907,4304.09090866,2732.36363609,4974.30302981,2917.81818153,4196.424242,131.878787866,4416.39393895,3556.60606025,4225.78787837,2662.30303004,4836.75757527,2967.27272698,4488.51515107,4112.96969656,42.0,42.0,?
2017-08-01 19:18:46.006336,4531.27272682,3029.09090879,4189.72727231,1199.27272715,3916.18181779,2765.33333306,3929.06060567,2975.51515122,4268.0303026,74.1818181744,4429.27272683,4199.5151511,4179.93939352,3243.39393907,4302.54545412,2732.36363609,4974.81818132,2917.81818153,4193.33333291,131.878787866,4409.18181774,3556.60606025,4224.75757534,2662.30303004,4834.69696921,2967.27272698,4478.72727228,4112.96969656,42.0,42.0,?
2017-08-01 19:18:46.013550,4528.69696924,3029.09090879,4185.60606019,1199.27272715,3913.0909087,2765.33333306,3931.63636324,2975.51515122,4266.99999957,74.1818181744,4424.12121168,4199.5151511,4183.54545413,3243.39393907,4315.42424199,2732.36363609,4979.45454496,2917.81818153,4186.63636322,131.878787866,4394.75757532,3556.60606025,4227.33333291,2662.30303004,4827.484848,2967.27272698,4461.21212077,4112.96969656,42.0,42.0,?
2017-08-01 19:18:46.024545,4527.66666621,3029.09090879,4186.1212117,1199.27272715,3913.0909087,2765.33333306,3924.42424203,2975.51515122,4265.96969654,74.1818181744,4417.42424198,4199.5151511,4183.54545413,3243.39393907,4322.12121169,2732.36363609,4983.57575708,2917.81818153,4188.18181776,131.878787866,4389.09090865,3556.60606025,4222.18181776,2662.30303004,4814.09090861,2967.27272698,4456.06060561,4112.96969656,42.0,42.0,?
2017-08-01 19:18:46.030151,4529.72727227,3029.09090879,4185.60606019,1199.27272715,3918.24242385,2765.33333306,3924.93939355,2975.51515122,4262.87878745,74.1818181744,4401.45454501,4199.5151511,4179.93939352,3243.39393907,4317.48484805,2732.36363609,4978.93939344,2917.81818153,4194.36363594,131.878787866,4406.09090865,3556.60606025,4217.54545412,2662.30303004,4814.09090861,2967.27272698,4473.06060561,4112.96969656,42.0,42.0,?
2017-08-01 19:18:46.040624,4537.96969652,3029.09090879,4189.72727231,1199.27272715,3926.99999961,2765.33333306,3931.12121173,2975.51515122,4260.30302988,74.1818181744,4391.66666623,4199.5151511,4178.39393898,3243.39393907,4319.0303026,2732.36363609,4980.48484799,2917.81818153,4193.33333291,131.878787866,4425.15151471,3556.60606025,4223.21212079,2662.30303004,4831.60606012,2967.27272698,4486.45454501,4112.96969656,42.0,42.0,?
2017-08-01 19:18:46.045566,4542.60606015,3029.09090879,4190.24242382,1199.27272715,3924.93939355,2765.33333306,3924.93939355,2975.51515122,4260.30302988,74.1818181744,4400.42424198,4199.5151511,4177.36363595,3243.39393907,4319.54545411,2732.36363609,4976.87878738,2917.81818153,4196.424242,131.878787866,4425.15151471,3556.60606025,4226.30302988,2662.30303004,4842.93939346,2967.27272698,4486.96969652,4112.96969656,42.0,42.0,?
2017-08-01 19:18:46.054207,4546.72727227,3029.09090879,4189.21212079,1199.27272715,3922.87878749,2765.33333306,3919.27272688,2975.51515122,4262.36363594,74.1818181744,4414.84848441,4199.5151511,4176.33333292,3243.39393907,4306.15151472,2732.36363609,4965.03030253,2917.81818153,4206.21212079,131.878787866,4417.9393935,3556.60606025,4226.8181814,2662.30303004,4841.90909042,2967.27272698,4486.96969652,4112.96969656,42.0,42.0,?
2017-08-01 19:18:46.061629,4547.7575753,3029.09090879,4189.72727231,1199.27272715,3926.48484809,2765.33333306,3924.93939355,2975.51515122,4264.424242,74.1818181744,4430.30302986,4199.5151511,4176.84848443,3243.39393907,4299.45454502,2732.36363609,4969.66666617,2917.81818153,4196.424242,131.878787866,4412.27272683,3556.60606025,4225.27272685,2662.30303004,4833.15151467,2967.27272698,4483.36363592,4112.96969656,42.0,42.0,?
2017-08-01 19:18:46.069263,4540.03030258,3029.09090879,4186.1212117,1199.27272715,3917.72727234,2765.33333306,3924.42424203,2975.51515122,4264.93939351,74.1818181744,4443.69696925,4199.5151511,4176.84848443,3243.39393907,4305.12121169,2732.36363609,4980.48484799,2917.81818153,4177.36363595,131.878787866,4407.12121168,3556.60606025,4219.60606018,2662.30303004,4825.93939346,2967.27272698,4476.1515147,4112.96969656,42.0,42.0,?
2017-08-01 19:18:46.076574,4533.8484844,3029.09090879,4186.63636322,1199.27272715,3907.42424203,2765.33333306,3924.42424203,2975.51515122,4265.45454503,74.1818181744,4450.39393895,4199.5151511,4179.42424201,3243.39393907,4306.66666624,2732.36363609,4973.78787829,2917.81818153,4180.45454504,131.878787866,4409.18181774,3556.60606025,4220.63636321,2662.30303004,4832.12121164,2967.27272698,4476.66666622,4112.96969656,42.0,42.0,?
2017-08-01 19:18:46.086144,4538.99999955,3029.09090879,4187.15151473,1199.27272715,3917.72727234,2765.33333306,3940.90909052,2975.51515122,4277.81818139,74.1818181744,4456.06060561,4199.5151511,4190.24242382,3243.39393907,4314.39393896,2732.36363609,4972.75757526,2917.81818153,4194.87878746,131.878787866,4417.9393935,3556.60606025,4224.75757534,2662.30303004,4843.96969649,2967.27272698,4485.93939349,4112.96969656,42.0,42.0,?
2017-08-01 19:18:46.094570,4548.78787833,3029.09090879,4189.21212079,1199.27272715,3931.63636324,2765.33333306,3942.96969658,2975.51515122,4288.63636321,74.1818181744,4452.45454501,4199.5151511,4196.424242,3243.39393907,4327.27272684,2732.36363609,4989.24242374,2917.81818153,4198.48484806,131.878787866,4423.09090865,3556.60606025,4221.66666624,2662.30303004,4841.39393891,2967.27272698,4491.60606016,4112.96969656,42.0,42.0,?
2017-08-01 19:18:46.099902,4543.12121167,3029.09090879,4190.24242382,1199.27272715,3924.42424203,2765.33333306,3928.54545415,2975.51515122,4280.90909048,74.1818181744,4436.48484804,4199.5151511,4191.27272685,3243.39393907,4326.24242381,2732.36363609,4992.84848435,2917.81818153,4192.30302988,131.878787866,4416.39393895,3556.60606025,4218.57575715,2662.30303004,4827.484848,2967.27272698,4490.57575713,4112.96969656,42.0,42.0,?
2017-08-01 19:18:46.109744,4526.63636318,3029.09090879,4185.09090867,1199.27272715,3915.15151476,2765.33333306,3930.60606021,2975.51515122,4273.18181775,74.1818181744,4428.75757531,4199.5151511,4191.27272685,3243.39393907,4321.60606017,2732.36363609,4989.24242374,2917.81818153,4193.33333291,131.878787866,4406.09090865,3556.60606025,4223.21212079,2662.30303004,4821.81818134,2967.27272698,4486.45454501,4112.96969656,42.0,42.0,?
2017-08-01 19:18:46.116516,4529.72727227,3029.09090879,4189.21212079,1199.27272715,3922.87878749,2765.33333306,3931.12121173,2975.51515122,4278.33333291,74.1818181744,4428.75757531,4199.5151511,4198.99999958,3243.39393907,4325.21212078,2732.36363609,4992.33333283,2917.81818153,4199.5151511,131.878787866,4408.66666623,3556.60606025,4224.75757534,2662.30303004,4829.03030255,2967.27272698,4485.42424198,4112.96969656,42.0,42.0,?
2017-08-01 19:18:46.125077,4545.69696924,3029.09090879,4191.78787837,1199.27272715,3929.06060567,2765.33333306,3923.90909052,2975.51515122,4281.93939351,74.1818181744,4421.5454541,4199.5151511,4201.06060564,3243.39393907,4323.15151472,2732.36363609,4994.90909041,2917.81818153,4198.48484806,131.878787866,4418.96969653,3556.60606025,4223.7272723,2662.30303004,4836.75757527,2967.27272698,4487.99999955,4112.96969656,42.0,42.0,?
2017-08-01 19:18:46.132291,4547.24242379,3029.09090879,4187.66666625,1199.27272715,3921.84848446,2765.33333306,3925.96969658,2975.51515122,4272.66666624,74.1818181744,4412.78787835,4199.5151511,4189.21212079,3243.39393907,4310.27272684,2732.36363609,4985.63636314,2917.81818153,4195.90909049,131.878787866,4413.81818138,3556.60606025,4224.75757534,2662.30303004,4838.81818133,2967.27272698,4486.96969652,4112.96969656,42.0,42.0,?
2017-08-01 19:18:46.138590,4540.54545409,3029.09090879,4188.18181776,1199.27272715,3917.72727234,2765.33333306,3931.12121173,2975.51515122,4268.0303026,74.1818181744,4419.99999956,4199.5151511,4176.33333292,3243.39393907,4303.57575715,2732.36363609,4975.33333284,2917.81818153,4192.30302988,131.878787866,4404.54545411,3556.60606025,4222.18181776,2662.30303004,4833.66666618,2967.27272698,4487.48484804,4112.96969656,42.0,42.0,?
2017-08-01 19:18:46.148431,4542.60606015,3029.09090879,4189.21212079,1199.27272715,3922.87878749,2765.33333306,3927.51515112,2975.51515122,4278.84848442,74.1818181744,4440.60606016,4199.5151511,4177.87878746,3243.39393907,4312.3333329,2732.36363609,4988.21212071,2917.81818153,4189.72727231,131.878787866,4414.84848441,3556.60606025,4223.7272723,2662.30303004,4833.66666618,2967.27272698,4491.60606016,4112.96969656,42.0,42.0,?
2017-08-01 19:18:46.155120,4549.30302985,3029.09090879,4190.24242382,1199.27272715,3925.45454506,2765.33333306,3931.12121173,2975.51515122,4286.06060563,74.1818181744,4455.03030258,4199.5151511,4188.18181776,3243.39393907,4322.12121169,2732.36363609,4997.9999995,2917.81818153,4194.87878746,131.878787866,4424.63636319,3556.60606025,4226.8181814,2662.30303004,4838.81818133,2967.27272698,4489.5454541,4112.96969656,42.0,42.0,?
2017-08-01 19:18:46.164211,4548.78787833,3029.09090879,4189.21212079,1199.27272715,3923.90909052,2765.33333306,3945.03030264,2975.51515122,4282.45454503,74.1818181744,4450.39393895,4199.5151511,4200.54545413,3243.39393907,4328.30302987,2732.36363609,4989.75757526,2917.81818153,4209.30302988,131.878787866,4419.48484804,3556.60606025,4228.87878746,2662.30303004,4840.36363588,2967.27272698,4491.60606016,4112.96969656,42.0,42.0,?
2017-08-01 19:18:46.170580,4546.21212076,3029.09090879,4186.63636322,1199.27272715,3924.42424203,2765.33333306,3946.06060567,2975.51515122,4280.90909048,74.1818181744,4445.75757531,4199.5151511,4208.78787837,3243.39393907,4336.0303026,2732.36363609,4992.84848435,2917.81818153,4217.54545412,131.878787866,4416.39393895,3556.60606025,4230.424242,2662.30303004,4840.87878739,2967.27272698,4500.87878743,4112.96969656,42.0,42.0,?
2017-08-01 19:18:46.180329,4547.24242379,3029.09090879,4191.78787837,1199.27272715,3926.48484809,2765.33333306,3933.18181779,2975.51515122,4284.51515109,74.1818181744,4450.90909046,4199.5151511,4209.8181814,3243.39393907,4338.09090866,2732.36363609,5000.06060556,2917.81818153,4211.87878746,131.878787866,4421.03030259,3556.60606025,4226.8181814,2662.30303004,4843.96969649,2967.27272698,4497.27272682,4112.96969656,42.0,42.0,?
2017-08-01 19:18:46.187678,4547.7575753,3029.09090879,4190.75757534,1199.27272715,3923.90909052,2765.33333306,3922.36363597,2975.51515122,4281.93939351,74.1818181744,4451.42424198,4199.5151511,4206.72727231,3243.39393907,4333.96969654,2732.36363609,4998.51515102,2917.81818153,4204.66666625,131.878787866,4424.63636319,3556.60606025,4226.8181814,2662.30303004,4851.1818177,2967.27272698,4494.69696925,4112.96969656,42.0,42.0,?
2017-08-01 19:18:46.196931,4552.39393894,3029.09090879,4189.21212079,1199.27272715,3922.36363597,2765.33333306,3925.96969658,2975.51515122,4280.90909048,74.1818181744,4446.78787834,4199.5151511,4203.63636322,3243.39393907,4329.84848442,2732.36363609,4992.84848435,2917.81818153,4200.03030261,131.878787866,4430.30302986,3556.60606025,4232.48484806,2662.30303004,4859.93939345,2967.27272698,4494.69696925,4112.96969656,42.0,42.0,?
2017-08-01 19:18:46.203947,4556.51515106,3029.09090879,4191.78787837,1199.27272715,3925.45454506,2765.33333306,3940.90909052,2975.51515122,4283.48484806,74.1818181744,4447.30302986,4199.5151511,4195.90909049,3243.39393907,4327.27272684,2732.36363609,4989.24242374,2917.81818153,4198.48484806,131.878787866,4428.2424238,3556.60606025,4230.424242,2662.30303004,4860.45454497,2967.27272698,4487.48484804,4112.96969656,42.0,42.0,?
2017-08-01 19:18:46.210171,4552.90909045,3029.09090879,4189.21212079,1199.27272715,3925.45454506,2765.33333306,3945.54545415,2975.51515122,4280.39393897,74.1818181744,4444.72727228,4199.5151511,4191.78787837,3243.39393907,4324.69696926,2732.36363609,4996.45454495,2917.81818153,4205.69696928,131.878787866,4423.09090865,3556.60606025,4223.21212079,2662.30303004,4853.24242376,2967.27272698,4497.27272682,4112.96969656,42.0,42.0,?
2017-08-01 19:18:46.219032,4553.93939348,3029.09090879,4188.69696928,1199.27272715,3924.42424203,2765.33333306,3937.30302991,2975.51515122,4276.78787836,74.1818181744,4438.5454541,4199.5151511,4196.93939352,3243.39393907,4322.6363632,2732.36363609,5010.87878738,2917.81818153,4212.39393897,131.878787866,4429.27272683,3556.60606025,4224.24242382,2662.30303004,4854.7878783,2967.27272698,4515.30302985,4112.96969656,42.0,42.0,?
2017-08-01 19:18:46.225971,4557.54545409,3029.09090879,4188.69696928,1199.27272715,3922.36363597,2765.33333306,3932.15151476,2975.51515122,4278.84848442,74.1818181744,4440.60606016,4199.5151511,4196.424242,3243.39393907,4326.75757532,2732.36363609,5008.81818132,2917.81818153,4209.30302988,131.878787866,4430.81818138,3556.60606025,4226.8181814,2662.30303004,4859.42424194,2967.27272698,4506.54545409,4112.96969656,42.0,42.0,?
2017-08-01 19:18:46.234542,4555.48484803,3029.09090879,4188.69696928,1199.27272715,3918.75757537,2765.33333306,3932.66666627,2975.51515122,4277.81818139,74.1818181744,4447.30302986,4199.5151511,4188.18181776,3243.39393907,4331.39393896,2732.36363609,4996.96969647,2917.81818153,4200.54545413,131.878787866,4424.12121168,3556.60606025,4227.84848443,2662.30303004,4854.7878783,2967.27272698,4490.57575713,4112.96969656,42.0,42.0,?
2017-08-01 19:18:46.243306,4555.48484803,3029.09090879,4189.72727231,1199.27272715,3920.30302991,2765.33333306,3925.45454506,2975.51515122,4278.33333291,74.1818181744,4446.78787834,4199.5151511,4192.30302988,3243.39393907,4335.51515108,2732.36363609,5002.12121162,2917.81818153,4201.57575716,131.878787866,4424.63636319,3556.60606025,4231.96969655,2662.30303004,4851.1818177,2967.27272698,4490.57575713,4112.96969656,42.0,42.0,?
2017-08-01 19:18:46.249642,4557.54545409,3029.09090879,4188.18181776,1199.27272715,3924.93939355,2765.33333306,3930.0909087,2975.51515122,4285.54545412,74.1818181744,4448.33333289,4199.5151511,4204.66666625,3243.39393907,4344.27272684,2732.36363609,5009.33333283,2917.81818153,4205.18181776,131.878787866,4429.27272683,3556.60606025,4231.45454503,2662.30303004,4853.24242376,2967.27272698,4496.24242379,4112.96969656,42.0,42.0,?
2017-08-01 19:18:46.260456,4552.90909045,3029.09090879,4190.75757534,1199.27272715,3926.48484809,2765.33333306,3946.57575718,2975.51515122,4285.54545412,74.1818181744,4453.48484804,4199.5151511,4207.24242382,3243.39393907,4350.96969653,2732.36363609,5004.6969692,2917.81818153,4199.5151511,131.878787866,4425.66666622,3556.60606025,4228.36363594,2662.30303004,4851.1818177,2967.27272698,4499.8484844,4112.96969656,42.0,42.0,?
2017-08-01 19:18:46.268381,4540.03030258,3029.09090879,4188.69696928,1199.27272715,3920.30302991,2765.33333306,3948.63636324,2975.51515122,4280.39393897,74.1818181744,4450.90909046,4199.5151511,4202.60606019,3243.39393907,4343.75757532,2732.36363609,5000.57575708,2917.81818153,4193.84848443,131.878787866,4413.30302986,3556.60606025,4220.63636321,2662.30303004,4838.30302982,2967.27272698,4495.21212076,4112.96969656,42.0,42.0,?
2017-08-01 19:18:46.271993,4537.96969652,3024.96969667,4187.66666625,1199.27272715,3917.21212082,2765.33333306,3942.45454506,2975.51515122,4279.87878745,74.1818181744,4443.69696925,4199.5151511,4201.06060564,3243.39393907,4331.90909048,2732.36363609,4998.51515102,2917.81818153,4190.75757534,131.878787866,4403.51515107,3556.60606025,4216.51515109,2662.30303004,4830.06060558,2967.27272698,4481.81818137,4112.96969656,42.0,42.0,?
2017-08-01 19:18:46.283824,4544.1515147,3024.96969667,4191.27272685,1232.24242412,3920.81818143,2765.33333306,3940.90909052,2975.51515122,4280.39393897,74.1818181744,4442.15151471,4199.5151511,4195.90909049,3243.39393907,4331.39393896,2732.36363609,5000.06060556,2917.81818153,4189.72727231,131.878787866,4402.99999956,3556.60606025,4221.15151473,2662.30303004,4835.21212073,2967.27272698,4480.27272682,4112.96969656,42.0,42.0,?
2017-08-01 19:18:46.288367,4543.12121167,3024.96969667,4188.18181776,1232.24242412,3921.33333294,2765.33333306,3943.48484809,2975.51515122,4280.90909048,74.1818181744,4444.72727228,4199.5151511,4192.8181814,3243.39393907,4336.54545411,2732.36363609,5004.6969692,2917.81818153,4193.84848443,131.878787866,4412.78787835,3556.60606025,4218.57575715,2662.30303004,4839.84848436,2967.27272698,4486.45454501,4104.72727232,42.0,42.0,?
2017-08-01 19:18:46.297212,4546.72727227,3024.96969667,4188.69696928,1232.24242412,3921.84848446,2761.21212094,3948.12121173,2975.51515122,4287.60606018,74.1818181744,4449.87878743,4199.5151511,4196.93939352,3243.39393907,4337.57575714,2732.36363609,5003.66666617,2917.81818153,4207.24242382,131.878787866,4425.66666622,3556.60606025,4218.57575715,2662.30303004,4846.54545406,2967.27272698,4486.45454501,4104.72727232,42.0,42.0,?
2017-08-01 19:18:46.304769,4551.87878742,3024.96969667,4191.78787837,1232.24242412,3919.7878784,2761.21212094,3934.72727233,2975.51515122,4286.06060563,74.1818181744,4449.87878743,4199.5151511,4202.60606019,3243.39393907,4341.69696926,2732.36363609,5003.15151465,2917.81818153,4217.03030261,131.878787866,4426.69696925,3556.60606025,4224.24242382,2662.30303004,4854.27272679,2967.27272698,4487.48484804,4104.72727232,42.0,42.0,?
2017-08-01 19:18:46.311964,4548.78787833,3024.96969667,4189.21212079,1232.24242412,3915.15151476,2761.21212094,3919.7878784,2975.51515122,4272.15151472,78.3030302952,4442.15151471,4199.5151511,4200.03030261,3243.39393907,4343.24242381,2732.36363609,5010.87878738,2917.81818153,4209.8181814,131.878787866,4423.60606016,3556.60606025,4221.66666624,2662.30303004,4852.21212073,2967.27272698,4497.27272682,4104.72727232,42.0,42.0,?
2017-08-01 19:18:46.318544,4548.78787833,3024.96969667,4186.63636322,1232.24242412,3920.30302991,2761.21212094,3941.42424203,2975.51515122,4271.63636321,78.3030302952,4441.12121168,4191.27272685,4191.78787837,3243.39393907,4334.99999957,2732.36363609,5013.45454495,2917.81818153,4198.48484806,131.878787866,4423.09090865,3556.60606025,4218.06060564,2662.30303004,4850.15151467,2967.27272698,4504.99999955,4104.72727232,42.0,42.0,?
2017-08-01 19:18:46.327387,4550.33333288,3024.96969667,4187.66666625,1232.24242412,3920.81818143,2761.21212094,3961.51515112,2975.51515122,4281.93939351,78.3030302952,4447.30302986,4191.27272685,4189.72727231,3235.15151483,4329.3333329,2732.36363609,5012.42424192,2917.81818153,4203.1212117,131.878787866,4422.57575713,3556.60606025,4225.27272685,2662.30303004,4856.84848436,2967.27272698,4499.8484844,4104.72727232,42.0,42.0,?
2017-08-01 19:18:46.335554,4548.27272682,3024.96969667,4193.33333291,1232.24242412,3914.63636324,2761.21212094,3946.57575718,2975.51515122,4281.93939351,78.3030302952,4447.81818137,4191.27272685,4191.78787837,3235.15151483,4333.96969654,2728.24242397,5008.3030298,2917.81818153,4210.84848443,131.878787866,4424.63636319,3556.60606025,4227.84848443,2662.30303004,4858.90909042,2967.27272698,4491.09090864,4104.72727232,42.0,42.0,?
2017-08-01 19:18:46.343033,4550.84848439,3024.96969667,4190.24242382,1232.24242412,3917.21212082,2761.21212094,3942.45454506,2975.51515122,4281.424242,78.3030302952,4447.81818137,4191.27272685,4197.45454503,3235.15151483,4338.09090866,2728.24242397,4998.51515102,2926.06060577,4208.78787837,131.878787866,4431.84848441,3556.60606025,4221.15151473,2662.30303004,4854.7878783,2967.27272698,4495.72727228,4104.72727232,42.0,42.0,?
2017-08-01 19:18:46.350493,4557.03030257,3024.96969667,4188.69696928,1232.24242412,3922.36363597,2761.21212094,3942.96969658,2975.51515122,4285.54545412,78.3030302952,4448.8484844,4191.27272685,4202.60606019,3235.15151483,4334.99999957,2728.24242397,4993.87878738,2926.06060577,4206.21212079,131.878787866,4430.30302986,3556.60606025,4222.18181776,2662.30303004,4858.39393891,2967.27272698,4498.30302985,4104.72727232,42.0,42.0,?
2017-08-01 19:18:46.358501,4551.87878742,3024.96969667,4190.24242382,1232.24242412,3918.24242385,2761.21212094,3929.06060567,2975.51515122,4278.33333291,78.3030302952,4444.72727228,4191.27272685,4202.60606019,3235.15151483,4333.45454502,2728.24242397,4996.96969647,2926.06060577,4195.39393897,131.878787866,4423.09090865,3544.24242389,4223.7272723,2662.30303004,4856.33333285,2967.27272698,4487.99999955,4104.72727232,42.0,42.0,?
2017-08-01 19:18:46.367758,4542.60606015,3024.96969667,4184.06060564,1232.24242412,3913.60606021,2761.21212094,3929.06060567,2975.51515122,4273.18181775,78.3030302952,4443.18181774,4191.27272685,4207.24242382,3235.15151483,4342.21212078,2728.24242397,5010.36363586,2926.06060577,4185.60606019,131.878787866,4427.21212077,3544.24242389,4221.15151473,2658.18181792,4851.69696921,2967.27272698,4491.09090864,4104.72727232,42.0,42.0,?
2017-08-01 19:18:46.377645,4544.66666621,3024.96969667,4188.69696928,1232.24242412,3915.15151476,2761.21212094,3940.393939,2975.51515122,4280.90909048,78.3030302952,4448.8484844,4191.27272685,4215.48484806,3235.15151483,4343.24242381,2728.24242397,5016.03030253,2926.06060577,4194.36363594,131.878787866,4424.12121168,3544.24242389,4220.63636321,2658.18181792,4852.72727224,2967.27272698,4503.454545,4104.72727232,42.0,42.0,?
2017-08-01 19:18:46.382801,4546.21212076,3024.96969667,4191.27272685,1232.24242412,3915.15151476,2761.21212094,3943.48484809,2975.51515122,4281.424242,78.3030302952,4449.87878743,4191.27272685,4213.93939352,3235.15151483,4334.99999957,2728.24242397,5006.24242374,2926.06060577,4201.06060564,140.121212107,4408.66666623,3544.24242389,4219.60606018,2658.18181792,4842.42424194,2967.27272698,4499.8484844,4104.72727232,42.0,42.0,?
2017-08-01 19:18:46.392864,4544.1515147,3024.96969667,4186.63636322,1232.24242412,3909.48484809,2761.21212094,3938.84848445,2975.51515122,4274.21212078,78.3030302952,4447.81818137,4191.27272685,4206.72727231,3235.15151483,4331.90909048,2728.24242397,4991.81818132,2926.06060577,4188.69696928,140.121212107,4410.72727229,3552.48484813,4217.54545412,2658.18181792,4835.72727224,2967.27272698,4492.63636319,4104.72727232,42.0,42.0,?
2017-08-01 19:18:46.408167,4550.84848439,3024.96969667,4191.27272685,1232.24242412,3909.48484809,2761.21212094,3935.75757536,2975.51515122,4275.24242381,78.3030302952,4449.87878743,4191.27272685,4202.60606019,3235.15151483,4328.30302987,2728.24242397,4990.27272677,2926.06060577,4191.27272685,140.121212107,4427.21212077,3552.48484813,4220.1212117,2662.30303004,4847.57575709,2967.27272698,4487.99999955,4104.72727232,42.0,42.0,?
2017-08-01 19:18:46.414645,4543.63636318,3024.96969667,4190.24242382,1232.24242412,3915.66666628,2761.21212094,3966.66666627,2975.51515122,4279.87878745,78.3030302952,4438.03030259,4191.27272685,4189.72727231,3235.15151483,4323.66666623,2728.24242397,5004.18181768,2926.06060577,4205.18181776,140.121212107,4413.30302986,3552.48484813,4219.60606018,2662.30303004,4843.45454497,2967.27272698,4504.48484803,4104.72727232,42.0,42.0,?
2017-08-01 19:18:46.421850,4543.63636318,3024.96969667,4190.24242382,1232.24242412,3915.66666628,2761.21212094,3966.66666627,2975.51515122,4279.87878745,78.3030302952,4438.03030259,4191.27272685,4189.72727231,3235.15151483,4323.66666623,2728.24242397,5004.18181768,2926.06060577,4205.18181776,140.121212107,4413.30302986,3552.48484813,4219.60606018,2662.30303004,4843.45454497,2967.27272698,4504.48484803,4104.72727232,42.0,42.0,?
2017-08-01 19:18:46.425587,4544.1515147,3024.96969667,4191.27272685,1232.24242412,3909.48484809,2761.21212094,3929.57575718,2975.51515122,4271.12121169,78.3030302952,4436.99999956,4191.27272685,4185.60606019,3235.15151483,4324.18181775,2728.24242397,4995.42424192,2926.06060577,4187.15151473,140.121212107,4414.84848441,3552.48484813,4220.1212117,2662.30303004,4837.27272679,2967.27272698,4506.54545409,4104.72727232,42.0,42.0,?
2017-08-01 19:18:46.429510,4548.27272682,3024.96969667,4188.69696928,1232.24242412,3909.99999961,2761.21212094,3917.72727234,2975.51515122,4271.12121169,78.3030302952,4441.63636319,4191.27272685,4193.84848443,3235.15151483,4332.93939351,2728.24242397,5005.21212071,2926.06060577,4203.1212117,140.121212107,4423.60606016,3552.48484813,4220.63636321,2662.30303004,4845.51515103,2967.27272698,4495.21212076,4104.72727232,42.0,42.0,?
2017-08-01 19:18:46.438648,4545.18181773,3024.96969667,4188.69696928,1232.24242412,3914.12121173,2761.21212094,3952.24242385,2975.51515122,4272.66666624,78.3030302952,4434.42424198,4191.27272685,4200.03030261,3235.15151483,4341.69696926,2728.24242397,5023.24242374,2926.06060577,4223.21212079,140.121212107,4427.72727228,3552.48484813,4221.66666624,2662.30303004,4850.66666618,2967.27272698,4494.69696925,4104.72727232,42.0,42.0,?
2017-08-01 19:18:46.449518,4542.09090864,3024.96969667,4187.15151473,1232.24242412,3911.03030264,2761.21212094,3949.66666627,2975.51515122,4271.63636321,78.3030302952,4425.66666622,4191.27272685,4199.5151511,3235.15151483,4343.75757532,2728.24242397,5021.18181768,2926.06060577,4222.69696927,140.121212107,4424.63636319,3552.48484813,4222.18181776,2662.30303004,4849.63636315,2967.27272698,4500.87878743,4104.72727232,42.0,42.0,?
2017-08-01 19:18:46.457814,4545.69696924,3024.96969667,4187.15151473,1232.24242412,3907.93939355,2761.21212094,3924.42424203,2975.51515122,4269.57575715,78.3030302952,4428.2424238,4191.27272685,4200.03030261,3235.15151483,4339.12121169,2728.24242397,5008.3030298,2926.06060577,4209.30302988,140.121212107,4417.42424198,3552.48484813,4219.60606018,2662.30303004,4849.12121164,2967.27272698,4491.09090864,4104.72727232,42.0,42.0,?
2017-08-01 19:18:46.461608,4546.72727227,3024.96969667,4188.69696928,1232.24242412,3906.393939,2761.21212094,3932.15151476,2975.51515122,4266.99999957,78.3030302952,4427.72727228,4191.27272685,4201.06060564,3235.15151483,4328.30302987,2728.24242397,5005.72727223,2926.06060577,4193.33333291,140.121212107,4413.81818138,3552.48484813,4218.57575715,2662.30303004,4846.54545406,2967.27272698,4484.90909046,4104.72727232,42.0,42.0,?
2017-08-01 19:18:46.468090,4544.1515147,3024.96969667,4186.1212117,1232.24242412,3906.393939,2761.21212094,3948.63636324,2975.51515122,4266.99999957,78.3030302952,4428.2424238,4191.27272685,4200.03030261,3235.15151483,4322.6363632,2728.24242397,5002.12121162,2926.06060577,4198.99999958,140.121212107,4422.06060562,3552.48484813,4225.27272685,2662.30303004,4850.15151467,2967.27272698,4496.24242379,4104.72727232,42.0,42.0,?
2017-08-01 19:18:46.475529,4545.69696924,3024.96969667,4194.36363594,1232.24242412,3914.12121173,2761.21212094,3951.21212082,2975.51515122,4271.63636321,78.3030302952,4437.51515107,4191.27272685,4197.45454503,3235.15151483,4327.78787836,2728.24242397,4995.93939344,2926.06060577,4221.66666624,140.121212107,4430.81818138,3552.48484813,4227.84848443,2662.30303004,4857.87878739,2967.27272698,4493.66666622,4104.72727232,42.0,42.0,?
2017-08-01 19:18:46.483233,4542.60606015,3024.96969667,4195.90909049,1232.24242412,3915.15151476,2761.21212094,3938.84848445,2975.51515122,4271.12121169,78.3030302952,4438.03030259,4191.27272685,4191.27272685,3235.15151483,4329.84848442,2728.24242397,4995.42424192,2926.06060577,4219.09090867,140.121212107,4419.48484804,3552.48484813,4224.24242382,2662.30303004,4853.24242376,2967.27272698,4484.39393895,4104.72727232,42.0,42.0,?
2017-08-01 19:18:46.491545,4533.8484844,3024.96969667,4187.15151473,1232.24242412,3907.93939355,2761.21212094,3926.99999961,2975.51515122,4265.96969654,78.3030302952,4427.21212077,4191.27272685,4181.48484807,3235.15151483,4323.66666623,2728.24242397,5001.09090859,2926.06060577,4194.87878746,140.121212107,4405.06060562,3552.48484813,4217.54545412,2662.30303004,4837.27272679,2967.27272698,4486.96969652,4104.72727232,42.0,42.0,?
2017-08-01 19:18:46.501345,4534.87878743,3024.96969667,4191.27272685,1232.24242412,3906.90909052,2761.21212094,3945.03030264,2975.51515122,4268.54545412,78.3030302952,4424.12121168,4191.27272685,4174.78787837,3235.15151483,4322.6363632,2728.24242397,5001.09090859,2926.06060577,4188.18181776,140.121212107,4406.60606017,3552.48484813,4210.84848443,2662.30303004,4828.51515103,2967.27272698,4480.27272682,4104.72727232,42.0,42.0,?
2017-08-01 19:18:46.507645,4538.99999955,3024.96969667,4193.33333291,1232.24242412,3907.42424203,2761.21212094,3962.54545415,2975.51515122,4272.66666624,78.3030302952,4427.21212077,4191.27272685,4180.45454504,3235.15151483,4327.27272684,2728.24242397,4996.96969647,2926.06060577,4198.48484806,140.121212107,4413.30302986,3552.48484813,4213.424242,2662.30303004,4833.66666618,2967.27272698,4476.1515147,4104.72727232,42.0,42.0,?
2017-08-01 19:18:46.514828,4538.48484803,3024.96969667,4189.72727231,1232.24242412,3908.45454506,2761.21212094,3951.21212082,2975.51515122,4265.96969654,78.3030302952,4421.03030259,4191.27272685,4190.75757534,3235.15151483,4326.75757532,2728.24242397,4999.54545405,2926.06060577,4201.57575716,140.121212107,4417.9393935,3552.48484813,4219.60606018,2662.30303004,4842.42424194,2967.27272698,4494.18181773,4104.72727232,42.0,42.0,?
2017-08-01 19:18:46.524345,4537.454545,3024.96969667,4186.1212117,1232.24242412,3906.90909052,2761.21212094,3943.48484809,2975.51515122,4260.30302988,78.3030302952,4410.21212077,4191.27272685,4193.84848443,3235.15151483,4322.6363632,2728.24242397,4998.51515102,2926.06060577,4196.93939352,140.121212107,4417.9393935,3552.48484813,4219.60606018,2662.30303004,4843.96969649,2967.27272698,4504.48484803,4104.72727232,42.0,42.0,?
2017-08-01 19:18:46.529632,4540.03030258,3024.96969667,4186.1212117,1232.24242412,3901.75757537,2761.21212094,3933.18181779,2975.51515122,4256.69696927,78.3030302952,4402.48484804,4191.27272685,4194.36363594,3235.15151483,4320.06060563,2728.24242397,4987.18181768,2926.06060577,4193.84848443,140.121212107,4408.66666623,3552.48484813,4212.90909049,2662.30303004,4840.36363588,2967.27272698,4489.5454541,4104.72727232,42.0,42.0,?
2017-08-01 19:18:46.539565,4544.1515147,3024.96969667,4192.30302988,1232.24242412,3905.36363597,2761.21212094,3913.60606021,2975.51515122,4251.03030261,78.3030302952,4403.51515107,4191.27272685,4194.36363594,3235.15151483,4316.96969654,2728.24242397,4977.90909041,2926.06060577,4191.27272685,140.121212107,4403.51515107,3552.48484813,4212.90909049,2662.30303004,4839.84848436,2967.27272698,4481.30302985,4104.72727232,42.0,42.0,?
2017-08-01 19:18:46.547341,4543.63636318,3024.96969667,4190.24242382,1232.24242412,3909.99999961,2761.21212094,3934.72727233,2975.51515122,4258.24242382,78.3030302952,4418.45454501,4191.27272685,4191.78787837,3235.15151483,4319.0303026,2728.24242397,4986.15151465,2926.06060577,4190.24242382,140.121212107,4412.78787835,3552.48484813,4212.39393897,2662.30303004,4838.81818133,2967.27272698,4493.66666622,4104.72727232,42.0,42.0,?
2017-08-01 19:18:46.554490,4541.57575712,3024.96969667,4187.15151473,1232.24242412,3902.7878784,2761.21212094,3968.21212082,2975.51515122,4272.66666624,78.3030302952,4438.03030259,4191.27272685,4194.87878746,3235.15151483,4326.24242381,2728.24242397,5002.12121162,2926.06060577,4187.66666625,140.121212107,4417.42424198,3552.48484813,4217.03030261,2662.30303004,4837.27272679,2967.27272698,4497.27272682,4104.72727232,42.0,42.0,?
2017-08-01 19:18:46.561984,4537.454545,3024.96969667,4188.18181776,1232.24242412,3902.7878784,2761.21212094,3958.93939354,2975.51515122,4274.7272723,78.3030302952,4448.8484844,4191.27272685,4197.45454503,3235.15151483,4330.36363593,2728.24242397,5003.15151465,2926.06060577,4188.18181776,140.121212107,4408.15151471,3552.48484813,4218.57575715,2662.30303004,4834.1818177,2967.27272698,4489.03030258,4104.72727232,42.0,42.0,?
2017-08-01 19:18:46.572748,4532.81818136,3024.96969667,4187.66666625,1232.24242412,3907.42424203,2761.21212094,3941.93939355,2975.51515122,4265.96969654,78.3030302952,4446.27272683,4191.27272685,4187.66666625,3235.15151483,4325.21212078,2728.24242397,4992.84848435,2926.06060577,4197.45454503,140.121212107,4406.09090865,3552.48484813,4217.54545412,2662.30303004,4832.63636315,2967.27272698,4485.42424198,4104.72727232,42.0,42.0,?
2017-08-01 19:18:46.580045,4534.87878743,3024.96969667,4186.1212117,1232.24242412,3901.24242385,2761.21212094,3929.06060567,2975.51515122,4260.81818139,78.3030302952,4424.63636319,4191.27272685,4171.69696928,3235.15151483,4302.0303026,2728.24242397,4974.30302981,2926.06060577,4181.99999958,140.121212107,4401.45454501,3552.48484813,4210.84848443,2662.30303004,4832.63636315,2967.27272698,4488.51515107,4104.72727232,42.0,42.0,?
2017-08-01 19:18:46.585697,4534.87878743,3024.96969667,4186.1212117,1232.24242412,3901.24242385,2761.21212094,3929.06060567,2975.51515122,4260.81818139,78.3030302952,4424.63636319,4191.27272685,4171.69696928,3235.15151483,4302.0303026,2728.24242397,4974.30302981,2926.06060577,4181.99999958,140.121212107,4401.45454501,3552.48484813,4210.84848443,2662.30303004,4832.63636315,2967.27272698,4488.51515107,4104.72727232,42.0,42.0,?
2017-08-01 19:18:46.593093,4530.24242379,3024.96969667,4189.72727231,1232.24242412,3903.81818143,2761.21212094,3929.06060567,2975.51515122,4262.36363594,78.3030302952,4416.90909047,4191.27272685,4176.84848443,3235.15151483,4309.24242381,2728.24242397,4976.87878738,2926.06060577,4169.63636322,140.121212107,4391.66666623,3552.48484813,4206.21212079,2662.30303004,4824.39393891,2967.27272698,4487.48484804,4104.72727232,42.0,42.0,?
2017-08-01 19:18:46.605777,4530.24242379,3024.96969667,4192.30302988,1232.24242412,3901.24242385,2761.21212094,3947.0909087,2975.51515122,4255.15151473,78.3030302952,4411.75757532,4191.27272685,4186.63636322,3235.15151483,4321.09090866,2728.24242397,4984.60606011,2926.06060577,4173.24242383,140.121212107,4404.54545411,3552.48484813,4206.21212079,2662.30303004,4823.8787874,2967.27272698,4481.30302985,4104.72727232,42.0,42.0,?
2017-08-01 19:18:46.609137,4540.03030258,3024.96969667,4189.72727231,1232.24242412,3902.7878784,2761.21212094,3955.84848445,2975.51515122,4255.66666624,78.3030302952,4410.72727229,4191.27272685,4198.99999958,3235.15151483,4328.30302987,2728.24242397,4991.81818132,2926.06060577,4188.18181776,140.121212107,4419.99999956,3552.48484813,4212.39393897,2662.30303004,4836.24242376,2967.27272698,4485.93939349,4104.72727232,42.0,42.0,?
2017-08-01 19:18:46.617889,4551.36363591,3024.96969667,4194.87878746,1232.24242412,3911.03030264,2761.21212094,3948.63636324,2975.51515122,4262.36363594,78.3030302952,4411.2424238,4191.27272685,4202.60606019,3235.15151483,4329.3333329,2728.24242397,4993.87878738,2926.06060577,4201.06060564,140.121212107,4419.99999956,3552.48484813,4215.99999958,2662.30303004,4846.54545406,2967.27272698,4500.87878743,4104.72727232,42.0,42.0,?
2017-08-01 19:18:46.624214,4547.24242379,3024.96969667,4192.8181814,1232.24242412,3905.87878749,2761.21212094,3941.42424203,2975.51515122,4258.24242382,78.3030302952,4415.87878744,4191.27272685,4192.30302988,3235.15151483,4325.72727229,2728.24242397,4994.39393889,2926.06060577,4200.54545413,140.121212107,4409.69696926,3552.48484813,4214.45454503,2662.30303004,4842.42424194,2967.27272698,4497.78787834,4104.72727232,42.0,42.0,?
2017-08-01 19:18:46.633307,4535.90909046,3024.96969667,4185.09090867,1232.24242412,3894.54545416,2761.21212094,3932.66666627,2975.51515122,4258.24242382,78.3030302952,4425.15151471,4191.27272685,4182.5151511,3235.15151483,4320.06060563,2728.24242397,4986.66666617,2926.06060577,4192.8181814,140.121212107,4400.9393935,3552.48484813,4214.45454503,2662.30303004,4832.63636315,2967.27272698,4479.75757531,4104.72727232,42.0,42.0,?
2017-08-01 19:18:46.646100,4535.39393894,3024.96969667,4188.69696928,1232.24242412,3897.12121173,2761.21212094,3932.15151476,2975.51515122,4264.93939351,78.3030302952,4434.9393935,4191.27272685,4181.48484807,3235.15151483,4315.42424199,2728.24242397,4984.09090859,2926.06060577,4189.72727231,140.121212107,4398.87878744,3552.48484813,4212.90909049,2662.30303004,4829.54545406,2967.27272698,4481.81818137,4104.72727232,42.0,42.0,?
2017-08-01 19:18:46.652429,4537.454545,3024.96969667,4189.72727231,1232.24242412,3899.69696931,2761.21212094,3950.18181779,2975.51515122,4261.84848442,78.3030302952,4439.06060562,4191.27272685,4179.93939352,3235.15151483,4310.78787836,2728.24242397,4989.75757526,2926.06060577,4191.78787837,140.121212107,4403.51515107,3552.48484813,4209.30302988,2662.30303004,4831.60606012,2967.27272698,4492.12121167,4104.72727232,42.0,42.0,?
2017-08-01 19:18:46.655749,4535.39393894,3024.96969667,4190.75757534,1232.24242412,3895.57575719,2761.21212094,3958.93939354,2975.51515122,4258.75757533,78.3030302952,4440.09090865,4191.27272685,4175.8181814,3235.15151483,4307.18181775,2728.24242397,4976.87878738,2926.06060577,4191.27272685,140.121212107,4413.81818138,3552.48484813,4206.72727231,2662.30303004,4835.72727224,2967.27272698,4484.39393895,4104.72727232,42.0,42.0,?
2017-08-01 19:18:46.665146,4533.33333288,3024.96969667,4190.24242382,1232.24242412,3898.15151476,2761.21212094,3945.54545415,2975.51515122,4263.90909048,78.3030302952,4443.69696925,4191.27272685,4180.45454504,3235.15151483,4316.96969654,2728.24242397,4971.21212072,2926.06060577,4186.63636322,140.121212107,4422.57575713,3552.48484813,4211.87878746,2662.30303004,4841.39393891,2967.27272698,4480.78787834,4104.72727232,42.0,42.0,?
2017-08-01 19:18:46.671204,4531.78787833,3024.96969667,4187.66666625,1232.24242412,3902.27272688,2761.21212094,3942.96969658,2975.51515122,4268.0303026,78.3030302952,4440.09090865,4191.27272685,4189.72727231,3235.15151483,4329.3333329,2728.24242397,4993.87878738,2926.06060577,4189.21212079,140.121212107,4411.2424238,3552.48484813,4214.96969655,2662.30303004,4840.87878739,2967.27272698,4485.42424198,4104.72727232,42.0,42.0,?
2017-08-01 19:18:46.683398,4530.7575753,3024.96969667,4189.21212079,1232.24242412,3900.72727234,2761.21212094,3946.06060567,2975.51515122,4265.45454503,78.3030302952,4427.21212077,4191.27272685,4192.30302988,3235.15151483,4328.81818139,2728.24242397,5004.6969692,2926.06060577,4200.03030261,140.121212107,4389.60606017,3552.48484813,4210.84848443,2662.30303004,4836.24242376,2967.27272698,4479.24242379,4104.72727232,42.0,42.0,?
2017-08-01 19:18:46.689040,4534.87878743,3024.96969667,4187.15151473,1232.24242412,3898.15151476,2761.21212094,3940.393939,2975.51515122,4261.33333291,78.3030302952,4422.57575713,4191.27272685,4192.8181814,3235.15151483,4323.66666623,2728.24242397,4996.45454495,2926.06060577,4201.06060564,140.121212107,4389.09090865,3552.48484813,4213.93939352,2662.30303004,4836.24242376,2967.27272698,4475.63636319,4104.72727232,42.0,42.0,?
2017-08-01 19:18:46.696941,4542.60606015,3024.96969667,4190.24242382,1232.24242412,3902.27272688,2761.21212094,3947.0909087,2975.51515122,4260.81818139,78.3030302952,4427.72727228,4191.27272685,4193.84848443,3235.15151483,4323.15151472,2728.24242397,4990.27272677,2926.06060577,4192.30302988,140.121212107,4402.48484804,3552.48484813,4218.57575715,2662.30303004,4840.87878739,2967.27272698,4481.81818137,4104.72727232,42.0,42.0,?
2017-08-01 19:18:46.711488,4540.54545409,3024.96969667,4192.8181814,1232.24242412,3909.99999961,2761.21212094,3957.393939,2975.51515122,4267.51515109,78.3030302952,4427.72727228,4191.27272685,4191.78787837,3235.15151483,4326.24242381,2728.24242397,4986.66666617,2926.06060577,4194.87878746,140.121212107,4408.15151471,3552.48484813,4213.424242,2662.30303004,4843.96969649,2967.27272698,4480.27272682,4104.72727232,42.0,42.0,?
2017-08-01 19:18:46.717526,4531.78787833,3024.96969667,4188.18181776,1232.24242412,3913.0909087,2761.21212094,3956.87878748,2975.51515122,4273.18181775,78.3030302952,4428.2424238,4191.27272685,4186.1212117,3235.15151483,4326.24242381,2728.24242397,4982.54545405,2926.06060577,4195.39393897,140.121212107,4407.6363632,3552.48484813,4207.75757534,2662.30303004,4840.87878739,2967.27272698,4477.69696925,4104.72727232,42.0,42.0,?
2017-08-01 19:18:46.721075,4536.42424197,3024.96969667,4191.27272685,1232.24242412,3918.24242385,2761.21212094,3959.45454506,2975.51515122,4273.69696927,78.3030302952,4437.51515107,4191.27272685,4181.99999958,3235.15151483,4323.66666623,2728.24242397,4977.3939389,2926.06060577,4188.18181776,140.121212107,4412.27272683,3552.48484813,4210.33333291,2662.30303004,4841.39393891,2967.27272698,4485.42424198,4104.72727232,42.0,42.0,?
2017-08-01 19:18:46.726315,4548.78787833,3024.96969667,4192.8181814,1232.24242412,3923.393939,2761.21212094,3955.33333294,2975.51515122,4273.69696927,78.3030302952,4442.15151471,4191.27272685,4187.15151473,3235.15151483,4324.69696926,2728.24242397,4985.63636314,2926.06060577,4190.75757534,140.121212107,4413.30302986,3552.48484813,4212.39393897,2662.30303004,4848.60606012,2967.27272698,4490.06060561,4104.72727232,42.0,42.0,?
2017-08-01 19:18:46.736276,4547.24242379,3024.96969667,4190.75757534,1232.24242412,3924.93939355,2761.21212094,3945.54545415,2975.51515122,4267.51515109,78.3030302952,4439.57575713,4191.27272685,4190.24242382,3235.15151483,4328.81818139,2728.24242397,5000.06060556,2926.06060577,4194.36363594,140.121212107,4410.21212077,3552.48484813,4210.33333291,2662.30303004,4847.06060558,2967.27272698,4490.06060561,4104.72727232,42.0,42.0,?
2017-08-01 19:18:46.741608,4537.96969652,3024.96969667,4192.30302988,1232.24242412,3925.45454506,2761.21212094,3956.36363597,2975.51515122,4264.424242,78.3030302952,4440.60606016,4191.27272685,4188.69696928,3235.15151483,4332.42424199,2728.24242397,4991.3030298,2926.06060577,4191.27272685,140.121212107,4414.84848441,3552.48484813,4210.84848443,2662.30303004,4837.27272679,2967.27272698,4492.12121167,4104.72727232,42.0,42.0,?
2017-08-01 19:18:46.750833,4538.99999955,3024.96969667,4190.24242382,1232.24242412,3923.393939,2761.21212094,3967.6969693,2975.51515122,4267.51515109,78.3030302952,4442.15151471,4191.27272685,4192.8181814,3235.15151483,4336.54545411,2728.24242397,4985.12121162,2926.06060577,4191.78787837,140.121212107,4422.06060562,3552.48484813,4209.8181814,2662.30303004,4836.24242376,2967.27272698,4489.03030258,4104.72727232,42.0,42.0,?
2017-08-01 19:18:46.756622,4546.72727227,3024.96969667,4192.8181814,1232.24242412,3921.33333294,2761.21212094,3959.96969657,2975.51515122,4269.57575715,78.3030302952,4443.69696925,4191.27272685,4199.5151511,3235.15151483,4336.54545411,2728.24242397,4997.9999995,2926.06060577,4191.27272685,140.121212107,4423.60606016,3552.48484813,4209.30302988,2662.30303004,4843.96969649,2967.27272698,4480.78787834,4104.72727232,42.0,42.0,?
2017-08-01 19:18:46.764533,4547.24242379,3024.96969667,4193.33333291,1232.24242412,3920.81818143,2761.21212094,3958.42424203,2975.51515122,4271.63636321,78.3030302952,4444.21212077,4191.27272685,4199.5151511,3235.15151483,4329.3333329,2728.24242397,4991.81818132,2926.06060577,4187.15151473,140.121212107,4421.03030259,3552.48484813,4210.84848443,2662.30303004,4845.51515103,2967.27272698,4478.72727228,4104.72727232,42.0,42.0,?
2017-08-01 19:18:46.773244,4540.03030258,3024.96969667,4188.69696928,1232.24242412,3920.30302991,2761.21212094,3953.27272688,2975.51515122,4269.57575715,78.3030302952,4440.60606016,4191.27272685,4193.84848443,3235.15151483,4321.60606017,2728.24242397,4968.63636314,2926.06060577,4182.5151511,140.121212107,4411.2424238,3552.48484813,4210.33333291,2662.30303004,4837.7878783,2967.27272698,4475.12121167,4104.72727232,42.0,42.0,?
2017-08-01 19:18:46.780719,4536.42424197,3016.72727243,4189.72727231,1232.24242412,3921.84848446,2761.21212094,3935.75757536,2975.51515122,4263.39393897,78.3030302952,4440.60606016,4191.27272685,4188.69696928,3235.15151483,4313.36363593,2728.24242397,4974.81818132,2926.06060577,4183.54545413,140.121212107,4404.54545411,3552.48484813,4207.75757534,2662.30303004,4830.06060558,2967.27272698,4475.12121167,4104.72727232,42.0,42.0,?
2017-08-01 19:18:46.788217,4540.03030258,3016.72727243,4190.24242382,1240.48484836,3922.87878749,2761.21212094,3941.93939355,2975.51515122,4263.90909048,78.3030302952,4445.2424238,4191.27272685,4189.72727231,3235.15151483,4313.87878745,2728.24242397,4989.24242374,2926.06060577,4189.72727231,140.121212107,4416.90909047,3552.48484813,4203.63636322,2662.30303004,4832.63636315,2967.27272698,4486.45454501,4104.72727232,42.0,42.0,?
2017-08-01 19:18:46.796893,4546.72727227,3016.72727243,4191.78787837,1240.48484836,3916.69696931,2761.21212094,3961.51515112,2975.51515122,4272.15151472,78.3030302952,4440.60606016,4191.27272685,4189.21212079,3235.15151483,4317.99999957,2728.24242397,4980.9999995,2926.06060577,4182.5151511,140.121212107,4426.69696925,3552.48484813,4203.1212117,2662.30303004,4838.30302982,2967.27272698,4481.81818137,4104.72727232,42.0,42.0,?
2017-08-01 19:18:46.807904,4545.18181773,3016.72727243,4190.24242382,1240.48484836,3914.12121173,2752.96969669,3958.93939354,2975.51515122,4272.15151472,78.3030302952,4428.2424238,4191.27272685,4180.45454504,3235.15151483,4317.99999957,2728.24242397,4978.42424193,2926.06060577,4174.78787837,140.121212107,4412.27272683,3552.48484813,4207.24242382,2662.30303004,4832.12121164,2967.27272698,4468.42424198,4104.72727232,42.0,42.0,?
2017-08-01 19:18:46.811605,4537.454545,3016.72727243,4188.18181776,1240.48484836,3924.93939355,2752.96969669,3956.36363597,2971.3939391,4269.57575715,78.3030302952,4426.69696925,4191.27272685,4175.8181814,3235.15151483,4327.27272684,2728.24242397,4993.36363586,2926.06060577,4192.8181814,140.121212107,4401.45454501,3552.48484813,4211.87878746,2662.30303004,4824.39393891,2967.27272698,4478.21212076,4104.72727232,42.0,42.0,?
2017-08-01 19:18:46.835724,4530.7575753,3016.72727243,4188.69696928,1240.48484836,3931.63636324,2752.96969669,3963.57575718,2971.3939391,4274.21212078,78.3030302952,4433.90909047,4191.27272685,4183.03030261,3235.15151483,4336.54545411,2728.24242397,5003.66666617,2926.06060577,4206.72727231,140.121212107,4410.21212077,3552.48484813,4207.75757534,2662.30303004,4827.99999952,2967.27272698,4485.42424198,4104.72727232,42.0,42.0,?
2017-08-01 19:18:46.836461,4530.7575753,3016.72727243,4188.69696928,1240.48484836,3920.30302991,2752.96969669,3962.54545415,2971.3939391,4274.21212078,78.3030302952,4441.12121168,4191.27272685,4189.21212079,3235.15151483,4329.3333329,2728.24242397,5000.06060556,2926.06060577,4196.424242,140.121212107,4416.39393895,3552.48484813,4207.75757534,2662.30303004,4835.21212073,2967.27272698,4472.03030258,4104.72727232,42.0,42.0,?
2017-08-01 19:18:46.840755,4537.96969652,3016.72727243,4191.27272685,1240.48484836,3915.15151476,2752.96969669,3949.66666627,2971.3939391,4274.7272723,78.3030302952,4450.39393895,4191.27272685,4192.8181814,3243.39393907,4327.27272684,2728.24242397,4998.51515102,2926.06060577,4191.27272685,140.121212107,4416.90909047,3552.48484813,4209.8181814,2662.30303004,4839.84848436,2967.27272698,4468.42424198,4104.72727232,42.0,42.0,?
2017-08-01 19:18:46.844411,4551.87878742,3016.72727243,4195.39393897,1240.48484836,3929.57575718,2752.96969669,3951.72727233,2971.3939391,4279.36363594,78.3030302952,4461.21212077,4191.27272685,4203.1212117,3243.39393907,4341.69696926,2719.99999973,5004.18181768,2926.06060577,4198.48484806,140.121212107,4424.12121168,3552.48484813,4208.27272685,2662.30303004,4844.484848,2967.27272698,4480.78787834,4104.72727232,42.0,42.0,?
2017-08-01 19:18:46.851162,4549.81818136,3016.72727243,4191.27272685,1240.48484836,3937.81818142,2752.96969669,3972.84848445,2971.3939391,4284.51515109,78.3030302952,4464.30302986,4191.27272685,4214.45454503,3243.39393907,4348.90909047,2719.99999973,5008.3030298,2926.06060577,4201.06060564,140.121212107,4428.2424238,3552.48484813,4205.18181776,2662.30303004,4844.99999952,2967.27272698,4490.57575713,4104.72727232,42.0,42.0,?
2017-08-01 19:18:46.858610,4534.87878743,3016.72727243,4191.78787837,1240.48484836,3932.15151476,2752.96969669,3972.33333294,2971.3939391,4281.424242,78.3030302952,4457.09090865,4191.27272685,4215.99999958,3243.39393907,4338.60606017,2719.99999973,5002.63636314,2926.06060577,4197.96969655,131.878787866,4416.39393895,3552.48484813,4208.27272685,2662.30303004,4839.33333285,2967.27272698,4490.06060561,4104.72727232,42.0,42.0,?
2017-08-01 19:18:46.871625,4527.1515147,3016.72727243,4192.30302988,1240.48484836,3927.51515112,2752.96969669,3954.30302991,2971.3939391,4281.424242,78.3030302952,4451.42424198,4191.27272685,4212.39393897,3243.39393907,4337.57575714,2719.99999973,5002.12121162,2926.06060577,4197.45454503,131.878787866,4406.60606017,3548.36363601,4206.72727231,2662.30303004,4836.75757527,2967.27272698,4483.87878743,4104.72727232,42.0,42.0,?
2017-08-01 19:18:46.876325,4537.96969652,3016.72727243,4190.75757534,1240.48484836,3929.57575718,2752.96969669,3958.42424203,2971.3939391,4293.78787836,78.3030302952,4450.90909046,4191.27272685,4208.27272685,3243.39393907,4343.75757532,2719.99999973,5013.45454495,2926.06060577,4199.5151511,131.878787866,4419.48484804,3548.36363601,4201.57575716,2654.0606058,4844.484848,2967.27272698,4485.93939349,4104.72727232,42.0,42.0,?
2017-08-01 19:18:46.884129,4555.48484803,3016.72727243,4193.84848443,1240.48484836,3933.6969693,2752.96969669,3977.9999996,2971.3939391,4295.3333329,78.3030302952,4451.93939349,4191.27272685,4202.09090867,3243.39393907,4340.66666623,2719.99999973,5014.48484798,2926.06060577,4207.24242382,131.878787866,4436.48484804,3548.36363601,4205.18181776,2654.0606058,4849.63636315,2975.51515122,4499.33333288,4104.72727232,42.0,42.0,?
2017-08-01 19:18:46.890646,4560.12121167,3016.72727243,4193.84848443,1240.48484836,3938.33333294,2752.96969669,3982.63636324,2971.3939391,4283.48484806,78.3030302952,4453.48484804,4191.27272685,4197.96969655,3243.39393907,4336.54545411,2719.99999973,5004.6969692,2926.06060577,4216.51515109,135.999999986,4431.84848441,3548.36363601,4210.84848443,2654.0606058,4844.99999952,2975.51515122,4506.54545409,4104.72727232,42.0,42.0,?
2017-08-01 19:18:46.898695,4552.39393894,3016.72727243,4193.33333291,1240.48484836,3940.90909052,2752.96969669,3970.78787839,2971.3939391,4277.81818139,78.3030302952,4451.93939349,4191.27272685,4199.5151511,3243.39393907,4340.15151472,2719.99999973,5005.72727223,2926.06060577,4212.90909049,135.999999986,4425.15151471,3552.48484813,4208.27272685,2654.0606058,4845.51515103,2975.51515122,4498.30302985,4104.72727232,42.0,42.0,?
2017-08-01 19:18:46.906333,4542.60606015,3016.72727243,4189.72727231,1240.48484836,3935.24242385,2752.96969669,3960.9999996,2971.3939391,4285.54545412,78.3030302952,4455.03030258,4191.27272685,4205.69696928,3243.39393907,4346.3333329,2719.99999973,5022.21212071,2926.06060577,4212.90909049,135.999999986,4433.90909047,3552.48484813,4207.24242382,2654.0606058,4853.75757527,2975.51515122,4496.24242379,4104.72727232,42.0,42.0,?
2017-08-01 19:18:46.914057,4538.99999955,3016.72727243,4189.21212079,1240.48484836,3928.54545415,2752.96969669,3957.90909051,2971.3939391,4289.15151472,78.3030302952,4465.33333289,4191.27272685,4208.78787837,3243.39393907,4346.84848441,2719.99999973,5027.87878738,2926.06060577,4217.03030261,135.999999986,4434.42424198,3552.48484813,4213.424242,2654.0606058,4856.84848436,2975.51515122,4507.06060561,4104.72727232,42.0,42.0,?
2017-08-01 19:18:46.921604,4538.48484803,3016.72727243,4192.30302988,1240.48484836,3927.51515112,2752.96969669,3962.54545415,2971.3939391,4285.0303026,78.3030302952,4470.99999955,4191.27272685,4206.72727231,3243.39393907,4341.69696926,2719.99999973,5011.90909041,2926.06060577,4206.72727231,135.999999986,4418.96969653,3552.48484813,4212.90909049,2654.0606058,4844.99999952,2975.51515122,4501.39393894,4104.72727232,42.0,42.0,?
2017-08-01 19:18:46.943666,4547.24242379,3016.72727243,4192.30302988,1240.48484836,3927.51515112,2752.96969669,3969.24242385,2971.3939391,4295.84848442,78.3030302952,4468.42424198,4191.27272685,4206.21212079,3243.39393907,4339.6363632,2719.99999973,4994.39393889,2926.06060577,4191.27272685,135.999999986,4411.2424238,3552.48484813,4199.5151511,2654.0606058,4829.54545406,2975.51515122,4484.90909046,4104.72727232,42.0,42.0,?
2017-08-01 19:18:46.945289,4547.24242379,3016.72727243,4192.30302988,1240.48484836,3930.0909087,2752.96969669,3974.90909051,2971.3939391,4295.84848442,78.3030302952,4469.45454501,4191.27272685,4213.424242,3243.39393907,4342.72727229,2719.99999973,4999.54545405,2926.06060577,4195.90909049,135.999999986,4422.57575713,3552.48484813,4199.5151511,2654.0606058,4836.75757527,2975.51515122,4491.60606016,4104.72727232,42.0,42.0,?
2017-08-01 19:18:46.945576,4558.57575712,3016.72727243,4194.36363594,1240.48484836,3931.63636324,2752.96969669,3978.51515112,2971.3939391,4300.48484805,78.3030302952,4472.5454541,4191.27272685,4221.15151473,3243.39393907,4348.39393896,2719.99999973,5025.81818132,2926.06060577,4217.54545412,135.999999986,4440.09090865,3552.48484813,4209.30302988,2654.0606058,4858.39393891,2975.51515122,4507.06060561,4104.72727232,42.0,42.0,?
2017-08-01 19:18:46.957359,4557.54545409,3016.72727243,4192.8181814,1240.48484836,3930.0909087,2752.96969669,3967.6969693,2971.3939391,4293.27272684,78.3030302952,4468.42424198,4191.27272685,4221.66666624,3243.39393907,4350.96969653,2719.99999973,5034.06060556,2926.06060577,4220.63636321,135.999999986,4444.72727228,3552.48484813,4212.39393897,2654.0606058,4866.63636315,2975.51515122,4502.93939349,4104.72727232,42.0,42.0,?
2017-08-01 19:18:46.961213,4551.87878742,3016.72727243,4195.39393897,1240.48484836,3930.60606021,2752.96969669,3961.51515112,2971.3939391,4285.0303026,78.3030302952,4462.75757531,4191.27272685,4215.99999958,3243.39393907,4347.36363593,2719.99999973,5022.72727222,2926.06060577,4199.5151511,135.999999986,4432.87878744,3552.48484813,4207.75757534,2654.0606058,4856.84848436,2975.51515122,4494.18181773,4104.72727232,42.0,42.0,?
2017-08-01 19:18:46.967716,4551.87878742,3016.72727243,4191.78787837,1240.48484836,3934.72727233,2752.96969669,3969.24242385,2971.3939391,4283.99999957,78.3030302952,4464.81818137,4191.27272685,4210.84848443,3243.39393907,4342.72727229,2719.99999973,5020.66666616,2926.06060577,4194.36363594,135.999999986,4425.15151471,3552.48484813,4204.15151473,2654.0606058,4849.63636315,2975.51515122,4492.63636319,4104.72727232,42.0,42.0,?
2017-08-01 19:18:46.976463,4551.36363591,3016.72727243,4190.75757534,1240.48484836,3933.6969693,2752.96969669,3972.33333294,2971.3939391,4283.48484806,78.3030302952,4469.45454501,4191.27272685,4207.75757534,3243.39393907,4339.12121169,2719.99999973,5017.57575707,2926.06060577,4213.93939352,135.999999986,4429.27272683,3552.48484813,4207.24242382,2654.0606058,4853.24242376,2975.51515122,4488.51515107,4104.72727232,42.0,42.0,?
2017-08-01 19:18:46.987486,4545.18181773,3016.72727243,4192.8181814,1240.48484836,3924.93939355,2752.96969669,3957.393939,2971.3939391,4285.0303026,78.3030302952,4468.42424198,4191.27272685,4203.63636322,3243.39393907,4333.45454502,2719.99999973,5004.6969692,2926.06060577,4222.18181776,135.999999986,4429.27272683,3552.48484813,4206.21212079,2654.0606058,4853.75757527,2975.51515122,4489.5454541,4104.72727232,42.0,42.0,?
2017-08-01 19:18:46.992515,4542.09090864,3016.72727243,4191.27272685,1240.48484836,3919.7878784,2752.96969669,3956.36363597,2971.3939391,4287.09090866,78.3030302952,4467.39393895,4191.27272685,4203.63636322,3243.39393907,4335.51515108,2719.99999973,5006.24242374,2926.06060577,4209.30302988,135.999999986,4428.75757531,3552.48484813,4201.06060564,2654.0606058,4851.69696921,2975.51515122,4493.1515147,4104.72727232,42.0,42.0,?
2017-08-01 19:18:47.005172,4547.24242379,3016.72727243,4192.8181814,1240.48484836,3928.03030264,2752.96969669,3952.24242385,2971.3939391,4290.18181775,78.3030302952,4466.36363592,4191.27272685,4215.99999958,3243.39393907,4350.96969653,2719.99999973,5015.51515101,2926.06060577,4217.54545412,135.999999986,4433.90909047,3552.48484813,4203.1212117,2654.0606058,4855.81818133,2975.51515122,4500.36363591,4104.72727232,42.0,42.0,?
2017-08-01 19:18:47.014117,4547.24242379,3016.72727243,4192.8181814,1240.48484836,3928.03030264,2752.96969669,3952.24242385,2971.3939391,4290.18181775,78.3030302952,4466.36363592,4191.27272685,4215.99999958,3243.39393907,4350.96969653,2719.99999973,5015.51515101,2926.06060577,4217.54545412,135.999999986,4433.90909047,3552.48484813,4203.1212117,2654.0606058,4855.81818133,2975.51515122,4500.36363591,4104.72727232,42.0,42.0,?
2017-08-01 19:18:47.017661,4547.24242379,3016.72727243,4192.8181814,1240.48484836,3928.03030264,2752.96969669,3952.24242385,2971.3939391,4290.18181775,78.3030302952,4465.8484844,4191.27272685,4215.99999958,3243.39393907,4350.96969653,2719.99999973,5015.51515101,2926.06060577,4217.54545412,135.999999986,4433.90909047,3552.48484813,4203.1212117,2654.0606058,4855.81818133,2975.51515122,4503.96969652,4104.72727232,42.0,42.0,?
2017-08-01 19:18:47.023369,4539.51515106,3016.72727243,4192.8181814,1240.48484836,3922.36363597,2752.96969669,3969.24242385,2971.3939391,4292.75757533,78.3030302952,4473.06060561,4191.27272685,4208.78787837,3243.39393907,4338.60606017,2719.99999973,5014.9999995,2926.06060577,4194.87878746,135.999999986,4416.39393895,3552.48484813,4205.18181776,2654.0606058,4830.06060558,2975.51515122,4482.8484844,4104.72727232,42.0,42.0,?
2017-08-01 19:18:47.038545,4539.51515106,3016.72727243,4185.60606019,1240.48484836,3925.45454506,2752.96969669,3973.87878748,2971.3939391,4292.75757533,78.3030302952,4474.60606016,4191.27272685,4208.78787837,3243.39393907,4338.60606017,2719.99999973,5014.9999995,2926.06060577,4194.87878746,135.999999986,4416.39393895,3552.48484813,4205.18181776,2654.0606058,4830.06060558,2975.51515122,4482.8484844,4104.72727232,42.0,42.0,?
2017-08-01 19:18:47.044553,4532.30302985,3016.72727243,4190.75757534,1240.48484836,3928.54545415,2752.96969669,3958.93939354,2971.3939391,4287.60606018,78.3030302952,4469.45454501,4191.27272685,4193.33333291,3243.39393907,4317.48484805,2719.99999973,5002.12121162,2926.06060577,4182.5151511,135.999999986,4415.87878744,3552.48484813,4196.424242,2654.0606058,4823.8787874,2975.51515122,4479.75757531,4104.72727232,42.0,42.0,?
2017-08-01 19:18:47.052086,4534.87878743,3016.72727243,4192.8181814,1240.48484836,3928.54545415,2752.96969669,3968.72727233,2971.3939391,4279.36363594,78.3030302952,4467.90909046,4191.27272685,4189.21212079,3243.39393907,4314.90909048,2719.99999973,4992.84848435,2926.06060577,4189.72727231,135.999999986,4417.42424198,3552.48484813,4193.33333291,2654.0606058,4841.39393891,2975.51515122,4490.57575713,4104.72727232,42.0,42.0,?
2017-08-01 19:18:47.056546,4544.1515147,3016.72727243,4189.21212079,1240.48484836,3929.57575718,2752.96969669,3981.09090869,2971.3939391,4279.36363594,78.3030302952,4463.78787834,4191.27272685,4195.39393897,3243.39393907,4329.84848442,2719.99999973,4988.72727223,2926.06060577,4208.27272685,135.999999986,4429.78787834,3552.48484813,4202.09090867,2654.0606058,4858.90909042,2975.51515122,4502.93939349,4104.72727232,42.0,42.0,?
2017-08-01 19:18:47.066507,4554.454545,3016.72727243,4194.36363594,1240.48484836,3933.18181779,2752.96969669,3964.09090869,2971.3939391,4283.99999957,78.3030302952,4457.60606016,4191.27272685,4203.63636322,3243.39393907,4339.6363632,2719.99999973,5005.21212071,2926.06060577,4217.03030261,135.999999986,4440.60606016,3552.48484813,4205.69696928,2654.0606058,4862.51515103,2975.51515122,4498.81818137,4104.72727232,42.0,42.0,?
2017-08-01 19:18:47.071545,4560.63636318,3016.72727243,4193.33333291,1240.48484836,3932.15151476,2752.96969669,3953.78787839,2971.3939391,4288.12121169,78.3030302952,4462.2424238,4191.27272685,4215.99999958,3243.39393907,4349.42424199,2719.99999973,5035.6060601,2926.06060577,4218.57575715,135.999999986,4444.72727228,3552.48484813,4203.63636322,2654.0606058,4865.0909086,2975.51515122,4496.75757531,4104.72727232,42.0,42.0,?
2017-08-01 19:18:47.078490,4556.51515106,3016.72727243,4190.75757534,1240.48484836,3926.48484809,2752.96969669,3964.60606021,2971.3939391,4286.57575715,78.3030302952,4466.36363592,4191.27272685,4219.60606018,3243.39393907,4354.57575714,2719.99999973,5038.18181768,2926.06060577,4217.54545412,135.999999986,4444.72727228,3552.48484813,4203.63636322,2654.0606058,4867.15151466,2975.51515122,4503.96969652,4104.72727232,42.0,42.0,?
2017-08-01 19:18:47.087546,4546.72727227,3016.72727243,4190.24242382,1240.48484836,3923.393939,2752.96969669,3974.90909051,2971.3939391,4284.51515109,78.3030302952,4461.72727228,4191.27272685,4205.18181776,3243.39393907,4347.36363593,2719.99999973,5020.15151465,2926.06060577,4220.63636321,135.999999986,4441.63636319,3552.48484813,4205.69696928,2654.0606058,4860.45454497,2975.51515122,4503.96969652,4104.72727232,42.0,42.0,?
2017-08-01 19:18:47.093486,4543.12121167,3016.72727243,4189.72727231,1240.48484836,3924.93939355,2752.96969669,3965.12121172,2971.3939391,4284.51515109,78.3030302952,4459.66666622,4191.27272685,4191.78787837,3243.39393907,4334.99999957,2719.99999973,5012.93939344,2926.06060577,4214.96969655,135.999999986,4433.90909047,3552.48484813,4204.15151473,2654.0606058,4851.1818177,2975.51515122,4498.30302985,4104.72727232,42.0,42.0,?
2017-08-01 19:18:47.101451,4544.66666621,3016.72727243,4189.72727231,1240.48484836,3924.42424203,2752.96969669,3945.03030264,2971.3939391,4282.96969654,78.3030302952,4461.72727228,4191.27272685,4194.36363594,3243.39393907,4323.15151472,2719.99999973,5000.57575708,2926.06060577,4193.84848443,135.999999986,4427.72727228,3552.48484813,4198.99999958,2654.0606058,4842.93939346,2975.51515122,4491.60606016,4104.72727232,42.0,42.0,?
2017-08-01 19:18:47.109073,4543.12121167,3016.72727243,4187.15151473,1240.48484836,3916.69696931,2752.96969669,3951.21212082,2971.3939391,4283.99999957,78.3030302952,4470.48484804,4191.27272685,4203.63636322,3243.39393907,4320.06060563,2719.99999973,4985.63636314,2926.06060577,4190.75757534,135.999999986,4429.78787834,3552.48484813,4196.424242,2654.0606058,4838.30302982,2975.51515122,4482.8484844,4104.72727232,42.0,42.0,?
2017-08-01 19:18:47.118432,4540.03030258,3016.72727243,4190.24242382,1240.48484836,3911.03030264,2752.96969669,3974.90909051,2971.3939391,4288.12121169,78.3030302952,4482.8484844,4191.27272685,4210.33333291,3243.39393907,4327.27272684,2719.99999973,4989.24242374,2926.06060577,4200.54545413,135.999999986,4434.9393935,3552.48484813,4191.27272685,2654.0606058,4840.87878739,2975.51515122,4478.72727228,4104.72727232,42.0,42.0,?
2017-08-01 19:18:47.127062,4538.99999955,3016.72727243,4191.27272685,1240.48484836,3912.06060567,2752.96969669,3977.9999996,2971.3939391,4290.69696927,78.3030302952,4483.87878743,4191.27272685,4219.60606018,3243.39393907,4340.15151472,2719.99999973,5010.36363586,2926.06060577,4193.33333291,135.999999986,4431.84848441,3552.48484813,4191.78787837,2654.0606058,4843.45454497,2975.51515122,4484.90909046,4104.72727232,42.0,42.0,?
2017-08-01 19:18:47.133013,4540.54545409,3016.72727243,4185.60606019,1240.48484836,3913.0909087,2752.96969669,3967.6969693,2971.3939391,4293.27272684,78.3030302952,4479.24242379,4191.27272685,4230.424242,3243.39393907,4352.51515108,2719.99999973,5019.12121162,2926.06060577,4190.75757534,135.999999986,4423.09090865,3552.48484813,4201.06060564,2654.0606058,4849.12121164,2975.51515122,4492.63636319,4104.72727232,42.0,42.0,?
2017-08-01 19:18:47.141941,4540.54545409,3016.72727243,4190.75757534,1240.48484836,3910.51515112,2752.96969669,3962.54545415,2971.3939391,4287.09090866,78.3030302952,4472.03030258,4191.27272685,4223.21212079,3243.39393907,4350.45454502,2719.99999973,5009.84848435,2926.06060577,4197.96969655,135.999999986,4425.15151471,3552.48484813,4198.99999958,2654.0606058,4854.7878783,2975.51515122,4480.78787834,4104.72727232,42.0,42.0,?
2017-08-01 19:18:47.150094,4538.99999955,3016.72727243,4193.33333291,1240.48484836,3909.48484809,2752.96969669,3953.78787839,2971.3939391,4273.69696927,78.3030302952,4461.72727228,4191.27272685,4209.30302988,3243.39393907,4338.09090866,2719.99999973,5003.15151465,2926.06060577,4192.30302988,135.999999986,4430.81818138,3552.48484813,4193.84848443,2654.0606058,4848.09090861,2975.51515122,4466.87878743,4104.72727232,42.0,42.0,?
2017-08-01 19:18:47.155634,4544.1515147,3016.72727243,4191.78787837,1240.48484836,3917.72727234,2752.96969669,3950.18181779,2971.3939391,4276.27272685,78.3030302952,4461.21212077,4191.27272685,4214.45454503,3243.39393907,4333.45454502,2719.99999973,5004.18181768,2926.06060577,4196.424242,135.999999986,4427.72727228,3552.48484813,4197.45454503,2654.0606058,4842.42424194,2975.51515122,4485.42424198,4104.72727232,42.0,42.0,?
2017-08-01 19:18:47.165922,4551.36363591,3016.72727243,4194.36363594,1240.48484836,3920.30302991,2752.96969669,3962.54545415,2971.3939391,4283.48484806,78.3030302952,4469.45454501,4191.27272685,4226.30302988,3243.39393907,4337.06060563,2719.99999973,5004.18181768,2926.06060577,4215.48484806,135.999999986,4432.36363592,3552.48484813,4200.54545413,2654.0606058,4847.06060558,2975.51515122,4510.1515147,4104.72727232,42.0,42.0,?
2017-08-01 19:18:47.172017,4548.27272682,3016.72727243,4191.78787837,1240.48484836,3912.57575718,2752.96969669,3969.75757536,2971.3939391,4281.93939351,78.3030302952,4467.39393895,4191.27272685,4220.63636321,3243.39393907,4338.09090866,2719.99999973,5007.78787829,2926.06060577,4212.90909049,135.999999986,4443.18181774,3552.48484813,4197.96969655,2654.0606058,4848.60606012,2975.51515122,4506.03030258,4104.72727232,42.0,42.0,?
2017-08-01 19:18:47.179489,4542.60606015,3016.72727243,4190.75757534,1240.48484836,3911.54545415,2752.96969669,3963.57575718,2971.3939391,4277.30302988,78.3030302952,4459.66666622,4191.27272685,4205.69696928,3243.39393907,4334.99999957,2719.99999973,5008.81818132,2926.06060577,4197.96969655,135.999999986,4439.06060562,3552.48484813,4195.90909049,2654.0606058,4840.36363588,2975.51515122,4492.12121167,4104.72727232,42.0,42.0,?
2017-08-01 19:18:47.187069,4540.54545409,3016.72727243,4189.72727231,1240.48484836,3914.12121173,2752.96969669,3956.36363597,2971.3939391,4272.66666624,78.3030302952,4452.96969652,4191.27272685,4195.39393897,3243.39393907,4328.81818139,2719.99999973,4996.96969647,2926.06060577,4191.27272685,135.999999986,4421.03030259,3552.48484813,4188.69696928,2654.0606058,4831.60606012,2975.51515122,4489.03030258,4104.72727232,42.0,42.0,?
2017-08-01 19:18:47.196906,4537.96969652,3016.72727243,4187.15151473,1240.48484836,3913.0909087,2752.96969669,3952.24242385,2971.3939391,4269.06060563,78.3030302952,4442.15151471,4191.27272685,4187.15151473,3243.39393907,4317.48484805,2719.99999973,4984.09090859,2926.06060577,4175.8181814,135.999999986,4410.21212077,3552.48484813,4181.48484807,2654.0606058,4831.09090861,2975.51515122,4487.48484804,4104.72727232,42.0,42.0,?
2017-08-01 19:18:47.203036,4538.99999955,3016.72727243,4189.72727231,1240.48484836,3912.57575718,2752.96969669,3942.45454506,2971.3939391,4261.84848442,78.3030302952,4440.60606016,4191.27272685,4188.18181776,3243.39393907,4314.90909048,2719.99999973,4985.12121162,2926.06060577,4167.06060564,135.999999986,4416.39393895,3552.48484813,4188.69696928,2654.0606058,4842.42424194,2975.51515122,4487.99999955,4104.72727232,42.0,42.0,?
2017-08-01 19:18:47.210591,4544.1515147,3016.72727243,4189.72727231,1240.48484836,3911.03030264,2752.96969669,3937.30302991,2971.3939391,4255.66666624,78.3030302952,4450.90909046,4191.27272685,4199.5151511,3243.39393907,4324.18181775,2719.99999973,4995.42424192,2926.06060577,4187.15151473,135.999999986,4430.30302986,3552.48484813,4195.90909049,2654.0606058,4854.7878783,2975.51515122,4489.5454541,4104.72727232,42.0,42.0,?
2017-08-01 19:18:47.220530,4545.69696924,3016.72727243,4188.18181776,1240.48484836,3907.93939355,2752.96969669,3947.60606021,2971.3939391,4263.90909048,78.3030302952,4459.15151471,4191.27272685,4207.24242382,3243.39393907,4330.36363593,2719.99999973,5004.6969692,2926.06060577,4205.18181776,135.999999986,4439.06060562,3552.48484813,4192.30302988,2654.0606058,4857.87878739,2975.51515122,4483.87878743,4104.72727232,42.0,42.0,?
2017-08-01 19:18:47.226106,4540.54545409,3016.72727243,4186.63636322,1240.48484836,3908.96969658,2752.96969669,3962.54545415,2971.3939391,4280.39393897,78.3030302952,4460.69696925,4191.27272685,4208.27272685,3243.39393907,4332.93939351,2719.99999973,5007.27272677,2926.06060577,4203.63636322,135.999999986,4436.48484804,3552.48484813,4190.75757534,2654.0606058,4850.15151467,2975.51515122,4484.39393895,4104.72727232,42.0,42.0,?
2017-08-01 19:18:47.235120,4538.48484803,3016.72727243,4188.69696928,1240.48484836,3912.06060567,2752.96969669,3965.12121172,2971.3939391,4275.75757533,78.3030302952,4459.66666622,4191.27272685,4206.72727231,3243.39393907,4331.90909048,2719.99999973,5002.12121162,2926.06060577,4201.57575716,135.999999986,4430.30302986,3552.48484813,4197.45454503,2654.0606058,4832.12121164,2975.51515122,4490.06060561,4104.72727232,42.0,42.0,?
2017-08-01 19:18:47.241814,4542.09090864,3016.72727243,4193.84848443,1240.48484836,3911.03030264,2752.96969669,3950.18181779,2971.3939391,4263.90909048,78.3030302952,4462.2424238,4191.27272685,4204.15151473,3243.39393907,4328.81818139,2719.99999973,4991.81818132,2926.06060577,4203.63636322,135.999999986,4425.15151471,3552.48484813,4195.90909049,2654.0606058,4819.75757528,2975.51515122,4485.93939349,4104.72727232,42.0,42.0,?
2017-08-01 19:18:47.249704,4540.03030258,3016.72727243,4190.75757534,1240.48484836,3908.45454506,2752.96969669,3940.393939,2971.3939391,4270.60606018,78.3030302952,4468.42424198,4191.27272685,4205.69696928,3243.39393907,4328.81818139,2719.99999973,4990.27272677,2926.06060577,4187.66666625,135.999999986,4419.48484804,3552.48484813,4183.54545413,2654.0606058,4820.78787831,2975.51515122,4486.45454501,4104.72727232,42.0,42.0,?
2017-08-01 19:18:47.259616,4535.39393894,3016.72727243,4189.21212079,1240.48484836,3904.33333294,2752.96969669,3946.06060567,2971.3939391,4280.90909048,78.3030302952,4470.48484804,4191.27272685,4208.78787837,3243.39393907,4328.30302987,2719.99999973,4999.54545405,2926.06060577,4165.5151511,135.999999986,4417.42424198,3552.48484813,4185.09090867,2654.0606058,4826.96969649,2975.51515122,4486.96969652,4104.72727232,42.0,42.0,?
2017-08-01 19:18:47.265442,4535.39393894,3016.72727243,4191.27272685,1240.48484836,3902.7878784,2752.96969669,3948.12121173,2971.3939391,4279.36363594,78.3030302952,4466.87878743,4191.27272685,4201.06060564,3243.39393907,4321.09090866,2719.99999973,5003.66666617,2926.06060577,4170.66666625,135.999999986,4416.39393895,3552.48484813,4190.75757534,2654.0606058,4831.60606012,2975.51515122,4476.66666622,4104.72727232,42.0,42.0,?
2017-08-01 19:18:47.273931,4536.93939349,3016.72727243,4189.21212079,1240.48484836,3908.96969658,2752.96969669,3945.03030264,2971.3939391,4272.66666624,78.3030302952,4466.87878743,4191.27272685,4191.27272685,3243.39393907,4319.54545411,2719.99999973,5000.06060556,2926.06060577,4196.424242,135.999999986,4418.96969653,3552.48484813,4187.15151473,2654.0606058,4836.24242376,2975.51515122,4482.8484844,4104.72727232,42.0,42.0,?
