Timestamp,F3 Value,F3 Quality,FC5 Value,FC5 Quality,F7 Value,F7 Quality,T7 Value,T7 Quality,P7 Value,P7 Quality,O1 Value,O1 Quality,O2 Value,O2 Quality,P8 Value,P8 Quality,T8 Value,T8 Quality,F8 Value,F8 Quality,AF4 Value,AF4 Quality,FC6 Value,FC6 Quality,F4 Value,F4 Quality,AF3 Value,AF3 Quality,X Value,Y Value,Z Value
2017-08-01 19:17:16.997790,2821.4848482,0,4017.66666626,0,1707.72727256,0,1903.99999981,0,2904.42424213,0,3065.15151485,0,3215.06060574,0,3530.33333298,0,4327.78787836,0,3788.93939356,0,2935.84848455,0,1309.51515138,2909.57575728,4263.39393897,0,3784.81818144,0,42.0,42.0,?
2017-08-01 19:17:16.999448,4563.72727227,0,4286.57575715,0,3951.21212082,0,3881.66666628,0,4319.54545411,0,4477.69696925,0,4223.21212079,0,4364.36363593,0,4997.9999995,0,4216.51515109,0,4413.81818138,0,4331.39393896,2909.57575728,4868.69696921,0,4504.48484803,0,42.0,42.0,?
2017-08-01 19:17:17.003831,4557.54545409,0,4277.81818139,0,3947.0909087,0,3888.87878749,0,4308.21212078,0,4471.51515107,0,4219.60606018,0,4365.39393896,0,4988.72727223,0,4212.90909049,0,4412.27272683,0,4329.3333329,2909.57575728,4862.51515103,0,4484.39393895,0,42.0,42.0,?
2017-08-01 19:17:17.007385,4544.1515147,0,4276.78787836,0,3944.51515112,0,3869.30302992,0,4304.60606018,0,4470.48484804,0,4215.99999958,0,4365.39393896,0,4985.12121162,0,4204.15151473,0,4404.03030259,0,4330.36363593,2909.57575728,4857.36363588,0,4495.72727228,0,42.0,42.0,?
2017-08-01 19:17:17.009788,4537.454545,0,4281.93939351,0,3940.90909052,0,3858.99999961,0,4304.09090866,0,4469.96969652,0,4219.60606018,0,4365.90909047,0,4992.33333283,0,4201.06060564,0,4399.39393895,0,4332.93939351,2909.57575728,4852.21212073,0,4507.57575713,0,42.0,42.0,?
2017-08-01 19:17:17.012956,4549.81818136,0,4280.39393897,0,3945.03030264,0,3866.21212083,0,4310.27272684,0,4472.03030258,0,4228.36363594,0,4375.18181774,0,5010.87878738,0,4217.54545412,0,4406.60606017,0,4334.48484805,2909.57575728,4858.90909042,0,4502.93939349,0,42.0,42.0,?
2017-08-01 19:17:17.016684,4559.60606015,0,4282.45454503,0,3950.18181779,0,3867.75757537,0,4321.09090866,0,4479.75757531,0,4229.39393897,0,4381.87878744,0,5013.45454495,0,4227.84848443,0,4408.66666623,0,4334.48484805,2909.57575728,4865.60606012,0,4499.33333288,0,42.0,42.0,?
2017-08-01 19:17:17.020659,4550.84848439,0,4283.48484806,0,3944.51515112,0,3864.15151477,0,4326.24242381,0,4488.51515107,0,4229.39393897,0,4377.75757532,0,4994.39393889,0,4221.15151473,0,4407.12121168,0,4334.99999957,2909.57575728,4863.54545406,0,4498.30302985,0,42.0,42.0,?
2017-08-01 19:17:17.024057,4547.7575753,0,4283.99999957,0,3945.54545415,0,3869.81818143,0,4322.6363632,0,4490.06060561,0,4230.93939352,0,4371.57575714,0,4989.24242374,0,4213.93939352,0,4416.90909047,0,4335.51515108,2909.57575728,4866.63636315,0,4496.24242379,0,42.0,42.0,?
2017-08-01 19:17:17.028600,4561.66666621,2946.66666637,4286.57575715,0,3952.75757536,0,3878.06060567,0,4324.18181775,0,4487.48484804,0,4231.96969655,0,4376.72727229,0,5008.3030298,0,4220.63636321,0,4425.15151471,0,4333.96969654,2909.57575728,4881.06060557,0,4501.90909046,0,42.0,42.0,?
2017-08-01 19:17:17.031592,4565.27272682,2946.66666637,4284.51515109,1013.81818172,3948.63636324,0,3870.84848446,0,4329.84848442,0,4493.1515147,0,4236.60606018,0,4381.36363593,0,5020.15151465,0,4234.54545412,0,4423.09090865,0,4333.96969654,2909.57575728,4888.27272678,0,4509.12121167,0,42.0,42.0,?
2017-08-01 19:17:17.034706,4554.454545,2946.66666637,4284.51515109,1013.81818172,3942.96969658,0,3861.06060567,0,4324.18181775,0,4494.69696925,0,4233.51515109,0,4370.54545411,0,5007.27272677,0,4235.06060564,0,4423.60606016,0,4335.51515108,2909.57575728,4884.66666618,0,4508.60606016,4075.87878747,42.0,42.0,?
2017-08-01 19:17:17.037620,4547.7575753,2946.66666637,4286.57575715,1013.81818172,3942.96969658,2719.99999973,3864.15151477,0,4316.96969654,0,4483.87878743,0,4217.54545412,0,4356.12121169,0,4994.90909041,0,4219.60606018,0,4413.81818138,0,4332.42424199,2909.57575728,4877.96969648,0,4504.48484803,4075.87878747,42.0,42.0,?
2017-08-01 19:17:17.040551,4546.72727227,2946.66666637,4285.0303026,1013.81818172,3939.87878748,2719.99999973,3864.66666628,3041.45454515,4315.93939351,0,4470.48484804,0,4203.63636322,0,4353.03030259,0,4991.3030298,0,4207.75757534,0,4394.75757532,0,4328.81818139,2909.57575728,4868.1818177,0,4489.03030258,4075.87878747,42.0,42.0,?
2017-08-01 19:17:17.044245,4548.78787833,2946.66666637,4285.54545412,1013.81818172,3941.42424203,2719.99999973,3858.4848481,3041.45454515,4312.84848442,4203.63636322,4467.39393895,0,4207.24242382,0,4358.69696926,0,4985.12121162,0,4211.36363594,0,4405.06060562,0,4330.36363593,2909.57575728,4863.03030254,0,4481.30302985,4075.87878747,42.0,42.0,?
2017-08-01 19:17:17.048792,4552.90909045,2946.66666637,4287.09090866,1013.81818172,3946.57575718,2719.99999973,3871.36363598,3041.45454515,4311.30302987,4203.63636322,4474.60606016,4063.51515111,4223.21212079,0,4368.48484805,0,4990.27272677,0,4222.18181776,0,4428.75757531,0,4331.90909048,2909.57575728,4868.69696921,0,4502.93939349,4075.87878747,42.0,42.0,?
2017-08-01 19:17:17.055334,4553.42424197,2946.66666637,4287.60606018,1013.81818172,3943.99999961,2719.99999973,3881.15151476,3041.45454515,4315.42424199,4203.63636322,4480.78787834,4063.51515111,4232.48484806,3140.36363605,4374.15151471,0,5001.09090859,0,4227.33333291,0,4424.12121168,0,4331.39393896,2909.57575728,4874.87878739,0,4516.8484844,4075.87878747,42.0,42.0,?
2017-08-01 19:17:17.063494,4550.33333288,2946.66666637,4283.48484806,1013.81818172,3940.393939,2719.99999973,3871.36363598,3041.45454515,4316.96969654,4203.63636322,4480.27272682,4063.51515111,4227.84848443,3140.36363605,4374.66666623,2608.72727247,4998.51515102,0,4227.84848443,0,4411.2424238,0,4330.87878745,2909.57575728,4872.81818133,0,4500.87878743,4075.87878747,42.0,42.0,?
2017-08-01 19:17:17.069585,4552.90909045,2946.66666637,4280.90909048,1013.81818172,3937.81818142,2719.99999973,3869.30302992,3041.45454515,4315.42424199,4203.63636322,4479.24242379,4063.51515111,4226.8181814,3140.36363605,4375.69696926,2608.72727247,4993.36363586,2847.75757547,4224.24242382,0,4417.42424198,0,4331.90909048,2909.57575728,4871.27272679,0,4492.63636319,4075.87878747,42.0,42.0,?
2017-08-01 19:17:17.079697,4565.27272682,2946.66666637,4285.54545412,1013.81818172,3938.84848445,2719.99999973,3875.99999961,3041.45454515,4317.48484805,4203.63636322,4484.39393895,4063.51515111,4234.03030261,3140.36363605,4375.18181774,2608.72727247,5002.12121162,2847.75757547,4218.57575715,70.0606060536,4418.45454501,0,4333.45454502,2909.57575728,4882.60606012,0,4504.48484803,4075.87878747,42.0,42.0,?
2017-08-01 19:17:17.087647,4574.03030257,2946.66666637,4287.60606018,1013.81818172,3949.66666627,2719.99999973,3881.15151476,3041.45454515,4325.72727229,4203.63636322,4490.57575713,4063.51515111,4239.18181776,3140.36363605,4377.2424238,2608.72727247,5007.27272677,2847.75757547,4219.60606018,70.0606060536,4417.9393935,3383.51515118,4334.99999957,2909.57575728,4899.0909086,0,4515.81818137,4075.87878747,42.0,42.0,?
2017-08-01 19:17:17.094491,4578.66666621,2946.66666637,4287.60606018,1013.81818172,3956.36363597,2719.99999973,3877.54545416,3041.45454515,4333.96969654,4203.63636322,4492.63636319,4063.51515111,4240.21212079,3140.36363605,4381.87878744,2608.72727247,5006.75757526,2847.75757547,4224.75757534,70.0606060536,4436.48484804,3383.51515118,4335.51515108,2658.18181792,4902.18181769,0,4521.99999955,4075.87878747,42.0,42.0,?
2017-08-01 19:17:17.102333,4580.21212075,2946.66666637,4284.51515109,1013.81818172,3953.78787839,2719.99999973,3865.69696931,3041.45454515,4332.93939351,4203.63636322,4492.12121167,4063.51515111,4239.18181776,3140.36363605,4385.48484805,2608.72727247,5009.33333283,2847.75757547,4231.96969655,70.0606060536,4444.21212077,3383.51515118,4339.12121169,2658.18181792,4893.93939345,2868.36363608,4529.21212076,4075.87878747,42.0,42.0,?
2017-08-01 19:17:17.109594,4577.12121166,2946.66666637,4278.33333291,1013.81818172,3957.393939,2719.99999973,3874.96969658,3041.45454515,4323.66666623,4203.63636322,4490.06060561,4063.51515111,4240.21212079,3140.36363605,4388.06060562,2608.72727247,5014.9999995,2847.75757547,4241.24242382,65.9393939328,4431.84848441,3383.51515118,4340.66666623,2658.18181792,4891.87878739,2868.36363608,4529.21212076,4075.87878747,42.0,42.0,?
2017-08-01 19:17:17.119190,4574.03030257,2946.66666637,4280.39393897,1013.81818172,3970.78787839,2719.99999973,3898.66666628,3041.45454515,4323.15151472,4203.63636322,4486.45454501,4063.51515111,4242.27272685,3140.36363605,4386.51515108,2608.72727247,5018.6060601,2847.75757547,4240.21212079,65.9393939328,4427.72727228,3383.51515118,4332.42424199,2658.18181792,4889.30302981,2868.36363608,4521.99999955,4075.87878747,42.0,42.0,?
2017-08-01 19:17:17.125450,4574.54545409,2946.66666637,4280.39393897,1013.81818172,3976.96969657,2719.99999973,3894.54545416,3041.45454515,4328.81818139,4203.63636322,4485.42424198,4063.51515111,4237.1212117,3140.36363605,4380.84848441,2608.72727247,5006.75757526,2847.75757547,4228.87878746,65.9393939328,4435.45454501,3383.51515118,4327.27272684,2658.18181792,4879.51515103,2868.36363608,4519.42424197,4075.87878747,42.0,42.0,?
2017-08-01 19:17:17.134991,4574.54545409,2946.66666637,4277.30302988,1013.81818172,3977.48484809,2719.99999973,3877.54545416,3041.45454515,4331.90909048,4203.63636322,4487.99999955,4063.51515111,4231.96969655,3140.36363605,4379.81818138,2608.72727247,4995.93939344,2847.75757547,4226.30302988,65.9393939328,4437.51515107,3383.51515118,4333.45454502,2658.18181792,4878.484848,2868.36363608,4523.03030258,4075.87878747,42.0,42.0,?
2017-08-01 19:17:17.142252,4571.454545,2946.66666637,4278.33333291,1013.81818172,3987.78787839,2719.99999973,3879.0909087,3041.45454515,4330.87878745,4203.63636322,4491.60606016,4063.51515111,4237.63636321,3140.36363605,4384.45454502,2608.72727247,5008.81818132,2847.75757547,4229.39393897,65.9393939328,4430.30302986,3383.51515118,4338.60606017,2658.18181792,4883.12121163,2868.36363608,4527.1515147,4075.87878747,42.0,42.0,?
2017-08-01 19:17:17.148624,4569.39393894,2946.66666637,4276.78787836,1013.81818172,4000.66666627,2719.99999973,3884.75757537,3041.45454515,4331.39393896,4203.63636322,4496.24242379,4063.51515111,4245.87878745,3140.36363605,4387.03030259,2608.72727247,5024.27272677,2847.75757547,4225.78787837,65.9393939328,4427.72727228,3383.51515118,4337.06060563,2658.18181792,4884.66666618,2868.36363608,4526.12121167,4075.87878747,42.0,42.0,?
2017-08-01 19:17:17.158415,4575.0606056,2946.66666637,4274.7272723,1013.81818172,4003.24242384,2719.99999973,3894.03030264,3041.45454515,4337.06060563,4203.63636322,4502.42424197,4063.51515111,4251.03030261,3140.36363605,4391.15151471,2608.72727247,5024.27272677,2847.75757547,4229.90909049,65.9393939328,4440.60606016,3383.51515118,4337.06060563,2658.18181792,4888.27272678,2868.36363608,4524.06060561,4075.87878747,42.0,42.0,?
2017-08-01 19:17:17.163888,4579.18181772,2946.66666637,4273.69696927,1013.81818172,4000.66666627,2719.99999973,3895.57575719,3041.45454515,4337.06060563,4203.63636322,4504.99999955,4063.51515111,4251.54545412,3140.36363605,4394.2424238,2608.72727247,5018.6060601,2847.75757547,4252.06060564,65.9393939328,4449.36363592,3383.51515118,4338.09090866,2658.18181792,4892.3939389,2868.36363608,4524.06060561,4075.87878747,42.0,42.0,?
2017-08-01 19:17:17.171682,4578.15151469,2946.66666637,4272.66666624,1013.81818172,4003.24242384,2719.99999973,3878.06060567,3041.45454515,4327.78787836,4203.63636322,4495.21212076,4063.51515111,4242.27272685,3140.36363605,4393.72727229,2608.72727247,5017.06060556,2847.75757547,4255.66666624,65.9393939328,4447.30302986,3383.51515118,4333.96969654,2658.18181792,4890.33333284,2868.36363608,4523.03030258,4075.87878747,42.0,42.0,?
2017-08-01 19:17:17.181909,4576.09090863,2946.66666637,4270.60606018,1013.81818172,4003.24242384,2719.99999973,3876.51515113,3041.45454515,4327.27272684,4203.63636322,4492.63636319,4063.51515111,4234.03030261,3140.36363605,4392.69696926,2608.72727247,5016.54545404,2847.75757547,4232.48484806,65.9393939328,4443.18181774,3383.51515118,4329.84848442,2658.18181792,4886.72727224,2868.36363608,4522.51515106,4075.87878747,42.0,42.0,?
2017-08-01 19:17:17.188362,4568.36363591,2946.66666637,4264.93939351,1013.81818172,3992.93939354,2719.99999973,3893.51515113,3041.45454515,4335.51515108,4203.63636322,4498.30302985,4063.51515111,4230.424242,3140.36363605,4385.99999956,2608.72727247,5008.81818132,2847.75757547,4220.63636321,65.9393939328,4432.36363592,3383.51515118,4328.30302987,2658.18181792,4879.51515103,2868.36363608,4518.39393894,4075.87878747,42.0,42.0,?
2017-08-01 19:17:17.196000,4562.18181773,2946.66666637,4263.39393897,1013.81818172,3991.39393899,2719.99999973,3899.18181779,3041.45454515,4337.06060563,4203.63636322,4494.69696925,4063.51515111,4231.96969655,3140.36363605,4384.96969653,2608.72727247,5006.24242374,2847.75757547,4222.18181776,65.9393939328,4426.18181774,3383.51515118,4328.30302987,2658.18181792,4873.33333285,2868.36363608,4513.24242379,4075.87878747,42.0,42.0,?
2017-08-01 19:17:17.204002,4565.27272682,2946.66666637,4264.93939351,1013.81818172,3999.63636324,2719.99999973,3890.93939355,3041.45454515,4336.54545411,4203.63636322,4494.69696925,4063.51515111,4244.33333291,3140.36363605,4396.81818138,2608.72727247,5025.81818132,2847.75757547,4230.93939352,65.9393939328,4440.09090865,3383.51515118,4330.87878745,2658.18181792,4876.93939345,2868.36363608,4519.42424197,4075.87878747,42.0,42.0,?
2017-08-01 19:17:17.212202,4565.78787833,2946.66666637,4263.90909048,1013.81818172,4000.66666627,2719.99999973,3880.63636325,3041.45454515,4336.54545411,4203.63636322,4499.33333288,4063.51515111,4251.03030261,3140.36363605,4401.96969653,2608.72727247,5037.15151465,2847.75757547,4243.30302988,65.9393939328,4445.75757531,3383.51515118,4332.93939351,2658.18181792,4878.99999951,2868.36363608,4521.48484803,4075.87878747,42.0,42.0,?
2017-08-01 19:17:17.221323,4562.69696924,2946.66666637,4266.48484806,1013.81818172,3994.48484809,2719.99999973,3874.45454507,3041.45454515,4329.3333329,4203.63636322,4495.21212076,4063.51515111,4243.30302988,3140.36363605,4390.6363632,2608.72727247,5019.12121162,2847.75757547,4236.09090867,65.9393939328,4436.48484804,3383.51515118,4331.39393896,2658.18181792,4871.27272679,2868.36363608,4505.51515106,4075.87878747,42.0,42.0,?
2017-08-01 19:17:17.227629,4562.18181773,2946.66666637,4268.54545412,1013.81818172,3990.36363596,2719.99999973,3875.99999961,3041.45454515,4324.69696926,4203.63636322,4489.5454541,4063.51515111,4240.21212079,3140.36363605,4384.96969653,2608.72727247,5011.39393889,2847.75757547,4217.54545412,65.9393939328,4435.96969653,3383.51515118,4329.3333329,2658.18181792,4866.63636315,2868.36363608,4502.93939349,4075.87878747,42.0,42.0,?
2017-08-01 19:17:17.236565,4560.12121167,2946.66666637,4269.06060563,1013.81818172,3990.36363596,2719.99999973,3879.0909087,3041.45454515,4325.72727229,4203.63636322,4493.66666622,4063.51515111,4242.78787836,3140.36363605,4389.60606017,2608.72727247,5017.57575707,2847.75757547,4219.60606018,65.9393939328,4434.9393935,3383.51515118,4329.3333329,2658.18181792,4870.24242376,2868.36363608,4514.78787834,4075.87878747,42.0,42.0,?
2017-08-01 19:17:17.242718,4558.0606056,2946.66666637,4275.24242381,1013.81818172,3990.87878748,2719.99999973,3878.57575719,3041.45454515,4325.72727229,4203.63636322,4494.69696925,4063.51515111,4241.75757533,3140.36363605,4391.15151471,2608.72727247,5012.93939344,2847.75757547,4235.06060564,65.9393939328,4428.2424238,3383.51515118,4328.30302987,2658.18181792,4871.7878783,2868.36363608,4511.18181773,4075.87878747,42.0,42.0,?
2017-08-01 19:17:17.250111,4562.18181773,2946.66666637,4281.424242,1013.81818172,3991.90909051,2719.99999973,3884.75757537,3041.45454515,4327.27272684,4203.63636322,4489.03030258,4063.51515111,4244.33333291,3140.36363605,4392.69696926,2608.72727247,5016.54545404,2847.75757547,4239.18181776,65.9393939328,4426.69696925,3383.51515118,4329.3333329,2658.18181792,4869.21212073,2868.36363608,4507.06060561,4075.87878747,42.0,42.0,?
2017-08-01 19:17:17.260256,4566.30302985,2946.66666637,4281.424242,1013.81818172,3990.36363596,2719.99999973,3892.4848481,3041.45454515,4329.3333329,4203.63636322,4487.48484804,4063.51515111,4246.90909048,3140.36363605,4392.18181774,2608.72727247,5026.33333283,2847.75757547,4226.30302988,65.9393939328,4429.78787834,3383.51515118,4330.36363593,2658.18181792,4871.27272679,2868.36363608,4509.12121167,4075.87878747,42.0,42.0,?
2017-08-01 19:17:17.267704,4563.72727227,2946.66666637,4279.36363594,1013.81818172,3985.21212081,2719.99999973,3888.87878749,3041.45454515,4329.3333329,4203.63636322,4490.57575713,4063.51515111,4244.33333291,3140.36363605,4384.45454502,2608.72727247,5017.57575707,2847.75757547,4208.78787837,65.9393939328,4435.45454501,3383.51515118,4325.21212078,2658.18181792,4873.33333285,2868.36363608,4500.36363591,4075.87878747,42.0,42.0,?
2017-08-01 19:17:17.273663,4559.60606015,2946.66666637,4283.48484806,1013.81818172,3986.75757536,2719.99999973,3878.57575719,3041.45454515,4331.90909048,4203.63636322,4493.1515147,4063.51515111,4243.30302988,3140.36363605,4378.78787835,2608.72727247,5000.06060556,2847.75757547,4210.33333291,65.9393939328,4433.90909047,3383.51515118,4324.18181775,2658.18181792,4869.21212073,2868.36363608,4494.18181773,4075.87878747,42.0,42.0,?
2017-08-01 19:17:17.283386,4562.18181773,2946.66666637,4285.54545412,1013.81818172,3993.96969657,2719.99999973,3877.54545416,3041.45454515,4334.99999957,4203.63636322,4496.24242379,4063.51515111,4243.81818139,3140.36363605,4383.9393935,2608.72727247,5003.66666617,2847.75757547,4229.39393897,65.9393939328,4426.69696925,3383.51515118,4328.30302987,2658.18181792,4867.15151466,2868.36363608,4506.03030258,4075.87878747,42.0,42.0,?
2017-08-01 19:17:17.290828,4566.81818136,2946.66666637,4281.93939351,1013.81818172,3994.9999996,2719.99999973,3890.42424204,3041.45454515,4334.99999957,4203.63636322,4502.93939349,4063.51515111,4243.81818139,3140.36363605,4386.51515108,2608.72727247,5016.54545404,2847.75757547,4228.87878746,65.9393939328,4425.15151471,3383.51515118,4325.21212078,2658.18181792,4870.24242376,2868.36363608,4516.8484844,4075.87878747,42.0,42.0,?
2017-08-01 19:17:17.297245,4567.33333288,2946.66666637,4287.60606018,1013.81818172,3994.48484809,2719.99999973,3901.75757537,3041.45454515,4331.39393896,4203.63636322,4504.99999955,4063.51515111,4241.24242382,3140.36363605,4378.78787835,2608.72727247,5014.48484798,2847.75757547,4215.48484806,65.9393939328,4427.72727228,3383.51515118,4324.69696926,2658.18181792,4874.36363588,2868.36363608,4509.63636319,4075.87878747,42.0,42.0,?
2017-08-01 19:17:17.308461,4568.36363591,2946.66666637,4291.21212078,1013.81818172,3997.06060566,2719.99999973,3895.57575719,3041.45454515,4326.75757532,4203.63636322,4500.36363591,4063.51515111,4231.96969655,3140.36363605,4373.6363632,2608.72727247,5009.33333283,2847.75757547,4218.57575715,65.9393939328,4437.51515107,3383.51515118,4330.87878745,2658.18181792,4876.42424194,2868.36363608,4502.93939349,4075.87878747,42.0,42.0,?
2017-08-01 19:17:17.312853,4572.99999954,2946.66666637,4285.54545412,1013.81818172,3998.09090869,2719.99999973,3882.18181779,3041.45454515,4328.81818139,4203.63636322,4496.75757531,4063.51515111,4229.39393897,3140.36363605,4377.75757532,2608.72727247,5019.12121162,2847.75757547,4227.84848443,65.9393939328,4445.75757531,3383.51515118,4331.90909048,2658.18181792,4878.484848,2868.36363608,4513.75757531,4075.87878747,42.0,42.0,?
2017-08-01 19:17:17.321875,4570.93939348,2946.66666637,4281.93939351,1013.81818172,3999.12121172,2719.99999973,3885.7878784,3041.45454515,4332.93939351,4203.63636322,4493.66666622,4063.51515111,4232.99999958,3140.36363605,4377.75757532,2608.72727247,5022.21212071,2847.75757547,4227.84848443,65.9393939328,4434.9393935,3383.51515118,4327.78787836,2658.18181792,4876.93939345,2868.36363608,4519.42424197,4075.87878747,42.0,42.0,?
2017-08-01 19:17:17.328561,4562.18181773,2946.66666637,4281.93939351,1013.81818172,3992.93939354,2719.99999973,3888.36363597,3041.45454515,4322.12121169,4203.63636322,4482.8484844,4063.51515111,4228.87878746,3140.36363605,4368.99999956,2608.72727247,5007.78787829,2847.75757547,4225.78787837,65.9393939328,4423.60606016,3383.51515118,4326.75757532,2658.18181792,4872.30302982,2868.36363608,4508.60606016,4075.87878747,42.0,42.0,?
2017-08-01 19:17:17.336039,4561.66666621,2946.66666637,4283.48484806,1013.81818172,3982.63636324,2719.99999973,3875.99999961,3041.45454515,4309.24242381,4203.63636322,4473.57575713,4063.51515111,4227.84848443,3140.36363605,4369.51515108,2608.72727247,5012.42424192,2847.75757547,4226.8181814,65.9393939328,4434.9393935,3383.51515118,4329.84848442,2658.18181792,4873.33333285,2868.36363608,4508.60606016,4075.87878747,42.0,42.0,?
2017-08-01 19:17:17.344317,4568.87878742,2946.66666637,4282.45454503,1013.81818172,3986.24242384,2719.99999973,3876.51515113,3041.45454515,4320.57575714,4203.63636322,4479.75757531,4063.51515111,4241.75757533,3140.36363605,4385.48484805,2608.72727247,5035.09090859,2847.75757547,4235.57575715,65.9393939328,4444.21212077,3383.51515118,4332.42424199,2658.18181792,4877.96969648,2868.36363608,4523.03030258,4075.87878747,42.0,42.0,?
2017-08-01 19:17:17.352115,4569.39393894,2946.66666637,4280.39393897,1013.81818172,3994.48484809,2719.99999973,3892.4848481,3041.45454515,4334.48484805,4203.63636322,4491.09090864,4063.51515111,4250.51515109,3140.36363605,4392.69696926,2608.72727247,5036.63636313,2847.75757547,4246.39393897,65.9393939328,4441.63636319,3383.51515118,4332.42424199,2658.18181792,4876.42424194,2868.36363608,4520.454545,4075.87878747,42.0,42.0,?
2017-08-01 19:17:17.360366,4560.12121167,2946.66666637,4279.87878745,1013.81818172,3985.21212081,2719.99999973,3892.99999961,3041.45454515,4326.24242381,4203.63636322,4488.51515107,4063.51515111,4235.57575715,3140.36363605,4382.39393896,2608.72727247,5020.66666616,2847.75757547,4235.06060564,65.9393939328,4434.9393935,3383.51515118,4327.78787836,2658.18181792,4866.12121163,2868.36363608,4504.48484803,4075.87878747,42.0,42.0,?
2017-08-01 19:17:17.368894,4549.30302985,2946.66666637,4277.30302988,1013.81818172,3972.33333294,2719.99999973,3880.12121173,3041.45454515,4316.45454502,4203.63636322,4483.36363592,4063.51515111,4216.51515109,3140.36363605,4370.03030259,2608.72727247,5009.84848435,2847.75757547,4214.96969655,65.9393939328,4418.45454501,3383.51515118,4323.66666623,2658.18181792,4854.7878783,2868.36363608,4498.30302985,4075.87878747,42.0,42.0,?
2017-08-01 19:17:17.374557,4547.7575753,2946.66666637,4275.24242381,1013.81818172,3974.393939,2719.99999973,3877.03030264,3041.45454515,4320.06060563,4203.63636322,4492.63636319,4063.51515111,4215.48484806,3140.36363605,4365.90909047,2608.72727247,5007.27272677,2847.75757547,4213.93939352,65.9393939328,4408.15151471,3383.51515118,4322.12121169,2658.18181792,4854.27272679,2868.36363608,4494.18181773,4075.87878747,42.0,42.0,?
2017-08-01 19:17:17.382561,4552.90909045,2946.66666637,4274.7272723,1013.81818172,3975.93939354,2719.99999973,3881.66666628,3041.45454515,4319.54545411,4203.63636322,4497.78787834,4063.51515111,4220.1212117,3140.36363605,4367.45454502,2608.72727247,5011.90909041,2847.75757547,4217.03030261,65.9393939328,4415.87878744,3383.51515118,4324.18181775,2658.18181792,4861.99999951,2868.36363608,4488.51515107,4075.87878747,42.0,42.0,?
2017-08-01 19:17:17.391965,4550.84848439,2946.66666637,4274.21212078,1013.81818172,3967.18181779,2719.99999973,3880.12121173,3041.45454515,4311.30302987,4203.63636322,4484.90909046,4063.51515111,4213.93939352,3140.36363605,4364.87878744,2608.72727247,5016.03030253,2847.75757547,4206.21212079,65.9393939328,4418.96969653,3383.51515118,4324.69696926,2658.18181792,4858.90909042,2868.36363608,4491.09090864,4075.87878747,42.0,42.0,?
2017-08-01 19:17:17.399743,4544.66666621,2946.66666637,4279.87878745,1013.81818172,3966.66666627,2719.99999973,3871.36363598,3041.45454515,4305.12121169,4203.63636322,4468.42424198,4063.51515111,4207.75757534,3140.36363605,4356.12121169,2608.72727247,5009.84848435,2847.75757547,4200.54545413,65.9393939328,4410.21212077,3383.51515118,4320.06060563,2658.18181792,4852.21212073,2868.36363608,4496.75757531,4075.87878747,42.0,42.0,?
2017-08-01 19:17:17.408253,4544.1515147,2946.66666637,4280.90909048,1013.81818172,3970.78787839,2719.99999973,3870.33333295,3041.45454515,4304.60606018,4203.63636322,4463.27272683,4063.51515111,4212.39393897,3140.36363605,4353.03030259,2608.72727247,5004.18181768,2847.75757547,4209.30302988,65.9393939328,4409.18181774,3383.51515118,4316.96969654,2658.18181792,4855.30302982,2868.36363608,4494.69696925,4075.87878747,42.0,42.0,?
2017-08-01 19:17:17.418343,4543.63636318,2946.66666637,4278.33333291,1013.81818172,3965.63636324,2719.99999973,3877.54545416,3041.45454515,4307.18181775,4203.63636322,4461.72727228,4063.51515111,4214.45454503,3140.36363605,4353.54545411,2608.72727247,5001.60606011,2847.75757547,4207.75757534,65.9393939328,4413.30302986,3383.51515118,4318.51515108,2658.18181792,4854.27272679,2868.36363608,4480.78787834,4075.87878747,42.0,42.0,?
2017-08-01 19:17:17.426413,4541.06060561,2946.66666637,4280.90909048,1013.81818172,3963.06060566,2719.99999973,3879.60606022,3041.45454515,4311.81818139,4203.63636322,4461.21212077,4063.51515111,4210.33333291,3140.36363605,4351.99999956,2608.72727247,5000.06060556,2847.75757547,4197.96969655,65.9393939328,4409.69696926,3383.51515118,4320.57575714,2658.18181792,4845.51515103,2868.36363608,4474.09090864,4075.87878747,42.0,42.0,?
2017-08-01 19:17:17.429653,4542.60606015,2946.66666637,4281.93939351,1013.81818172,3968.72727233,2719.99999973,3881.66666628,3041.45454515,4312.84848442,4203.63636322,4466.87878743,4063.51515111,4210.84848443,3140.36363605,4354.06060563,2608.72727247,5003.66666617,2847.75757547,4206.72727231,65.9393939328,4403.51515107,3383.51515118,4321.09090866,2658.18181792,4848.60606012,2868.36363608,4485.93939349,4075.87878747,42.0,42.0,?
2017-08-01 19:17:17.437708,4545.18181773,2946.66666637,4280.90909048,1013.81818172,3969.24242385,2719.99999973,3884.24242385,3041.45454515,4307.69696927,4203.63636322,4466.36363592,4063.51515111,4211.87878746,3140.36363605,4358.18181775,2608.72727247,5007.27272677,2847.75757547,4215.48484806,65.9393939328,4405.57575714,3383.51515118,4322.12121169,2658.18181792,4853.24242376,2868.36363608,4489.5454541,4075.87878747,42.0,42.0,?
2017-08-01 19:17:17.446472,4545.18181773,2946.66666637,4280.90909048,1013.81818172,3966.66666627,2719.99999973,3874.45454507,3041.45454515,4305.12121169,4203.63636322,4462.75757531,4063.51515111,4213.424242,3140.36363605,4360.75757532,2608.72727247,5014.48484798,2847.75757547,4203.63636322,65.9393939328,4409.69696926,3383.51515118,4323.15151472,2658.18181792,4848.09090861,2868.36363608,4484.39393895,4075.87878747,42.0,42.0,?
2017-08-01 19:17:17.456098,4550.33333288,2946.66666637,4282.96969654,1013.81818172,3970.27272688,2719.99999973,3869.30302992,3041.45454515,4310.27272684,4203.63636322,4477.69696925,4063.51515111,4213.93939352,3140.36363605,4360.75757532,2608.72727247,5018.09090859,2847.75757547,4199.5151511,65.9393939328,4412.27272683,3383.51515118,4322.6363632,2658.18181792,4846.54545406,2868.36363608,4486.45454501,4075.87878747,42.0,42.0,?
2017-08-01 19:17:17.465700,4553.93939348,2946.66666637,4282.96969654,1013.81818172,3970.27272688,2719.99999973,3878.06060567,3041.45454515,4313.87878745,4203.63636322,4493.66666622,4063.51515111,4209.30302988,3140.36363605,4355.60606017,2608.72727247,5005.21212071,2847.75757547,4206.21212079,65.9393939328,4412.78787835,3383.51515118,4320.57575714,2658.18181792,4851.69696921,2868.36363608,4490.57575713,4075.87878747,42.0,42.0,?
2017-08-01 19:17:17.470058,4547.7575753,2946.66666637,4278.84848442,1013.81818172,3962.03030263,2719.99999973,3880.12121173,3041.45454515,4312.3333329,4203.63636322,4489.5454541,4063.51515111,4213.93939352,3140.36363605,4358.18181775,2608.72727247,4996.96969647,2847.75757547,4206.72727231,65.9393939328,4408.15151471,3383.51515118,4321.60606017,2658.18181792,4856.84848436,2868.36363608,4493.1515147,4075.87878747,42.0,42.0,?
2017-08-01 19:17:17.477282,4545.69696924,2946.66666637,4278.33333291,1013.81818172,3958.42424203,2719.99999973,3875.4848481,3041.45454515,4309.75757533,4203.63636322,4483.87878743,4063.51515111,4225.27272685,3140.36363605,4367.45454502,2608.72727247,5008.3030298,2847.75757547,4209.30302988,65.9393939328,4400.42424198,3383.51515118,4322.6363632,2658.18181792,4855.81818133,2868.36363608,4490.57575713,4075.87878747,42.0,42.0,?
2017-08-01 19:17:17.484954,4547.24242379,2946.66666637,4280.90909048,1013.81818172,3965.63636324,2719.99999973,3880.12121173,3041.45454515,4309.75757533,4203.63636322,4476.66666622,4063.51515111,4220.63636321,3140.36363605,4366.9393935,2608.72727247,5010.36363586,2847.75757547,4212.39393897,65.9393939328,4396.81818138,3383.51515118,4320.57575714,2658.18181792,4848.09090861,2868.36363608,4485.93939349,4075.87878747,42.0,42.0,?
2017-08-01 19:17:17.494732,4540.54545409,2946.66666637,4277.30302988,1013.81818172,3969.24242385,2719.99999973,3887.33333294,3041.45454515,4309.24242381,4203.63636322,4461.72727228,4063.51515111,4208.78787837,3140.36363605,4356.6363632,2608.72727247,4992.84848435,2847.75757547,4202.09090867,65.9393939328,4399.39393895,3383.51515118,4317.48484805,2658.18181792,4842.42424194,2868.36363608,4487.48484804,4075.87878747,42.0,42.0,?
2017-08-01 19:17:17.501455,4536.93939349,2975.51515122,4274.21212078,1013.81818172,3959.45454506,2719.99999973,3881.15151476,3041.45454515,4307.18181775,4203.63636322,4453.99999955,4063.51515111,4205.18181776,3140.36363605,4340.15151472,2608.72727247,4987.18181768,2847.75757547,4184.06060564,65.9393939328,4401.45454501,3383.51515118,4313.87878745,2658.18181792,4845.51515103,2868.36363608,4484.90909046,4075.87878747,42.0,42.0,?
2017-08-01 19:17:17.508295,4542.60606015,2975.51515122,4275.75757533,1022.06060596,3953.78787839,2719.99999973,3871.36363598,3041.45454515,4300.99999957,4203.63636322,4452.96969652,4063.51515111,4201.06060564,3140.36363605,4326.24242381,2608.72727247,5000.57575708,2847.75757547,4180.45454504,65.9393939328,4399.90909047,3383.51515118,4317.48484805,2658.18181792,4851.1818177,2868.36363608,4473.57575713,4075.87878747,42.0,42.0,?
2017-08-01 19:17:17.515875,4550.84848439,2975.51515122,4278.33333291,1022.06060596,3959.45454506,2719.99999973,3873.42424204,3041.45454515,4297.90909048,4203.63636322,4451.93939349,4063.51515111,4191.78787837,3140.36363605,4322.12121169,2608.72727247,5000.57575708,2847.75757547,4195.90909049,65.9393939328,4398.87878744,3383.51515118,4324.18181775,2658.18181792,4854.27272679,2868.36363608,4479.24242379,4079.99999959,42.0,42.0,?
2017-08-01 19:17:17.525710,4553.93939348,2975.51515122,4279.36363594,1022.06060596,3960.48484809,2736.48484821,3885.7878784,3041.45454515,4305.12121169,4203.63636322,4459.15151471,4063.51515111,4183.54545413,3140.36363605,4325.72727229,2608.72727247,4986.15151465,2847.75757547,4211.36363594,65.9393939328,4410.72727229,3383.51515118,4322.6363632,2658.18181792,4855.81818133,2868.36363608,4497.78787834,4079.99999959,42.0,42.0,?
2017-08-01 19:17:17.532629,4551.87878742,2975.51515122,4277.81818139,1022.06060596,3953.78787839,2736.48484821,3884.75757537,3037.33333303,4308.7272723,4203.63636322,4469.96969652,4063.51515111,4180.96969655,3140.36363605,4331.39393896,2608.72727247,4982.03030253,2847.75757547,4214.96969655,65.9393939328,4420.51515107,3383.51515118,4319.54545411,2658.18181792,4858.90909042,2868.36363608,4499.33333288,4079.99999959,42.0,42.0,?
2017-08-01 19:17:17.541098,4551.36363591,2975.51515122,4277.81818139,1022.06060596,3951.72727233,2736.48484821,3870.84848446,3037.33333303,4303.06060563,4211.87878746,4472.5454541,4063.51515111,4190.75757534,3140.36363605,4346.3333329,2608.72727247,4993.36363586,2847.75757547,4211.36363594,65.9393939328,4414.33333289,3383.51515118,4324.69696926,2658.18181792,4863.03030254,2868.36363608,4490.57575713,4079.99999959,42.0,42.0,?
2017-08-01 19:17:17.552122,4549.81818136,2975.51515122,4278.33333291,1022.06060596,3951.72727233,2736.48484821,3863.63636325,3037.33333303,4292.24242381,4211.87878746,4470.48484804,4063.51515111,4204.66666625,3140.36363605,4363.3333329,2608.72727247,5009.33333283,2847.75757547,4206.72727231,65.9393939328,4407.12121168,3383.51515118,4325.72727229,2658.18181792,4860.45454497,2868.36363608,4484.90909046,4079.99999959,42.0,42.0,?
2017-08-01 19:17:17.558845,4542.09090864,2975.51515122,4279.36363594,1022.06060596,3945.03030264,2736.48484821,3864.15151477,3037.33333303,4283.99999957,4211.87878746,4466.36363592,4063.51515111,4210.33333291,3140.36363605,4363.3333329,2608.72727247,5012.42424192,2847.75757547,4200.03030261,65.9393939328,4400.9393935,3383.51515118,4316.45454502,2658.18181792,4853.24242376,2868.36363608,4476.1515147,4079.99999959,42.0,42.0,?
2017-08-01 19:17:17.563837,4534.36363591,2975.51515122,4278.33333291,1022.06060596,3936.78787839,2736.48484821,3865.69696931,3037.33333303,4286.06060563,4211.87878746,4467.90909046,4063.51515111,4219.09090867,3140.36363605,4359.21212078,2658.18181792,4999.03030253,2847.75757547,4198.99999958,65.9393939328,4392.69696926,3383.51515118,4315.42424199,2658.18181792,4849.63636315,2868.36363608,4472.5454541,4079.99999959,42.0,42.0,?
2017-08-01 19:17:17.572550,4531.27272682,2975.51515122,4274.7272723,1022.06060596,3937.30302991,2736.48484821,3871.36363598,3037.33333303,4297.39393896,4211.87878746,4476.1515147,4063.51515111,4232.48484806,3140.36363605,4360.75757532,2658.18181792,4992.33333283,2855.99999971,4199.5151511,65.9393939328,4390.6363632,3383.51515118,4322.12121169,2658.18181792,4849.63636315,2868.36363608,4478.21212076,4079.99999959,42.0,42.0,?
2017-08-01 19:17:17.579284,4532.81818136,2975.51515122,4276.27272685,1022.06060596,3945.03030264,2736.48484821,3878.06060567,3037.33333303,4302.0303026,4211.87878746,4471.51515107,4063.51515111,4228.87878746,3140.36363605,4354.06060563,2658.18181792,4992.84848435,2855.99999971,4192.8181814,65.9393939328,4396.30302986,3383.51515118,4320.57575714,2658.18181792,4847.06060558,2868.36363608,4475.12121167,4079.99999959,42.0,42.0,?
2017-08-01 19:17:17.588208,4533.33333288,2975.51515122,4276.78787836,1022.06060596,3946.06060567,2736.48484821,3875.99999961,3037.33333303,4296.87878745,4211.87878746,4455.5454541,4063.51515111,4211.36363594,3140.36363605,4340.66666623,2658.18181792,4990.78787829,2855.99999971,4183.03030261,65.9393939328,4394.2424238,3399.99999966,4315.42424199,2658.18181792,4842.93939346,2868.36363608,4465.33333289,4079.99999959,42.0,42.0,?
2017-08-01 19:17:17.594457,4532.30302985,2975.51515122,4275.75757533,1022.06060596,3940.90909052,2736.48484821,3871.87878749,3037.33333303,4294.30302987,4211.87878746,4454.51515107,4063.51515111,4200.54545413,3140.36363605,4332.93939351,2658.18181792,4987.18181768,2855.99999971,4178.90909049,65.9393939328,4385.48484805,3399.99999966,4317.99999957,2666.42424216,4838.81818133,2868.36363608,4466.87878743,4079.99999959,42.0,42.0,?
2017-08-01 19:17:17.602292,4531.27272682,2975.51515122,4274.7272723,1022.06060596,3939.36363597,2736.48484821,3875.4848481,3037.33333303,4289.66666624,4211.87878746,4460.18181774,4063.51515111,4191.78787837,3140.36363605,4328.30302987,2658.18181792,4981.51515102,2855.99999971,4182.5151511,65.9393939328,4383.42424199,3399.99999966,4320.57575714,2666.42424216,4838.81818133,2893.0909088,4468.93939349,4079.99999959,42.0,42.0,?
2017-08-01 19:17:17.610361,4531.78787833,2975.51515122,4271.12121169,1022.06060596,3940.393939,2736.48484821,3872.90909052,3037.33333303,4284.51515109,4211.87878746,4451.93939349,4063.51515111,4176.84848443,3140.36363605,4324.69696926,2658.18181792,4980.9999995,2855.99999971,4191.78787837,74.1818181744,4390.6363632,3399.99999966,4320.06060563,2666.42424216,4845.51515103,2893.0909088,4465.8484844,4079.99999959,42.0,42.0,?
2017-08-01 19:17:17.618271,4535.90909046,2975.51515122,4274.7272723,1022.06060596,3943.48484809,2736.48484821,3865.69696931,3037.33333303,4286.06060563,4211.87878746,4449.36363592,4063.51515111,4169.1212117,3140.36363605,4330.36363593,2658.18181792,4989.24242374,2855.99999971,4199.5151511,74.1818181744,4399.39393895,3399.99999966,4321.60606017,2666.42424216,4851.1818177,2893.0909088,4474.60606016,4079.99999959,42.0,42.0,?
2017-08-01 19:17:17.626331,4536.93939349,2975.51515122,4276.78787836,1022.06060596,3940.90909052,2736.48484821,3867.75757537,3037.33333303,4292.24242381,4211.87878746,4460.69696925,4063.51515111,4174.27272686,3140.36363605,4336.0303026,2658.18181792,4987.6969692,2855.99999971,4196.93939352,74.1818181744,4395.78787835,3399.99999966,4319.54545411,2666.42424216,4847.57575709,2893.0909088,4484.90909046,4079.99999959,42.0,42.0,?
2017-08-01 19:17:17.634473,4534.87878743,2975.51515122,4272.15151472,1022.06060596,3934.72727233,2736.48484821,3869.30302992,3037.33333303,4300.48484805,4211.87878746,4465.33333289,4063.51515111,4185.60606019,3140.36363605,4330.87878745,2658.18181792,4974.81818132,2855.99999971,4188.69696928,74.1818181744,4384.96969653,3399.99999966,4316.45454502,2666.42424216,4841.39393891,2893.0909088,4477.69696925,4079.99999959,42.0,42.0,?
2017-08-01 19:17:17.641342,4532.30302985,2975.51515122,4271.63636321,1022.06060596,3933.18181779,2736.48484821,3864.15151477,3037.33333303,4298.42424199,4211.87878746,4458.63636319,4063.51515111,4194.87878746,3140.36363605,4328.30302987,2658.18181792,4977.90909041,2855.99999971,4179.42424201,74.1818181744,4381.36363593,3399.99999966,4317.48484805,2666.42424216,4841.90909042,2893.0909088,4462.2424238,4079.99999959,42.0,42.0,?
2017-08-01 19:17:17.648985,4531.78787833,2975.51515122,4275.24242381,1022.06060596,3933.6969693,2736.48484821,3874.45454507,3037.33333303,4288.12121169,4211.87878746,4453.99999955,4063.51515111,4198.48484806,3140.36363605,4332.93939351,2658.18181792,4989.24242374,2855.99999971,4180.96969655,74.1818181744,4387.54545411,3399.99999966,4319.0303026,2666.42424216,4843.96969649,2893.0909088,4460.69696925,4079.99999959,42.0,42.0,?
2017-08-01 19:17:17.656680,4534.87878743,2975.51515122,4277.30302988,1022.06060596,3932.66666627,2736.48484821,3884.24242385,3037.33333303,4284.51515109,4211.87878746,4453.48484804,4063.51515111,4203.63636322,3140.36363605,4332.93939351,2658.18181792,4991.3030298,2855.99999971,4193.84848443,74.1818181744,4396.81818138,3399.99999966,4317.48484805,2666.42424216,4845.51515103,2893.0909088,4477.69696925,4079.99999959,42.0,42.0,?
2017-08-01 19:17:17.670876,4540.54545409,2975.51515122,4274.21212078,1022.06060596,3936.78787839,2736.48484821,3867.75757537,3037.33333303,4292.75757533,4211.87878746,4458.63636319,4063.51515111,4213.424242,3140.36363605,4329.3333329,2658.18181792,4987.18181768,2855.99999971,4196.424242,74.1818181744,4399.39393895,3399.99999966,4317.48484805,2666.42424216,4847.06060558,2893.0909088,4494.69696925,4079.99999959,42.0,42.0,?
2017-08-01 19:17:17.673289,4543.63636318,2975.51515122,4274.7272723,1022.06060596,3940.393939,2736.48484821,3862.0909087,3037.33333303,4296.87878745,4211.87878746,4471.51515107,4063.51515111,4217.54545412,3140.36363605,4333.45454502,2658.18181792,4985.12121162,2855.99999971,4186.63636322,74.1818181744,4392.18181774,3399.99999966,4316.96969654,2666.42424216,4846.03030255,2893.0909088,4491.60606016,4079.99999959,42.0,42.0,?
2017-08-01 19:17:17.680852,4538.48484803,2975.51515122,4275.24242381,1022.06060596,3936.27272688,2736.48484821,3877.03030264,3037.33333303,4295.84848442,4211.87878746,4473.06060561,4063.51515111,4212.39393897,3140.36363605,4346.3333329,2658.18181792,4988.72727223,2855.99999971,4184.57575716,74.1818181744,4378.27272683,3399.99999966,4313.87878745,2666.42424216,4841.90909042,2893.0909088,4477.69696925,4079.99999959,42.0,42.0,?
2017-08-01 19:17:17.689945,4530.24242379,2975.51515122,4271.12121169,1022.06060596,3934.72727233,2736.48484821,3867.75757537,3037.33333303,4294.81818139,4211.87878746,4458.63636319,4063.51515111,4202.60606019,3140.36363605,4350.45454502,2658.18181792,4992.84848435,2855.99999971,4190.24242382,74.1818181744,4373.12121168,3399.99999966,4315.42424199,2666.42424216,4837.7878783,2893.0909088,4477.18181773,4079.99999959,42.0,42.0,?
2017-08-01 19:17:17.696150,4536.42424197,2975.51515122,4274.7272723,1022.06060596,3939.87878748,2736.48484821,3845.09090871,3037.33333303,4289.15151472,4211.87878746,4448.33333289,4063.51515111,4192.30302988,3140.36363605,4342.72727229,2658.18181792,4990.78787829,2855.99999971,4187.15151473,74.1818181744,4387.54545411,3399.99999966,4316.45454502,2666.42424216,4842.93939346,2893.0909088,4487.99999955,4079.99999959,42.0,42.0,?
2017-08-01 19:17:17.705987,4547.7575753,2975.51515122,4278.84848442,1022.06060596,3941.93939355,2736.48484821,3858.4848481,3037.33333303,4289.66666624,4211.87878746,4451.42424198,4063.51515111,4192.8181814,3140.36363605,4336.0303026,2658.18181792,4987.6969692,2855.99999971,4187.15151473,74.1818181744,4399.39393895,3399.99999966,4315.93939351,2666.42424216,4850.66666618,2893.0909088,4491.60606016,4079.99999959,42.0,42.0,?
2017-08-01 19:17:17.712688,4549.81818136,2975.51515122,4277.81818139,1022.06060596,3939.36363597,2736.48484821,3890.93939355,3037.33333303,4299.96969654,4211.87878746,4456.06060561,4063.51515111,4202.60606019,3140.36363605,4338.60606017,2658.18181792,4989.75757526,2855.99999971,4191.27272685,74.1818181744,4396.30302986,3399.99999966,4315.42424199,2666.42424216,4849.12121164,2893.0909088,4484.39393895,4079.99999959,42.0,42.0,?
2017-08-01 19:17:17.724064,4544.1515147,2975.51515122,4274.7272723,1022.06060596,3937.30302991,2736.48484821,3889.393939,3037.33333303,4298.42424199,4211.87878746,4455.03030258,4063.51515111,4207.75757534,3140.36363605,4341.69696926,2658.18181792,4984.60606011,2855.99999971,4180.96969655,74.1818181744,4386.51515108,3399.99999966,4312.3333329,2666.42424216,4842.42424194,2893.0909088,4476.66666622,4079.99999959,42.0,42.0,?
2017-08-01 19:17:17.730692,4534.36363591,2975.51515122,4270.09090866,1022.06060596,3930.60606021,2736.48484821,3861.57575719,3037.33333303,4286.06060563,4211.87878746,4457.09090865,4063.51515111,4211.36363594,3140.36363605,4346.3333329,2658.18181792,4974.81818132,2855.99999971,4171.69696928,74.1818181744,4378.27272683,3399.99999966,4311.81818139,2666.42424216,4839.84848436,2893.0909088,4467.39393895,4079.99999959,42.0,42.0,?
2017-08-01 19:17:17.735112,4526.12121167,2975.51515122,4274.7272723,1022.06060596,3926.48484809,2736.48484821,3854.36363598,3037.33333303,4291.21212078,4211.87878746,4461.21212077,4063.51515111,4221.15151473,3140.36363605,4354.06060563,2658.18181792,4978.42424193,2855.99999971,4188.18181776,74.1818181744,4379.30302987,3399.99999966,4317.48484805,2666.42424216,4838.81818133,2893.0909088,4464.81818137,4079.99999959,42.0,42.0,?
2017-08-01 19:17:17.744494,4531.78787833,2975.51515122,4278.33333291,1022.06060596,3929.57575718,2736.48484821,3871.36363598,3037.33333303,4304.60606018,4211.87878746,4462.2424238,4063.51515111,4227.33333291,3140.36363605,4357.15151472,2658.18181792,4995.93939344,2855.99999971,4203.63636322,74.1818181744,4385.99999956,3399.99999966,4319.0303026,2666.42424216,4839.33333285,2893.0909088,4482.33333289,4079.99999959,42.0,42.0,?
2017-08-01 19:17:17.750966,4546.72727227,2975.51515122,4277.81818139,1022.06060596,3932.15151476,2736.48484821,3870.33333295,3037.33333303,4296.87878745,4211.87878746,4463.27272683,4063.51515111,4224.75757534,3140.36363605,4353.54545411,2658.18181792,5003.15151465,2855.99999971,4195.90909049,74.1818181744,4392.69696926,3399.99999966,4314.90909048,2666.42424216,4848.09090861,2893.0909088,4496.24242379,4079.99999959,42.0,42.0,?
2017-08-01 19:17:17.758574,4552.39393894,2975.51515122,4280.39393897,1022.06060596,3933.18181779,2736.48484821,3858.4848481,3037.33333303,4285.54545412,4211.87878746,4465.33333289,4063.51515111,4225.27272685,3140.36363605,4354.06060563,2658.18181792,4994.90909041,2855.99999971,4193.33333291,74.1818181744,4405.57575714,3399.99999966,4315.93939351,2666.42424216,4861.484848,2893.0909088,4490.57575713,4079.99999959,42.0,42.0,?
2017-08-01 19:17:17.766407,4548.78787833,2975.51515122,4280.90909048,1022.06060596,3933.18181779,2736.48484821,3864.66666628,3037.33333303,4290.69696927,4211.87878746,4467.90909046,4063.51515111,4229.90909049,3140.36363605,4363.3333329,2658.18181792,4995.42424192,2855.99999971,4205.18181776,74.1818181744,4412.27272683,3399.99999966,4318.51515108,2666.42424216,4866.12121163,2893.0909088,4482.33333289,4079.99999959,42.0,42.0,?
2017-08-01 19:17:17.777072,4551.87878742,2975.51515122,4283.99999957,1022.06060596,3930.0909087,2736.48484821,3866.21212083,3037.33333303,4296.87878745,4211.87878746,4469.45454501,4063.51515111,4229.39393897,3140.36363605,4364.87878744,2658.18181792,5002.63636314,2855.99999971,4203.1212117,74.1818181744,4395.27272683,3399.99999966,4316.96969654,2666.42424216,4859.42424194,2893.0909088,4477.69696925,4079.99999959,42.0,42.0,?
2017-08-01 19:17:17.782310,4554.454545,2975.51515122,4286.06060563,1022.06060596,3928.03030264,2736.48484821,3864.15151477,3037.33333303,4296.87878745,4211.87878746,4466.36363592,4063.51515111,4224.24242382,3140.36363605,4355.09090866,2658.18181792,5005.21212071,2855.99999971,4191.78787837,74.1818181744,4382.90909047,3399.99999966,4316.96969654,2666.42424216,4853.75757527,2893.0909088,4485.42424198,4079.99999959,42.0,42.0,?
2017-08-01 19:17:17.791456,4548.27272682,2975.51515122,4281.424242,1022.06060596,3926.99999961,2736.48484821,3877.03030264,3037.33333303,4297.90909048,4211.87878746,4463.78787834,4063.51515111,4217.54545412,3140.36363605,4349.42424199,2658.18181792,5003.15151465,2855.99999971,4192.8181814,74.1818181744,4389.09090865,3399.99999966,4317.48484805,2666.42424216,4859.42424194,2893.0909088,4503.454545,4079.99999959,42.0,42.0,?
2017-08-01 19:17:17.798601,4546.21212076,2975.51515122,4277.81818139,1022.06060596,3924.42424203,2736.48484821,3884.75757537,3037.33333303,4297.39393896,4211.87878746,4468.42424198,4063.51515111,4209.30302988,3140.36363605,4346.84848441,2658.18181792,4997.9999995,2855.99999971,4201.06060564,74.1818181744,4395.27272683,3399.99999966,4314.90909048,2666.42424216,4865.60606012,2893.0909088,4502.93939349,4079.99999959,42.0,42.0,?
2017-08-01 19:17:17.806774,4549.30302985,2975.51515122,4277.30302988,1022.06060596,3920.30302991,2736.48484821,3872.90909052,3037.33333303,4293.27272684,4211.87878746,4472.5454541,4063.51515111,4207.75757534,3140.36363605,4344.27272684,2658.18181792,4994.39393889,2855.99999971,4206.21212079,74.1818181744,4399.90909047,3399.99999966,4314.90909048,2666.42424216,4860.96969648,2893.0909088,4492.12121167,4079.99999959,42.0,42.0,?
2017-08-01 19:17:17.820982,4550.84848439,2975.51515122,4278.84848442,1022.06060596,3920.30302991,2736.48484821,3859.51515113,3037.33333303,4292.75757533,4211.87878746,4471.51515107,4063.51515111,4210.84848443,3140.36363605,4348.90909047,2658.18181792,4992.33333283,2855.99999971,4210.33333291,74.1818181744,4408.66666623,3399.99999966,4316.45454502,2666.42424216,4855.30302982,2893.0909088,4490.57575713,4079.99999959,42.0,42.0,?
2017-08-01 19:17:17.824002,4554.454545,2975.51515122,4273.69696927,1022.06060596,3923.90909052,2736.48484821,3863.63636325,3037.33333303,4299.96969654,4211.87878746,4480.78787834,4063.51515111,4216.51515109,3140.36363605,4361.78787835,2658.18181792,4995.42424192,2855.99999971,4211.87878746,74.1818181744,4411.2424238,3399.99999966,4315.42424199,2666.42424216,4862.51515103,2893.0909088,4490.57575713,4079.99999959,42.0,42.0,?
2017-08-01 19:17:17.829143,4553.93939348,2975.51515122,4267.51515109,1022.06060596,3921.33333294,2736.48484821,3875.4848481,3037.33333303,4300.48484805,4211.87878746,4483.36363592,4063.51515111,4221.66666624,3140.36363605,4366.42424199,2658.18181792,5000.06060556,2855.99999971,4207.75757534,74.1818181744,4402.99999956,3399.99999966,4314.39393896,2666.42424216,4866.63636315,2893.0909088,4493.1515147,4079.99999959,42.0,42.0,?
2017-08-01 19:17:17.840088,4547.24242379,2975.51515122,4270.60606018,1022.06060596,3914.12121173,2736.48484821,3873.93939355,3037.33333303,4289.15151472,4211.87878746,4465.8484844,4063.51515111,4219.09090867,3140.36363605,4355.09090866,2658.18181792,4995.42424192,2855.99999971,4200.54545413,74.1818181744,4399.39393895,3399.99999966,4314.90909048,2666.42424216,4862.51515103,2893.0909088,4494.18181773,4079.99999959,42.0,42.0,?
2017-08-01 19:17:17.848973,4546.21212076,2975.51515122,4270.09090866,1022.06060596,3914.12121173,2736.48484821,3862.60606022,3037.33333303,4286.57575715,4211.87878746,4456.06060561,4063.51515111,4213.93939352,3140.36363605,4349.42424199,2658.18181792,4991.3030298,2855.99999971,4201.57575716,74.1818181744,4401.45454501,3399.99999966,4314.39393896,2666.42424216,4863.54545406,2893.0909088,4485.42424198,4079.99999959,42.0,42.0,?
2017-08-01 19:17:17.854955,4553.42424197,2975.51515122,4271.63636321,1022.06060596,3918.24242385,2736.48484821,3856.93939355,3037.33333303,4292.75757533,4211.87878746,4463.27272683,4063.51515111,4218.57575715,3140.36363605,4357.15151472,2658.18181792,5001.09090859,2855.99999971,4202.60606019,74.1818181744,4402.48484804,3399.99999966,4313.36363593,2666.42424216,4866.63636315,2893.0909088,4483.87878743,4079.99999959,42.0,42.0,?
2017-08-01 19:17:17.860294,4561.1515147,2975.51515122,4276.78787836,1022.06060596,3924.42424203,2736.48484821,3861.06060567,3037.33333303,4294.30302987,4211.87878746,4469.96969652,4063.51515111,4220.63636321,3140.36363605,4356.6363632,2658.18181792,5007.27272677,2855.99999971,4202.09090867,74.1818181744,4408.15151471,3399.99999966,4314.39393896,2666.42424216,4869.21212073,2893.0909088,4498.30302985,4079.99999959,42.0,42.0,?
2017-08-01 19:17:17.867569,4559.09090864,2975.51515122,4274.21212078,1022.06060596,3924.93939355,2736.48484821,3871.36363598,3037.33333303,4293.27272684,4211.87878746,4470.48484804,4063.51515111,4209.8181814,3140.36363605,4342.21212078,2658.18181792,4995.93939344,2855.99999971,4205.18181776,74.1818181744,4411.75757532,3399.99999966,4312.3333329,2666.42424216,4873.33333285,2893.0909088,4503.454545,4079.99999959,42.0,42.0,?
2017-08-01 19:17:17.876477,4549.81818136,2975.51515122,4275.24242381,1022.06060596,3921.33333294,2736.48484821,3878.06060567,3037.33333303,4290.18181775,4211.87878746,4465.33333289,4063.51515111,4201.06060564,3140.36363605,4335.51515108,2658.18181792,4987.6969692,2855.99999971,4206.72727231,74.1818181744,4404.03030259,3399.99999966,4311.81818139,2666.42424216,4868.1818177,2893.0909088,4498.81818137,4079.99999959,42.0,42.0,?
2017-08-01 19:17:17.886964,4544.1515147,2975.51515122,4276.78787836,1022.06060596,3921.33333294,2736.48484821,3877.54545416,3037.33333303,4290.18181775,4211.87878746,4464.81818137,4063.51515111,4207.24242382,3140.36363605,4346.84848441,2658.18181792,5000.06060556,2855.99999971,4204.66666625,74.1818181744,4398.36363592,3399.99999966,4311.81818139,2666.42424216,4854.27272679,2893.0909088,4501.90909046,4079.99999959,42.0,42.0,?
2017-08-01 19:17:17.891616,4545.18181773,2975.51515122,4274.21212078,1022.06060596,3922.36363597,2736.48484821,3881.15151476,3037.33333303,4302.54545412,4211.87878746,4475.63636319,4063.51515111,4215.99999958,3140.36363605,4358.69696926,2658.18181792,5014.9999995,2855.99999971,4209.30302988,74.1818181744,4400.42424198,3399.99999966,4307.18181775,2666.42424216,4852.21212073,2893.0909088,4502.42424197,4079.99999959,42.0,42.0,?
2017-08-01 19:17:17.898902,4549.30302985,2975.51515122,4273.18181775,1022.06060596,3924.93939355,2736.48484821,3879.60606022,3037.33333303,4309.75757533,4211.87878746,4487.99999955,4063.51515111,4217.03030261,3140.36363605,4355.09090866,2658.18181792,5016.54545404,2855.99999971,4223.21212079,74.1818181744,4399.90909047,3399.99999966,4307.69696927,2666.42424216,4865.0909086,2893.0909088,4497.27272682,4079.99999959,42.0,42.0,?
2017-08-01 19:17:17.908116,4546.21212076,2975.51515122,4271.63636321,1022.06060596,3935.24242385,2736.48484821,3862.0909087,3037.33333303,4297.39393896,4211.87878746,4486.45454501,4063.51515111,4212.90909049,3140.36363605,4349.42424199,2658.18181792,5007.78787829,2855.99999971,4220.1212117,74.1818181744,4395.78787835,3399.99999966,4314.39393896,2666.42424216,4870.75757527,2893.0909088,4497.27272682,4079.99999959,42.0,42.0,?
2017-08-01 19:17:17.914820,4537.454545,2975.51515122,4270.09090866,1022.06060596,3946.06060567,2736.48484821,3866.21212083,3037.33333303,4289.15151472,4211.87878746,4473.57575713,4063.51515111,4208.78787837,3140.36363605,4347.36363593,2658.18181792,4996.96969647,2855.99999971,4199.5151511,74.1818181744,4393.21212077,3399.99999966,4314.90909048,2666.42424216,4860.96969648,2893.0909088,4494.69696925,4079.99999959,42.0,42.0,?
2017-08-01 19:17:17.925704,4533.33333288,2975.51515122,4269.06060563,1022.06060596,3944.51515112,2736.48484821,3888.87878749,3037.33333303,4295.84848442,4211.87878746,4456.57575713,4063.51515111,4204.66666625,3140.36363605,4340.15151472,2658.18181792,4984.09090859,2855.99999971,4195.90909049,74.1818181744,4393.21212077,3399.99999966,4307.18181775,2666.42424216,4850.66666618,2893.0909088,4485.42424198,4079.99999959,42.0,42.0,?
2017-08-01 19:17:17.931067,4533.33333288,2975.51515122,4268.0303026,1022.06060596,3942.45454506,2736.48484821,3879.60606022,3037.33333303,4294.81818139,4211.87878746,4445.2424238,4063.51515111,4197.45454503,3140.36363605,4329.3333329,2658.18181792,4971.72727223,2855.99999971,4204.66666625,74.1818181744,4393.72727229,3399.99999966,4300.99999957,2666.42424216,4847.57575709,2893.0909088,4482.33333289,4079.99999959,42.0,42.0,?
2017-08-01 19:17:17.939477,4532.30302985,2975.51515122,4271.12121169,1022.06060596,3948.12121173,2736.48484821,3857.45454507,3037.33333303,4288.63636321,4211.87878746,4447.30302986,4063.51515111,4189.72727231,3140.36363605,4323.66666623,2658.18181792,4974.30302981,2855.99999971,4201.57575716,74.1818181744,4391.66666623,3399.99999966,4304.09090866,2666.42424216,4841.90909042,2893.0909088,4478.72727228,4079.99999959,42.0,42.0,?
2017-08-01 19:17:17.946183,4533.33333288,2975.51515122,4272.15151472,1022.06060596,3957.90909051,2736.48484821,3869.81818143,3037.33333303,4293.27272684,4211.87878746,4459.66666622,4063.51515111,4195.90909049,3140.36363605,4329.84848442,2658.18181792,4987.18181768,2855.99999971,4202.60606019,74.1818181744,4389.60606017,3399.99999966,4312.84848442,2666.42424216,4839.84848436,2893.0909088,4476.1515147,4079.99999959,42.0,42.0,?
2017-08-01 19:17:17.953868,4544.66666621,2975.51515122,4269.57575715,1022.06060596,3971.30302991,2736.48484821,3886.30302991,3037.33333303,4300.48484805,4211.87878746,4470.48484804,4063.51515111,4209.30302988,3140.36363605,4347.87878744,2658.18181792,4995.93939344,2855.99999971,4214.45454503,74.1818181744,4402.48484804,3399.99999966,4310.78787836,2666.42424216,4854.27272679,2893.0909088,4490.06060561,4079.99999959,42.0,42.0,?
2017-08-01 19:17:17.963303,4551.36363591,2975.51515122,4272.66666624,1022.06060596,3973.87878748,2736.48484821,3878.57575719,3037.33333303,4293.78787836,4211.87878746,4471.51515107,4063.51515111,4215.48484806,3140.36363605,4355.60606017,2658.18181792,4995.93939344,2855.99999971,4211.87878746,74.1818181744,4413.81818138,3399.99999966,4299.96969654,2666.42424216,4860.96969648,2893.0909088,4494.18181773,4079.99999959,42.0,42.0,?
2017-08-01 19:17:17.971333,4545.69696924,2975.51515122,4273.18181775,1022.06060596,3966.15151475,2736.48484821,3877.03030264,3037.33333303,4282.96969654,4211.87878746,4468.93939349,4063.51515111,4212.90909049,3140.36363605,4348.90909047,2658.18181792,4992.33333283,2855.99999971,4200.54545413,74.1818181744,4402.48484804,3399.99999966,4300.48484805,2666.42424216,4847.57575709,2893.0909088,4473.57575713,4079.99999959,42.0,42.0,?
2017-08-01 19:17:17.977605,4543.12121167,2975.51515122,4270.60606018,1022.06060596,3965.63636324,2736.48484821,3882.69696931,3037.33333303,4288.63636321,4211.87878746,4469.45454501,4063.51515111,4213.424242,3140.36363605,4351.48484805,2658.18181792,4993.87878738,2855.99999971,4199.5151511,74.1818181744,4395.78787835,3399.99999966,4308.21212078,2666.42424216,4838.81818133,2893.0909088,4474.09090864,4079.99999959,42.0,42.0,?
2017-08-01 19:17:17.985057,4544.1515147,2975.51515122,4272.15151472,1022.06060596,3969.75757536,2736.48484821,3863.12121173,3037.33333303,4299.45454502,4211.87878746,4469.45454501,4063.51515111,4216.51515109,3140.36363605,4357.15151472,2658.18181792,4999.03030253,2855.99999971,4203.1212117,74.1818181744,4404.03030259,3399.99999966,4307.18181775,2666.42424216,4841.90909042,2893.0909088,4494.69696925,4079.99999959,42.0,42.0,?
2017-08-01 19:17:17.992578,4540.54545409,2975.51515122,4275.24242381,1022.06060596,3962.03030263,2736.48484821,3844.57575719,3037.33333303,4295.3333329,4211.87878746,4470.48484804,4063.51515111,4215.48484806,3140.36363605,4344.78787835,2658.18181792,4986.15151465,2855.99999971,4196.93939352,74.1818181744,4400.42424198,3399.99999966,4300.99999957,2666.42424216,4840.36363588,2893.0909088,4484.90909046,4079.99999959,42.0,42.0,?
2017-08-01 19:17:18.001334,4543.63636318,2975.51515122,4274.7272723,1022.06060596,3957.393939,2736.48484821,3861.06060567,3037.33333303,4289.66666624,4211.87878746,4472.5454541,4063.51515111,4207.75757534,3140.36363605,4334.48484805,2658.18181792,4972.24242375,2855.99999971,4186.63636322,74.1818181744,4394.75757532,3399.99999966,4300.48484805,2666.42424216,4840.87878739,2893.0909088,4473.06060561,4079.99999959,42.0,42.0,?
2017-08-01 19:17:18.008529,4555.99999954,2967.27272698,4274.7272723,1022.06060596,3972.33333294,2736.48484821,3874.96969658,3037.33333303,4297.39393896,4211.87878746,4473.57575713,4063.51515111,4204.15151473,3140.36363605,4339.6363632,2658.18181792,4989.24242374,2855.99999971,4195.39393897,74.1818181744,4406.09090865,3399.99999966,4303.57575715,2666.42424216,4851.69696921,2893.0909088,4497.78787834,4079.99999959,42.0,42.0,?
2017-08-01 19:17:18.017255,4561.1515147,2967.27272698,4277.30302988,1059.15151505,3982.12121172,2736.48484821,3863.12121173,3037.33333303,4297.90909048,4211.87878746,4472.03030258,4063.51515111,4205.69696928,3140.36363605,4342.72727229,2658.18181792,5002.12121162,2855.99999971,4214.96969655,74.1818181744,4414.84848441,3399.99999966,4303.57575715,2666.42424216,4861.99999951,2893.0909088,4514.78787834,4079.99999959,42.0,42.0,?
2017-08-01 19:17:18.024553,4558.0606056,2967.27272698,4273.69696927,1059.15151505,3977.48484809,2736.48484821,3863.12121173,3037.33333303,4287.09090866,4211.87878746,4469.96969652,4063.51515111,4201.57575716,3140.36363605,4339.12121169,2658.18181792,4989.24242374,2855.99999971,4215.99999958,74.1818181744,4410.72727229,3399.99999966,4302.54545412,2666.42424216,4865.0909086,2893.0909088,4502.42424197,4075.87878747,42.0,42.0,?
2017-08-01 19:17:18.032019,4557.54545409,2967.27272698,4270.60606018,1059.15151505,3975.93939354,2736.48484821,3881.15151476,3037.33333303,4281.93939351,4211.87878746,4467.39393895,4063.51515111,4198.48484806,3140.36363605,4334.99999957,2658.18181792,4984.60606011,2855.99999971,4202.09090867,74.1818181744,4410.72727229,3399.99999966,4302.0303026,2666.42424216,4861.99999951,2893.0909088,4489.5454541,4075.87878747,42.0,42.0,?
2017-08-01 19:17:18.041759,4558.0606056,2967.27272698,4272.66666624,1059.15151505,3975.93939354,2736.48484821,3875.99999961,3037.33333303,4285.54545412,4211.87878746,4465.8484844,4063.51515111,4201.06060564,3140.36363605,4331.39393896,2658.18181792,4991.81818132,2855.99999971,4203.1212117,74.1818181744,4411.2424238,3399.99999966,4300.48484805,2666.42424216,4856.33333285,2893.0909088,4492.12121167,4075.87878747,42.0,42.0,?
2017-08-01 19:17:18.048208,4557.54545409,2967.27272698,4272.15151472,1059.15151505,3968.72727233,2736.48484821,3860.54545416,3037.33333303,4293.27272684,4203.63636322,4467.39393895,4063.51515111,4205.18181776,3140.36363605,4333.96969654,2658.18181792,4992.33333283,2855.99999971,4209.8181814,74.1818181744,4412.27272683,3399.99999966,4301.51515109,2666.42424216,4856.84848436,2893.0909088,4507.06060561,4075.87878747,42.0,42.0,?
2017-08-01 19:17:18.056839,4559.60606015,2967.27272698,4273.18181775,1059.15151505,3971.81818142,2736.48484821,3860.54545416,3037.33333303,4294.30302987,4203.63636322,4470.99999955,4067.63636323,4208.27272685,3140.36363605,4343.24242381,2658.18181792,4989.75757526,2855.99999971,4201.06060564,74.1818181744,4417.42424198,3399.99999966,4301.51515109,2666.42424216,4860.96969648,2893.0909088,4520.454545,4075.87878747,42.0,42.0,?
2017-08-01 19:17:18.065182,4558.0606056,2967.27272698,4271.63636321,1059.15151505,3976.96969657,2736.48484821,3865.69696931,3037.33333303,4287.60606018,4203.63636322,4478.21212076,4067.63636323,4210.84848443,3136.24242393,4346.3333329,2658.18181792,4994.90909041,2855.99999971,4196.93939352,74.1818181744,4416.39393895,3399.99999966,4298.93939351,2666.42424216,4858.90909042,2893.0909088,4520.96969652,4075.87878747,42.0,42.0,?
2017-08-01 19:17:18.071842,4551.87878742,2967.27272698,4267.51515109,1059.15151505,3967.6969693,2736.48484821,3868.27272689,3037.33333303,4287.09090866,4203.63636322,4480.27272682,4067.63636323,4214.96969655,3136.24242393,4346.3333329,2658.18181792,4995.93939344,2855.99999971,4204.66666625,74.1818181744,4408.15151471,3399.99999966,4298.93939351,2666.42424216,4855.81818133,2893.0909088,4509.63636319,4075.87878747,42.0,42.0,?
2017-08-01 19:17:18.080677,4548.78787833,2967.27272698,4269.06060563,1059.15151505,3960.9999996,2736.48484821,3868.7878784,3037.33333303,4295.84848442,4203.63636322,4475.63636319,4067.63636323,4215.99999958,3136.24242393,4341.69696926,2658.18181792,4984.60606011,2884.84848456,4199.5151511,74.1818181744,4405.06060562,3399.99999966,4299.45454502,2666.42424216,4856.84848436,2893.0909088,4492.63636319,4075.87878747,42.0,42.0,?
2017-08-01 19:17:18.092021,4548.27272682,2967.27272698,4269.57575715,1059.15151505,3968.72727233,2736.48484821,3866.21212083,3037.33333303,4300.99999957,4203.63636322,4475.12121167,4067.63636323,4215.99999958,3136.24242393,4334.99999957,2658.18181792,4978.42424193,2884.84848456,4189.72727231,94.7878787784,4407.12121168,3399.99999966,4298.93939351,2666.42424216,4851.69696921,2893.0909088,4485.93939349,4075.87878747,42.0,42.0,?
2017-08-01 19:17:18.099696,4550.84848439,2967.27272698,4270.09090866,1059.15151505,3973.87878748,2736.48484821,3865.69696931,3037.33333303,4299.96969654,4203.63636322,4479.24242379,4067.63636323,4218.57575715,3136.24242393,4340.66666623,2658.18181792,4994.39393889,2884.84848456,4198.48484806,94.7878787784,4406.09090865,3424.72727238,4298.93939351,2666.42424216,4844.99999952,2893.0909088,4499.8484844,4075.87878747,42.0,42.0,?
2017-08-01 19:17:18.105481,4555.99999954,2967.27272698,4271.12121169,1059.15151505,3970.27272688,2736.48484821,3861.57575719,3037.33333303,4302.54545412,4203.63636322,4479.24242379,4067.63636323,4225.78787837,3136.24242393,4353.54545411,2658.18181792,5012.93939344,2884.84848456,4209.30302988,94.7878787784,4405.57575714,3424.72727238,4298.93939351,2666.42424216,4850.66666618,2893.0909088,4512.21212076,4075.87878747,42.0,42.0,?
2017-08-01 19:17:18.111393,4556.51515106,2967.27272698,4268.54545412,1059.15151505,3965.12121172,2736.48484821,3858.4848481,3037.33333303,4301.51515109,4203.63636322,4475.12121167,4067.63636323,4226.8181814,3136.24242393,4351.99999956,2658.18181792,5011.90909041,2884.84848456,4210.33333291,94.7878787784,4405.57575714,3424.72727238,4297.90909048,2666.42424216,4860.45454497,2897.21212092,4503.96969652,4075.87878747,42.0,42.0,?
2017-08-01 19:17:18.118143,4554.454545,2967.27272698,4268.54545412,1059.15151505,3962.03030263,2736.48484821,3871.87878749,3037.33333303,4293.78787836,4203.63636322,4472.5454541,4067.63636323,4221.66666624,3136.24242393,4338.60606017,2658.18181792,5000.57575708,2884.84848456,4208.78787837,90.6666666576,4408.66666623,3424.72727238,4300.99999957,2666.42424216,4863.03030254,2897.21212092,4494.18181773,4075.87878747,42.0,42.0,?
2017-08-01 19:17:18.125717,4553.93939348,2967.27272698,4270.09090866,1059.15151505,3964.09090869,2736.48484821,3887.84848446,3037.33333303,4297.39393896,4203.63636322,4473.06060561,4067.63636323,4223.21212079,3136.24242393,4339.12121169,2658.18181792,4995.93939344,2884.84848456,4200.54545413,90.6666666576,4410.21212077,3424.72727238,4299.45454502,2666.42424216,4858.90909042,2897.21212092,4499.33333288,4075.87878747,42.0,42.0,?
2017-08-01 19:17:18.134278,4551.36363591,2967.27272698,4272.15151472,1059.15151505,3964.60606021,2736.48484821,3883.72727234,3037.33333303,4306.66666624,4203.63636322,4474.60606016,4067.63636323,4223.21212079,3136.24242393,4345.30302987,2658.18181792,4994.90909041,2884.84848456,4196.424242,90.6666666576,4406.09090865,3424.72727238,4291.21212078,2666.42424216,4849.12121164,2897.21212092,4501.39393894,4075.87878747,42.0,42.0,?
2017-08-01 19:17:18.143582,4549.81818136,2967.27272698,4274.7272723,1059.15151505,3957.90909051,2736.48484821,3869.81818143,3037.33333303,4299.96969654,4203.63636322,4475.12121167,4067.63636323,4227.33333291,3136.24242393,4348.39393896,2658.18181792,4987.18181768,2884.84848456,4199.5151511,90.6666666576,4407.12121168,3424.72727238,4289.15151472,2666.42424216,4849.12121164,2897.21212092,4488.51515107,4075.87878747,42.0,42.0,?
2017-08-01 19:17:18.149721,4554.454545,2967.27272698,4271.63636321,1059.15151505,3957.90909051,2736.48484821,3861.06060567,3037.33333303,4291.21212078,4203.63636322,4474.60606016,4067.63636323,4235.06060564,3136.24242393,4347.87878744,2658.18181792,4986.66666617,2884.84848456,4193.33333291,90.6666666576,4409.69696926,3424.72727238,4292.75757533,2666.42424216,4856.33333285,2897.21212092,4494.18181773,4075.87878747,42.0,42.0,?
2017-08-01 19:17:18.157577,4556.51515106,2967.27272698,4271.12121169,1059.15151505,3965.63636324,2736.48484821,3868.27272689,3037.33333303,4297.90909048,4203.63636322,4475.12121167,4067.63636323,4232.99999958,3136.24242393,4338.60606017,2658.18181792,4992.33333283,2884.84848456,4190.24242382,90.6666666576,4404.03030259,3424.72727238,4296.36363593,2666.42424216,4856.84848436,2897.21212092,4516.8484844,4075.87878747,42.0,42.0,?
2017-08-01 19:17:18.165570,4551.36363591,2967.27272698,4271.63636321,1059.15151505,3957.90909051,2736.48484821,3873.42424204,3037.33333303,4303.57575715,4203.63636322,4473.06060561,4067.63636323,4224.24242382,3136.24242393,4330.36363593,2658.18181792,4994.90909041,2884.84848456,4201.57575716,90.6666666576,4398.87878744,3424.72727238,4293.27272684,2666.42424216,4850.66666618,2897.21212092,4507.57575713,4075.87878747,42.0,42.0,?
2017-08-01 19:17:18.176538,4549.81818136,2967.27272698,4269.06060563,1059.15151505,3951.21212082,2736.48484821,3867.24242386,3037.33333303,4297.39393896,4203.63636322,4472.5454541,4067.63636323,4223.21212079,3136.24242393,4338.60606017,2658.18181792,5002.63636314,2884.84848456,4206.72727231,90.6666666576,4401.45454501,3424.72727238,4289.66666624,2666.42424216,4850.15151467,2897.21212092,4479.24242379,4075.87878747,42.0,42.0,?
2017-08-01 19:17:18.182013,4555.48484803,2967.27272698,4267.51515109,1059.15151505,3964.09090869,2736.48484821,3874.45454507,3037.33333303,4292.24242381,4203.63636322,4477.18181773,4067.63636323,4226.30302988,3136.24242393,4352.51515108,2658.18181792,5014.9999995,2884.84848456,4208.78787837,90.6666666576,4407.12121168,3424.72727238,4292.75757533,2666.42424216,4857.87878739,2897.21212092,4492.12121167,4075.87878747,42.0,42.0,?
2017-08-01 19:17:18.190828,4552.39393894,2967.27272698,4264.93939351,1059.15151505,3962.54545415,2736.48484821,3883.72727234,3037.33333303,4291.7272723,4203.63636322,4475.12121167,4067.63636323,4220.63636321,3136.24242393,4351.99999956,2658.18181792,5012.42424192,2884.84848456,4208.78787837,90.6666666576,4403.51515107,3424.72727238,4293.27272684,2666.42424216,4853.24242376,2897.21212092,4512.21212076,4075.87878747,42.0,42.0,?
2017-08-01 19:17:18.197484,4542.60606015,2967.27272698,4262.36363594,1059.15151505,3942.45454506,2736.48484821,3864.15151477,3037.33333303,4286.57575715,4203.63636322,4464.30302986,4067.63636323,4207.24242382,3136.24242393,4342.21212078,2658.18181792,4994.39393889,2884.84848456,4189.72727231,90.6666666576,4390.12121168,3424.72727238,4286.06060563,2666.42424216,4837.7878783,2897.21212092,4486.45454501,4075.87878747,42.0,42.0,?
2017-08-01 19:17:18.203847,4538.99999955,2967.27272698,4260.30302988,1059.15151505,3943.48484809,2736.48484821,3847.15151477,3037.33333303,4282.45454503,4203.63636322,4459.15151471,4067.63636323,4198.99999958,3136.24242393,4336.0303026,2658.18181792,4989.24242374,2884.84848456,4175.8181814,90.6666666576,4386.51515108,3424.72727238,4282.45454503,2666.42424216,4834.1818177,2897.21212092,4469.45454501,4075.87878747,42.0,42.0,?
2017-08-01 19:17:18.214357,4538.99999955,2967.27272698,4259.27272685,1059.15151505,3955.84848445,2736.48484821,3870.84848446,3037.33333303,4286.57575715,4203.63636322,4460.18181774,4067.63636323,4205.18181776,3136.24242393,4336.0303026,2658.18181792,4993.36363586,2884.84848456,4191.78787837,90.6666666576,4397.33333289,3424.72727238,4286.57575715,2666.42424216,4839.33333285,2897.21212092,4493.1515147,4075.87878747,42.0,42.0,?
2017-08-01 19:17:18.221179,4537.96969652,2967.27272698,4260.30302988,1059.15151505,3950.6969693,2736.48484821,3888.87878749,3037.33333303,4286.06060563,4203.63636322,4456.06060561,4067.63636323,4212.39393897,3136.24242393,4338.60606017,2658.18181792,4987.6969692,2884.84848456,4196.424242,90.6666666576,4393.21212077,3424.72727238,4284.51515109,2666.42424216,4835.21212073,2897.21212092,4497.27272682,4075.87878747,42.0,42.0,?
2017-08-01 19:17:18.229381,4538.48484803,2967.27272698,4259.78787836,1059.15151505,3946.57575718,2736.48484821,3871.87878749,3037.33333303,4285.0303026,4203.63636322,4451.93939349,4067.63636323,4212.39393897,3136.24242393,4342.21212078,2658.18181792,4985.12121162,2884.84848456,4180.45454504,90.6666666576,4385.99999956,3424.72727238,4281.93939351,2666.42424216,4834.69696921,2897.21212092,4475.12121167,4075.87878747,42.0,42.0,?
2017-08-01 19:17:18.237670,4544.66666621,2967.27272698,4261.84848442,1059.15151505,3954.81818142,2736.48484821,3865.1818178,3037.33333303,4290.69696927,4203.63636322,4457.09090865,4067.63636323,4217.54545412,3136.24242393,4345.81818138,2658.18181792,4989.24242374,2884.84848456,4187.66666625,90.6666666576,4401.45454501,3424.72727238,4285.0303026,2666.42424216,4850.66666618,2897.21212092,4484.39393895,4075.87878747,42.0,42.0,?
2017-08-01 19:17:18.243770,4549.81818136,2967.27272698,4263.39393897,1059.15151505,3954.30302991,2736.48484821,3877.54545416,3037.33333303,4287.09090866,4203.63636322,4463.27272683,4067.63636323,4222.69696927,3136.24242393,4346.3333329,2658.18181792,4994.39393889,2884.84848456,4208.27272685,90.6666666576,4414.84848441,3424.72727238,4288.12121169,2666.42424216,4858.39393891,2897.21212092,4511.18181773,4075.87878747,42.0,42.0,?
2017-08-01 19:17:18.251366,4547.24242379,2967.27272698,4261.33333291,1059.15151505,3946.57575718,2736.48484821,3873.42424204,3037.33333303,4283.99999957,4203.63636322,4462.2424238,4067.63636323,4217.03030261,3136.24242393,4346.84848441,2658.18181792,5004.6969692,2884.84848456,4209.30302988,90.6666666576,4405.06060562,3424.72727238,4287.60606018,2666.42424216,4851.69696921,2897.21212092,4508.09090864,4075.87878747,42.0,42.0,?
2017-08-01 19:17:18.260553,4543.63636318,2967.27272698,4261.33333291,1059.15151505,3946.57575718,2736.48484821,3858.4848481,3037.33333303,4291.21212078,4203.63636322,4460.18181774,4067.63636323,4212.90909049,3136.24242393,4345.81818138,2658.18181792,5016.03030253,2884.84848456,4205.18181776,90.6666666576,4402.48484804,3424.72727238,4282.96969654,2666.42424216,4849.63636315,2897.21212092,4495.72727228,4075.87878747,42.0,42.0,?
2017-08-01 19:17:18.271580,4546.72727227,2967.27272698,4261.33333291,1059.15151505,3952.24242385,2736.48484821,3859.51515113,3037.33333303,4290.18181775,4203.63636322,4466.87878743,4067.63636323,4214.96969655,3136.24242393,4339.6363632,2658.18181792,5010.36363586,2884.84848456,4210.33333291,90.6666666576,4419.48484804,3424.72727238,4282.96969654,2666.42424216,4855.81818133,2897.21212092,4507.06060561,4075.87878747,42.0,42.0,?
2017-08-01 19:17:18.275557,4554.454545,2967.27272698,4262.36363594,1059.15151505,3953.27272688,2736.48484821,3869.81818143,3037.33333303,4282.96969654,4203.63636322,4472.03030258,4067.63636323,4211.87878746,3136.24242393,4332.93939351,2658.18181792,4993.87878738,2884.84848456,4207.75757534,90.6666666576,4429.78787834,3424.72727238,4286.06060563,2666.42424216,4860.96969648,2897.21212092,4510.1515147,4075.87878747,42.0,42.0,?
2017-08-01 19:17:18.284157,4557.54545409,2967.27272698,4262.36363594,1059.15151505,3946.06060567,2736.48484821,3878.57575719,3037.33333303,4288.63636321,4203.63636322,4468.93939349,4067.63636323,4206.21212079,3136.24242393,4331.90909048,2658.18181792,4984.60606011,2884.84848456,4203.63636322,90.6666666576,4419.48484804,3424.72727238,4283.99999957,2666.42424216,4859.42424194,2897.21212092,4495.72727228,4075.87878747,42.0,42.0,?
2017-08-01 19:17:18.289605,4549.81818136,2967.27272698,4258.24242382,1059.15151505,3939.87878748,2736.48484821,3882.18181779,3037.33333303,4290.69696927,4203.63636322,4467.39393895,4067.63636323,4208.27272685,3136.24242393,4332.42424199,2658.18181792,4985.63636314,2884.84848456,4202.09090867,90.6666666576,4404.54545411,3424.72727238,4278.84848442,2666.42424216,4852.72727224,2897.21212092,4502.42424197,4075.87878747,42.0,42.0,?
2017-08-01 19:17:18.297620,4549.81818136,2967.27272698,4260.30302988,1059.15151505,3945.03030264,2736.48484821,3878.57575719,3037.33333303,4290.69696927,4203.63636322,4470.48484804,4067.63636323,4211.87878746,3136.24242393,4334.48484805,2658.18181792,4992.33333283,2884.84848456,4200.54545413,90.6666666576,4402.99999956,3424.72727238,4281.424242,2666.42424216,4848.60606012,2897.21212092,4513.75757531,4075.87878747,42.0,42.0,?
2017-08-01 19:17:18.308363,4554.454545,2967.27272698,4264.424242,1059.15151505,3947.60606021,2736.48484821,3862.0909087,3037.33333303,4291.7272723,4203.63636322,4470.48484804,4067.63636323,4211.87878746,3136.24242393,4341.69696926,2658.18181792,4997.48484799,2884.84848456,4202.60606019,90.6666666576,4405.57575714,3424.72727238,4288.12121169,2666.42424216,4853.24242376,2897.21212092,4503.454545,4075.87878747,42.0,42.0,?
2017-08-01 19:17:18.315439,4557.03030257,2967.27272698,4263.39393897,1059.15151505,3939.87878748,2736.48484821,3847.66666628,3037.33333303,4288.63636321,4203.63636322,4469.45454501,4067.63636323,4214.45454503,3136.24242393,4344.27272684,2658.18181792,4996.45454495,2884.84848456,4196.93939352,90.6666666576,4404.54545411,3424.72727238,4287.09090866,2666.42424216,4858.39393891,2897.21212092,4495.21212076,4075.87878747,42.0,42.0,?
2017-08-01 19:17:18.323305,4553.42424197,2967.27272698,4262.87878745,1059.15151505,3934.72727233,2736.48484821,3864.15151477,3037.33333303,4286.06060563,4203.63636322,4474.09090864,4067.63636323,4220.1212117,3136.24242393,4338.60606017,2658.18181792,4989.24242374,2884.84848456,4190.24242382,90.6666666576,4406.09090865,3424.72727238,4282.45454503,2666.42424216,4857.36363588,2897.21212092,4495.21212076,4075.87878747,42.0,42.0,?
2017-08-01 19:17:18.329671,4548.27272682,2967.27272698,4262.36363594,1059.15151505,3937.30302991,2736.48484821,3887.33333294,3037.33333303,4291.21212078,4203.63636322,4475.12121167,4067.63636323,4221.66666624,3136.24242393,4336.0303026,2658.18181792,4982.54545405,2884.84848456,4195.39393897,90.6666666576,4404.54545411,3424.72727238,4282.45454503,2666.42424216,4856.84848436,2897.21212092,4491.09090864,4075.87878747,42.0,42.0,?
2017-08-01 19:17:18.341652,4544.66666621,2967.27272698,4263.39393897,1059.15151505,3941.93939355,2736.48484821,3874.45454507,3037.33333303,4293.27272684,4203.63636322,4468.93939349,4067.63636323,4217.03030261,3136.24242393,4337.57575714,2658.18181792,4978.42424193,2884.84848456,4203.1212117,90.6666666576,4396.81818138,3424.72727238,4283.48484806,2666.42424216,4852.21212073,2897.21212092,4494.69696925,4075.87878747,42.0,42.0,?
2017-08-01 19:17:18.345903,4541.57575712,2967.27272698,4265.96969654,1059.15151505,3944.51515112,2736.48484821,3857.45454507,3037.33333303,4291.7272723,4203.63636322,4466.87878743,4067.63636323,4214.96969655,3136.24242393,4338.09090866,2658.18181792,4978.93939344,2884.84848456,4206.21212079,90.6666666576,4390.12121168,3424.72727238,4278.84848442,2666.42424216,4842.93939346,2897.21212092,4498.30302985,4075.87878747,42.0,42.0,?
2017-08-01 19:17:18.352972,4543.63636318,2967.27272698,4269.06060563,1059.15151505,3946.06060567,2736.48484821,3871.87878749,3037.33333303,4290.69696927,4203.63636322,4465.8484844,4067.63636323,4214.45454503,3136.24242393,4340.66666623,2658.18181792,4984.09090859,2884.84848456,4193.33333291,90.6666666576,4389.60606017,3424.72727238,4272.15151472,2666.42424216,4837.7878783,2897.21212092,4493.66666622,4075.87878747,42.0,42.0,?
2017-08-01 19:17:18.363802,4547.24242379,2967.27272698,4269.57575715,1059.15151505,3946.57575718,2736.48484821,3879.60606022,3037.33333303,4287.09090866,4203.63636322,4461.72727228,4067.63636323,4207.24242382,3136.24242393,4334.99999957,2658.18181792,4983.06060556,2884.84848456,4167.57575716,90.6666666576,4390.6363632,3424.72727238,4269.57575715,2666.42424216,4838.81818133,2897.21212092,4493.1515147,4075.87878747,42.0,42.0,?
2017-08-01 19:17:18.368841,4540.03030258,2967.27272698,4268.0303026,1059.15151505,3944.51515112,2736.48484821,3864.66666628,3037.33333303,4277.30302988,4203.63636322,4457.60606016,4067.63636323,4192.8181814,3136.24242393,4317.99999957,2658.18181792,4966.06060556,2884.84848456,4167.06060564,90.6666666576,4388.57575714,3424.72727238,4269.57575715,2666.42424216,4837.7878783,2897.21212092,4486.45454501,4075.87878747,42.0,42.0,?
2017-08-01 19:17:18.377403,4540.54545409,2967.27272698,4272.15151472,1059.15151505,3947.0909087,2736.48484821,3857.45454507,3037.33333303,4272.66666624,4203.63636322,4456.06060561,4067.63636323,4184.06060564,3136.24242393,4313.36363593,2658.18181792,4961.42424193,2884.84848456,4185.60606019,90.6666666576,4393.21212077,3424.72727238,4275.75757533,2666.42424216,4842.42424194,2897.21212092,4481.30302985,4075.87878747,42.0,42.0,?
2017-08-01 19:17:18.383826,4552.39393894,2967.27272698,4273.18181775,1059.15151505,3949.15151476,2736.48484821,3869.30302992,3037.33333303,4279.36363594,4203.63636322,4456.06060561,4067.63636323,4192.30302988,3136.24242393,4324.18181775,2658.18181792,4980.9999995,2884.84848456,4185.09090867,90.6666666576,4400.9393935,3424.72727238,4280.39393897,2666.42424216,4856.84848436,2897.21212092,4491.60606016,4075.87878747,42.0,42.0,?
2017-08-01 19:17:18.391524,4557.03030257,2967.27272698,4268.0303026,1059.15151505,3942.96969658,2736.48484821,3866.72727234,3037.33333303,4279.87878745,4203.63636322,4453.48484804,4067.63636323,4197.96969655,3136.24242393,4319.54545411,2658.18181792,4984.09090859,2884.84848456,4181.99999958,90.6666666576,4398.36363592,3424.72727238,4275.24242381,2666.42424216,4862.51515103,2897.21212092,4499.33333288,4075.87878747,42.0,42.0,?
2017-08-01 19:17:18.399531,4554.454545,2967.27272698,4269.06060563,1059.15151505,3937.81818142,2736.48484821,3848.69696931,3037.33333303,4269.57575715,4203.63636322,4456.06060561,4067.63636323,4194.87878746,3136.24242393,4311.81818139,2658.18181792,4969.66666617,2884.84848456,4200.54545413,90.6666666576,4393.21212077,3424.72727238,4273.69696927,2666.42424216,4858.90909042,2897.21212092,4493.1515147,4075.87878747,42.0,42.0,?
2017-08-01 19:17:18.407719,4555.99999954,2967.27272698,4271.63636321,1059.15151505,3940.90909052,2736.48484821,3854.87878749,3037.33333303,4273.18181775,4203.63636322,4467.39393895,4067.63636323,4203.63636322,3136.24242393,4326.75757532,2658.18181792,4975.84848435,2884.84848456,4213.93939352,90.6666666576,4399.90909047,3424.72727238,4276.78787836,2666.42424216,4861.484848,2897.21212092,4492.12121167,4075.87878747,42.0,42.0,?
2017-08-01 19:17:18.418784,4555.48484803,2967.27272698,4271.12121169,1059.15151505,3938.33333294,2736.48484821,3869.81818143,3037.33333303,4283.48484806,4203.63636322,4473.57575713,4067.63636323,4212.90909049,3136.24242393,4339.6363632,2658.18181792,4994.39393889,2884.84848456,4199.5151511,90.6666666576,4401.45454501,3424.72727238,4277.30302988,2666.42424216,4863.03030254,2897.21212092,4492.63636319,4075.87878747,42.0,42.0,?
2017-08-01 19:17:18.424360,4548.27272682,2967.27272698,4268.54545412,1059.15151505,3931.12121173,2736.48484821,3866.21212083,3037.33333303,4279.36363594,4203.63636322,4468.42424198,4067.63636323,4206.21212079,3136.24242393,4334.48484805,2658.18181792,4994.90909041,2884.84848456,4182.5151511,90.6666666576,4388.06060562,3424.72727238,4277.30302988,2666.42424216,4854.7878783,2897.21212092,4485.42424198,4075.87878747,42.0,42.0,?
2017-08-01 19:17:18.430520,4544.66666621,2967.27272698,4270.09090866,1059.15151505,3931.12121173,2736.48484821,3855.90909052,3037.33333303,4278.84848442,4203.63636322,4466.87878743,4067.63636323,4204.15151473,3136.24242393,4333.45454502,2658.18181792,4977.90909041,2884.84848456,4186.63636322,90.6666666576,4383.9393935,3424.72727238,4274.7272723,2666.42424216,4847.57575709,2897.21212092,4478.72727228,4075.87878747,42.0,42.0,?
2017-08-01 19:17:18.438599,4543.63636318,2967.27272698,4273.69696927,1059.15151505,3933.18181779,2736.48484821,3849.21212083,3037.33333303,4285.54545412,4203.63636322,4467.90909046,4067.63636323,4208.78787837,3136.24242393,4334.48484805,2658.18181792,4969.15151465,2884.84848456,4187.15151473,90.6666666576,4390.12121168,3424.72727238,4265.45454503,2666.42424216,4844.99999952,2897.21212092,4473.57575713,4075.87878747,42.0,42.0,?
2017-08-01 19:17:18.448307,4542.09090864,2967.27272698,4271.63636321,1059.15151505,3933.6969693,2736.48484821,3853.84848446,3037.33333303,4283.99999957,4203.63636322,4466.87878743,4067.63636323,4202.60606019,3136.24242393,4330.87878745,2658.18181792,4979.96969647,2884.84848456,4176.84848443,90.6666666576,4388.06060562,3424.72727238,4265.96969654,2666.42424216,4844.484848,2897.21212092,4474.09090864,4075.87878747,42.0,42.0,?
2017-08-01 19:17:18.457049,4545.18181773,2967.27272698,4271.12121169,1059.15151505,3937.30302991,2736.48484821,3876.51515113,3037.33333303,4285.0303026,4203.63636322,4470.48484804,4067.63636323,4199.5151511,3136.24242393,4331.39393896,2658.18181792,4987.6969692,2884.84848456,4184.06060564,90.6666666576,4386.51515108,3424.72727238,4271.12121169,2666.42424216,4846.03030255,2897.21212092,4486.45454501,4075.87878747,42.0,42.0,?
2017-08-01 19:17:18.462509,4542.60606015,2967.27272698,4272.66666624,1059.15151505,3938.33333294,2736.48484821,3889.393939,3037.33333303,4287.09090866,4203.63636322,4468.93939349,4067.63636323,4203.63636322,3136.24242393,4334.99999957,2658.18181792,4980.9999995,2884.84848456,4186.63636322,90.6666666576,4386.51515108,3424.72727238,4267.51515109,2666.42424216,4844.484848,2897.21212092,4496.75757531,4075.87878747,42.0,42.0,?
2017-08-01 19:17:18.469844,4534.36363591,2967.27272698,4271.63636321,1059.15151505,3932.66666627,2736.48484821,3873.42424204,3037.33333303,4279.36363594,4203.63636322,4459.15151471,4067.63636323,4196.424242,3136.24242393,4328.30302987,2658.18181792,4974.81818132,2884.84848456,4168.60606019,90.6666666576,4376.72727229,3424.72727238,4268.0303026,2666.42424216,4840.87878739,2897.21212092,4482.8484844,4075.87878747,42.0,42.0,?
2017-08-01 19:17:18.480058,4538.48484803,2967.27272698,4271.12121169,1059.15151505,3930.0909087,2736.48484821,3859.51515113,3037.33333303,4275.24242381,4203.63636322,4455.5454541,4067.63636323,4189.72727231,3136.24242393,4323.66666623,2658.18181792,4973.27272678,2884.84848456,4171.69696928,90.6666666576,4374.66666623,3424.72727238,4269.57575715,2666.42424216,4842.93939346,2897.21212092,4463.27272683,4075.87878747,42.0,42.0,?
2017-08-01 19:17:18.485559,4548.78787833,2967.27272698,4268.54545412,1059.15151505,3935.75757536,2736.48484821,3856.42424204,3037.33333303,4278.33333291,4203.63636322,4460.69696925,4067.63636323,4199.5151511,3136.24242393,4331.39393896,2658.18181792,4983.06060556,2884.84848456,4192.30302988,90.6666666576,4386.51515108,3424.72727238,4266.99999957,2666.42424216,4847.06060558,2897.21212092,4477.18181773,4075.87878747,42.0,42.0,?
2017-08-01 19:17:18.493612,4545.69696924,2967.27272698,4269.57575715,1059.15151505,3938.84848445,2736.48484821,3857.96969658,3037.33333303,4274.21212078,4203.63636322,4459.66666622,4067.63636323,4205.18181776,3136.24242393,4333.96969654,2658.18181792,4984.60606011,2884.84848456,4191.78787837,90.6666666576,4385.99999956,3424.72727238,4267.51515109,2666.42424216,4846.54545406,2897.21212092,4500.87878743,4075.87878747,42.0,42.0,?
2017-08-01 19:17:18.500839,4534.87878743,2967.27272698,4269.06060563,1059.15151505,3932.15151476,2736.48484821,3865.1818178,3037.33333303,4273.18181775,4203.63636322,4458.12121168,4067.63636323,4199.5151511,3136.24242393,4326.24242381,2658.18181792,4961.42424193,2884.84848456,4180.45454504,90.6666666576,4378.78787835,3424.72727238,4267.51515109,2666.42424216,4843.96969649,2897.21212092,4491.09090864,4075.87878747,42.0,42.0,?
2017-08-01 19:17:18.508905,4533.8484844,2979.63636334,4268.54545412,1059.15151505,3922.36363597,2736.48484821,3865.1818178,3037.33333303,4277.81818139,4203.63636322,4458.63636319,4067.63636323,4197.45454503,3136.24242393,4321.09090866,2658.18181792,4953.6969692,2884.84848456,4177.87878746,90.6666666576,4383.9393935,3424.72727238,4266.99999957,2666.42424216,4841.39393891,2897.21212092,4471.51515107,4075.87878747,42.0,42.0,?
2017-08-01 19:17:18.521740,4541.57575712,2979.63636334,4274.21212078,1055.03030292,3925.45454506,2736.48484821,3865.1818178,3037.33333303,4275.75757533,4203.63636322,4459.15151471,4067.63636323,4198.48484806,3136.24242393,4321.60606017,2658.18181792,4975.33333284,2884.84848456,4182.5151511,90.6666666576,4389.60606017,3424.72727238,4266.48484806,2666.42424216,4843.96969649,2897.21212092,4478.21212076,4075.87878747,42.0,42.0,?
2017-08-01 19:17:18.525997,4547.24242379,2979.63636334,4273.69696927,1055.03030292,3930.0909087,2740.60606033,3868.7878784,3045.57575727,4285.54545412,4203.63636322,4466.87878743,4067.63636323,4196.93939352,3136.24242393,4331.39393896,2658.18181792,4988.72727223,2884.84848456,4180.45454504,90.6666666576,4384.96969653,3424.72727238,4269.06060563,2666.42424216,4850.15151467,2897.21212092,4486.96969652,4075.87878747,42.0,42.0,?
2017-08-01 19:17:18.537641,4547.24242379,2979.63636334,4273.69696927,1055.03030292,3930.0909087,2740.60606033,3868.7878784,3045.57575727,4285.54545412,4203.63636322,4466.87878743,4067.63636323,4196.93939352,3136.24242393,4331.39393896,2658.18181792,4988.72727223,2884.84848456,4180.45454504,90.6666666576,4384.96969653,3424.72727238,4269.06060563,2666.42424216,4850.15151467,2897.21212092,4486.96969652,4075.87878747,42.0,42.0,?
2017-08-01 19:17:18.541203,4547.24242379,2979.63636334,4273.69696927,1055.03030292,3930.0909087,2740.60606033,3868.7878784,3045.57575727,4285.54545412,4203.63636322,4466.87878743,4067.63636323,4196.93939352,3136.24242393,4331.39393896,2658.18181792,4988.72727223,2884.84848456,4180.45454504,90.6666666576,4384.96969653,3424.72727238,4269.06060563,2666.42424216,4850.15151467,2897.21212092,4486.96969652,4075.87878747,42.0,42.0,?
2017-08-01 19:17:18.549527,4545.69696924,2979.63636334,4268.54545412,1055.03030292,3927.51515112,2740.60606033,3862.0909087,3045.57575727,4282.45454503,4215.99999958,4462.75757531,4067.63636323,4192.8181814,3136.24242393,4326.75757532,2658.18181792,4990.27272677,2884.84848456,4198.99999958,90.6666666576,4383.42424199,3424.72727238,4267.51515109,2666.42424216,4853.24242376,2897.21212092,4483.87878743,4075.87878747,42.0,42.0,?
2017-08-01 19:17:18.555943,4545.69696924,2979.63636334,4266.99999957,1055.03030292,3933.18181779,2740.60606033,3875.4848481,3045.57575727,4277.30302988,4215.99999958,4463.78787834,4059.39393899,4192.30302988,3136.24242393,4328.30302987,2658.18181792,4972.75757526,2884.84848456,4197.96969655,90.6666666576,4392.18181774,3424.72727238,4266.48484806,2666.42424216,4856.33333285,2897.21212092,4486.96969652,4075.87878747,42.0,42.0,?
2017-08-01 19:17:18.564913,4550.84848439,2979.63636334,4266.99999957,1055.03030292,3934.72727233,2740.60606033,3877.54545416,3045.57575727,4279.36363594,4215.99999958,4469.45454501,4059.39393899,4202.60606019,3132.12121181,4334.48484805,2658.18181792,4975.33333284,2884.84848456,4198.48484806,90.6666666576,4402.48484804,3424.72727238,4271.12121169,2666.42424216,4859.42424194,2897.21212092,4497.27272682,4075.87878747,42.0,42.0,?
2017-08-01 19:17:18.573029,4552.39393894,2979.63636334,4265.45454503,1055.03030292,3931.63636324,2740.60606033,3869.81818143,3045.57575727,4285.54545412,4215.99999958,4467.90909046,4059.39393899,4210.84848443,3132.12121181,4338.60606017,2658.18181792,4992.84848435,2884.84848456,4209.8181814,90.6666666576,4397.84848441,3424.72727238,4273.69696927,2666.42424216,4857.36363588,2897.21212092,4502.93939349,4075.87878747,42.0,42.0,?
2017-08-01 19:17:18.581525,4548.78787833,2979.63636334,4264.93939351,1055.03030292,3932.15151476,2740.60606033,3873.42424204,3045.57575727,4282.45454503,4215.99999958,4461.72727228,4059.39393899,4208.27272685,3132.12121181,4337.06060563,2658.18181792,4994.90909041,2888.96969668,4200.54545413,90.6666666576,4386.51515108,3424.72727238,4269.57575715,2666.42424216,4851.1818177,2897.21212092,4490.57575713,4075.87878747,42.0,42.0,?
2017-08-01 19:17:18.587865,4548.78787833,2979.63636334,4262.87878745,1055.03030292,3931.63636324,2740.60606033,3870.84848446,3045.57575727,4276.78787836,4215.99999958,4462.2424238,4059.39393899,4205.69696928,3132.12121181,4330.87878745,2658.18181792,4984.09090859,2888.96969668,4189.72727231,90.6666666576,4387.03030259,3424.72727238,4265.96969654,2666.42424216,4850.66666618,2897.21212092,4482.33333289,4075.87878747,42.0,42.0,?
2017-08-01 19:17:18.595460,4555.99999954,2979.63636334,4265.96969654,1055.03030292,3928.54545415,2740.60606033,3856.93939355,3045.57575727,4283.48484806,4215.99999958,4472.5454541,4059.39393899,4211.87878746,3132.12121181,4331.39393896,2658.18181792,4979.96969647,2888.96969668,4200.03030261,90.6666666576,4399.39393895,3437.09090875,4269.57575715,2666.42424216,4857.87878739,2897.21212092,4496.24242379,4075.87878747,42.0,42.0,?
2017-08-01 19:17:18.608523,4555.48484803,2979.63636334,4267.51515109,1055.03030292,3925.45454506,2740.60606033,3863.63636325,3045.57575727,4285.54545412,4215.99999958,4477.18181773,4059.39393899,4219.60606018,3132.12121181,4338.60606017,2658.18181792,4990.78787829,2888.96969668,4201.06060564,90.6666666576,4399.90909047,3437.09090875,4269.57575715,2666.42424216,4861.484848,2897.21212092,4508.60606016,4075.87878747,42.0,42.0,?
2017-08-01 19:17:18.613762,4546.72727227,2979.63636334,4263.39393897,1055.03030292,3917.72727234,2740.60606033,3879.60606022,3045.57575727,4277.30302988,4215.99999958,4468.42424198,4059.39393899,4216.51515109,3132.12121181,4337.57575714,2658.18181792,4991.81818132,2888.96969668,4185.09090867,90.6666666576,4389.60606017,3437.09090875,4258.24242382,2666.42424216,4854.27272679,2909.57575728,4499.33333288,4075.87878747,42.0,42.0,?
2017-08-01 19:17:18.619814,4544.66666621,2979.63636334,4263.90909048,1055.03030292,3916.18181779,2740.60606033,3883.72727234,3045.57575727,4280.39393897,4215.99999958,4460.69696925,4059.39393899,4208.78787837,3132.12121181,4329.84848442,2658.18181792,4974.30302981,2888.96969668,4185.60606019,94.7878787784,4389.09090865,3437.09090875,4258.75757533,2666.42424216,4847.57575709,2909.57575728,4492.63636319,4075.87878747,42.0,42.0,?
2017-08-01 19:17:18.627316,4544.1515147,2979.63636334,4265.96969654,1055.03030292,3923.393939,2740.60606033,3881.15151476,3045.57575727,4290.18181775,4215.99999958,4467.90909046,4059.39393899,4209.30302988,3132.12121181,4329.3333329,2658.18181792,4976.36363587,2888.96969668,4194.87878746,94.7878787784,4391.66666623,3432.96969663,4263.90909048,2666.42424216,4848.09090861,2909.57575728,4496.24242379,4075.87878747,42.0,42.0,?
2017-08-01 19:17:18.636008,4537.454545,2979.63636334,4264.93939351,1055.03030292,3919.7878784,2740.60606033,3872.39393901,3045.57575727,4284.51515109,4215.99999958,4475.12121167,4059.39393899,4209.30302988,3132.12121181,4328.30302987,2658.18181792,4987.18181768,2888.96969668,4186.63636322,94.7878787784,4384.96969653,3432.96969663,4257.7272723,2666.42424216,4846.54545406,2909.57575728,4485.93939349,4075.87878747,42.0,42.0,?
2017-08-01 19:17:18.642195,4535.39393894,2979.63636334,4262.87878745,1055.03030292,3912.06060567,2740.60606033,3864.15151477,3045.57575727,4274.21212078,4215.99999958,4467.90909046,4059.39393899,4200.03030261,3132.12121181,4323.66666623,2658.18181792,4977.3939389,2888.96969668,4185.09090867,94.7878787784,4381.36363593,3432.96969663,4257.7272723,2666.42424216,4845.51515103,2909.57575728,4479.24242379,4075.87878747,42.0,42.0,?
2017-08-01 19:17:18.649540,4547.7575753,2979.63636334,4263.90909048,1055.03030292,3922.36363597,2740.60606033,3867.75757537,3045.57575727,4278.84848442,4215.99999958,4464.30302986,4059.39393899,4200.03030261,3132.12121181,4328.30302987,2658.18181792,4975.84848435,2888.96969668,4197.45454503,94.7878787784,4390.6363632,3432.96969663,4261.33333291,2666.42424216,4854.27272679,2909.57575728,4494.18181773,4075.87878747,42.0,42.0,?
2017-08-01 19:17:18.659372,4556.51515106,2979.63636334,4267.51515109,1055.03030292,3928.03030264,2740.60606033,3868.27272689,3045.57575727,4287.09090866,4215.99999958,4474.60606016,4059.39393899,4210.33333291,3132.12121181,4336.0303026,2658.18181792,4989.75757526,2888.96969668,4193.33333291,94.7878787784,4399.39393895,3432.96969663,4259.27272685,2666.42424216,4860.96969648,2909.57575728,4503.454545,4075.87878747,42.0,42.0,?
2017-08-01 19:17:18.665491,4547.7575753,2979.63636334,4266.99999957,1055.03030292,3915.66666628,2740.60606033,3861.06060567,3045.57575727,4283.99999957,4215.99999958,4483.36363592,4059.39393899,4215.99999958,3132.12121181,4337.06060563,2658.18181792,5000.57575708,2888.96969668,4183.54545413,94.7878787784,4397.84848441,3432.96969663,4257.21212079,2666.42424216,4856.84848436,2909.57575728,4500.36363591,4075.87878747,42.0,42.0,?
2017-08-01 19:17:18.673522,4542.09090864,2979.63636334,4265.96969654,1055.03030292,3907.93939355,2740.60606033,3867.75757537,3045.57575727,4279.36363594,4215.99999958,4480.27272682,4059.39393899,4218.57575715,3132.12121181,4337.06060563,2658.18181792,4992.84848435,2888.96969668,4191.27272685,94.7878787784,4392.69696926,3432.96969663,4258.24242382,2666.42424216,4854.27272679,2909.57575728,4485.93939349,4075.87878747,42.0,42.0,?
2017-08-01 19:17:18.681344,4551.36363591,2979.63636334,4267.51515109,1055.03030292,3914.12121173,2740.60606033,3875.99999961,3045.57575727,4284.51515109,4215.99999958,4477.18181773,4059.39393899,4218.57575715,3132.12121181,4336.0303026,2658.18181792,4971.21212072,2888.96969668,4194.87878746,94.7878787784,4391.15151471,3432.96969663,4258.75757533,2666.42424216,4854.27272679,2909.57575728,4465.33333289,4075.87878747,42.0,42.0,?
2017-08-01 19:17:18.689290,4561.1515147,2979.63636334,4268.0303026,1055.03030292,3926.99999961,2740.60606033,3869.30302992,3045.57575727,4292.75757533,4215.99999958,4484.90909046,4059.39393899,4217.54545412,3132.12121181,4338.60606017,2658.18181792,4976.36363587,2888.96969668,4189.21212079,94.7878787784,4395.78787835,3432.96969663,4256.18181776,2666.42424216,4856.33333285,2909.57575728,4481.81818137,4075.87878747,42.0,42.0,?
2017-08-01 19:17:18.697236,4560.12121167,2979.63636334,4269.06060563,1055.03030292,3937.81818142,2740.60606033,3858.4848481,3045.57575727,4293.78787836,4215.99999958,4492.12121167,4059.39393899,4220.1212117,3132.12121181,4337.57575714,2658.18181792,5001.60606011,2888.96969668,4191.27272685,94.7878787784,4401.45454501,3432.96969663,4256.69696927,2666.42424216,4862.51515103,2909.57575728,4516.8484844,4075.87878747,42.0,42.0,?
2017-08-01 19:17:18.708345,4554.96969651,2979.63636334,4271.12121169,1055.03030292,3943.99999961,2740.60606033,3870.84848446,3045.57575727,4292.75757533,4215.99999958,4486.96969652,4059.39393899,4222.69696927,3132.12121181,4329.84848442,2658.18181792,4987.18181768,2888.96969668,4202.60606019,94.7878787784,4399.39393895,3432.96969663,4260.30302988,2666.42424216,4863.03030254,2909.57575728,4514.78787834,4075.87878747,42.0,42.0,?
2017-08-01 19:17:18.714477,4554.96969651,2979.63636334,4271.12121169,1055.03030292,3950.18181779,2740.60606033,3898.15151476,3045.57575727,4295.3333329,4215.99999958,4481.30302985,4059.39393899,4226.30302988,3132.12121181,4335.51515108,2658.18181792,4969.15151465,2888.96969668,4210.84848443,94.7878787784,4398.36363592,3432.96969663,4260.30302988,2666.42424216,4860.45454497,2909.57575728,4502.93939349,4075.87878747,42.0,42.0,?
2017-08-01 19:17:18.720172,4559.60606015,2979.63636334,4272.15151472,1055.03030292,3954.30302991,2740.60606033,3888.36363597,3045.57575727,4293.78787836,4215.99999958,4481.81818137,4059.39393899,4227.33333291,3132.12121181,4347.36363593,2658.18181792,4989.24242374,2888.96969668,4201.57575716,94.7878787784,4400.9393935,3432.96969663,4253.09090867,2666.42424216,4860.45454497,2909.57575728,4504.99999955,4075.87878747,42.0,42.0,?
2017-08-01 19:17:18.727715,4559.60606015,2979.63636334,4270.09090866,1055.03030292,3952.75757536,2740.60606033,3865.69696931,3045.57575727,4285.0303026,4215.99999958,4475.63636319,4059.39393899,4218.57575715,3132.12121181,4343.24242381,2658.18181792,4997.48484799,2888.96969668,4190.75757534,94.7878787784,4397.33333289,3432.96969663,4250.51515109,2666.42424216,4859.42424194,2909.57575728,4495.72727228,4075.87878747,42.0,42.0,?
2017-08-01 19:17:18.738545,4552.90909045,2979.63636334,4267.51515109,1055.03030292,3955.84848445,2740.60606033,3870.33333295,3045.57575727,4282.96969654,4215.99999958,4469.96969652,4059.39393899,4213.93939352,3132.12121181,4337.06060563,2658.18181792,4988.72727223,2888.96969668,4197.45454503,94.7878787784,4396.30302986,3432.96969663,4255.15151473,2666.42424216,4856.84848436,2909.57575728,4486.45454501,4075.87878747,42.0,42.0,?
2017-08-01 19:17:18.743730,4544.1515147,2979.63636334,4267.51515109,1055.03030292,3968.21212082,2740.60606033,3877.03030264,3045.57575727,4290.69696927,4215.99999958,4477.18181773,4059.39393899,4223.21212079,3132.12121181,4342.72727229,2658.18181792,4992.33333283,2888.96969668,4209.30302988,94.7878787784,4404.54545411,3432.96969663,4258.24242382,2666.42424216,4853.24242376,2909.57575728,4495.21212076,4075.87878747,42.0,42.0,?
2017-08-01 19:17:18.751737,4546.21212076,2979.63636334,4271.63636321,1055.03030292,3973.87878748,2740.60606033,3863.12121173,3045.57575727,4289.66666624,4215.99999958,4483.36363592,4059.39393899,4231.45454503,3132.12121181,4343.75757532,2658.18181792,4992.33333283,2888.96969668,4209.30302988,94.7878787784,4407.6363632,3432.96969663,4260.81818139,2666.42424216,4849.12121164,2909.57575728,4499.8484844,4075.87878747,42.0,42.0,?
2017-08-01 19:17:18.761175,4557.54545409,2979.63636334,4273.18181775,1055.03030292,3969.24242385,2740.60606033,3860.03030264,3045.57575727,4286.06060563,4215.99999958,4479.75757531,4059.39393899,4229.90909049,3132.12121181,4339.12121169,2658.18181792,4981.51515102,2888.96969668,4199.5151511,94.7878787784,4401.96969653,3432.96969663,4254.1212117,2666.42424216,4851.69696921,2909.57575728,4492.63636319,4075.87878747,42.0,42.0,?
2017-08-01 19:17:18.769282,4557.54545409,2979.63636334,4270.09090866,1055.03030292,3970.78787839,2740.60606033,3873.42424204,3045.57575727,4292.24242381,4215.99999958,4480.78787834,4059.39393899,4224.75757534,3132.12121181,4337.06060563,2658.18181792,4971.72727223,2888.96969668,4191.27272685,94.7878787784,4401.96969653,3432.96969663,4248.96969654,2666.42424216,4855.30302982,2909.57575728,4487.48484804,4075.87878747,42.0,42.0,?
2017-08-01 19:17:18.775495,4544.66666621,2979.63636334,4270.09090866,1055.03030292,3971.30302991,2740.60606033,3875.4848481,3045.57575727,4293.78787836,4215.99999958,4487.48484804,4059.39393899,4220.63636321,3132.12121181,4334.48484805,2658.18181792,4966.06060556,2888.96969668,4185.60606019,94.7878787784,4401.96969653,3432.96969663,4254.63636321,2666.42424216,4849.63636315,2909.57575728,4482.33333289,4075.87878747,42.0,42.0,?
2017-08-01 19:17:18.786310,4537.454545,2979.63636334,4269.06060563,1055.03030292,3962.54545415,2740.60606033,3868.7878784,3045.57575727,4290.18181775,4215.99999958,4488.51515107,4059.39393899,4219.09090867,3132.12121181,4334.48484805,2658.18181792,4975.33333284,2888.96969668,4186.1212117,94.7878787784,4396.30302986,3432.96969663,4251.54545412,2666.42424216,4841.90909042,2909.57575728,4469.96969652,4075.87878747,42.0,42.0,?
2017-08-01 19:17:18.792576,4539.51515106,2979.63636334,4265.96969654,1055.03030292,3958.42424203,2740.60606033,3866.21212083,3045.57575727,4290.69696927,4215.99999958,4482.8484844,4059.39393899,4220.1212117,3132.12121181,4335.51515108,2658.18181792,4989.24242374,2888.96969668,4187.66666625,94.7878787784,4389.60606017,3432.96969663,4240.21212079,2666.42424216,4835.21212073,2909.57575728,4463.78787834,4075.87878747,42.0,42.0,?
2017-08-01 19:17:18.799278,4544.66666621,2979.63636334,4268.54545412,1055.03030292,3965.12121172,2740.60606033,3864.66666628,3045.57575727,4286.06060563,4215.99999958,4473.57575713,4059.39393899,4213.424242,3132.12121181,4330.36363593,2658.18181792,4974.81818132,2888.96969668,4185.09090867,94.7878787784,4384.45454502,3432.96969663,4241.75757533,2666.42424216,4833.66666618,2909.57575728,4479.75757531,4075.87878747,42.0,42.0,?
2017-08-01 19:17:18.807785,4547.24242379,2979.63636334,4268.54545412,1055.03030292,3964.60606021,2740.60606033,3866.21212083,3045.57575727,4274.21212078,4215.99999958,4464.81818137,4059.39393899,4205.18181776,3132.12121181,4324.18181775,2658.18181792,4963.48484799,2888.96969668,4186.63636322,94.7878787784,4385.48484805,3432.96969663,4249.99999958,2666.42424216,4838.81818133,2909.57575728,4495.72727228,4075.87878747,42.0,42.0,?
2017-08-01 19:17:18.815401,4543.63636318,2979.63636334,4265.45454503,1055.03030292,3962.03030263,2740.60606033,3877.54545416,3045.57575727,4273.69696927,4215.99999958,4462.75757531,4059.39393899,4204.66666625,3132.12121181,4324.18181775,2658.18181792,4981.51515102,2888.96969668,4191.78787837,94.7878787784,4392.69696926,3432.96969663,4252.06060564,2666.42424216,4839.33333285,2909.57575728,4487.99999955,4075.87878747,42.0,42.0,?
2017-08-01 19:17:18.824412,4538.99999955,2979.63636334,4268.54545412,1055.03030292,3960.9999996,2740.60606033,3875.99999961,3045.57575727,4280.90909048,4215.99999958,4466.87878743,4059.39393899,4204.66666625,3132.12121181,4324.18181775,2658.18181792,4984.09090859,2888.96969668,4187.66666625,94.7878787784,4395.27272683,3432.96969663,4248.45454503,2666.42424216,4833.66666618,2909.57575728,4472.5454541,4075.87878747,42.0,42.0,?
2017-08-01 19:17:18.835035,4545.69696924,2979.63636334,4270.09090866,1055.03030292,3956.36363597,2740.60606033,3857.45454507,3045.57575727,4280.90909048,4215.99999958,4468.42424198,4059.39393899,4200.03030261,3132.12121181,4322.6363632,2658.18181792,4962.45454496,2888.96969668,4181.99999958,94.7878787784,4388.57575714,3432.96969663,4242.27272685,2666.42424216,4835.21212073,2909.57575728,4470.48484804,4075.87878747,42.0,42.0,?
2017-08-01 19:17:18.841567,4556.51515106,2979.63636334,4269.06060563,1055.03030292,3961.51515112,2740.60606033,3866.21212083,3045.57575727,4280.39393897,4215.99999958,4469.45454501,4059.39393899,4201.57575716,3132.12121181,4324.69696926,2658.18181792,4960.3939389,2888.96969668,4184.06060564,94.7878787784,4391.15151471,3432.96969663,4241.24242382,2666.42424216,4842.42424194,2909.57575728,4479.75757531,4075.87878747,42.0,42.0,?
2017-08-01 19:17:18.845552,4554.96969651,2979.63636334,4267.51515109,1055.03030292,3971.81818142,2740.60606033,3891.45454507,3045.57575727,4288.12121169,4215.99999958,4477.18181773,4059.39393899,4211.36363594,3132.12121181,4334.48484805,2658.18181792,4982.03030253,2888.96969668,4188.69696928,94.7878787784,4403.51515107,3432.96969663,4243.81818139,2666.42424216,4843.45454497,2909.57575728,4495.72727228,4075.87878747,42.0,42.0,?
2017-08-01 19:17:18.855588,4548.27272682,2979.63636334,4266.48484806,1055.03030292,3969.24242385,2740.60606033,3889.90909052,3045.57575727,4296.87878745,4215.99999958,4484.39393895,4059.39393899,4214.96969655,3132.12121181,4341.69696926,2658.18181792,4993.36363586,2888.96969668,4194.87878746,94.7878787784,4399.39393895,3432.96969663,4244.84848442,2666.42424216,4843.45454497,2909.57575728,4504.99999955,4075.87878747,42.0,42.0,?
2017-08-01 19:17:18.860946,4548.78787833,2979.63636334,4264.424242,1055.03030292,3962.54545415,2740.60606033,3871.87878749,3045.57575727,4297.39393896,4215.99999958,4482.8484844,4059.39393899,4215.99999958,3132.12121181,4341.18181775,2658.18181792,4988.72727223,2888.96969668,4195.39393897,94.7878787784,4390.12121168,3432.96969663,4247.93939351,2666.42424216,4847.06060558,2909.57575728,4500.87878743,4075.87878747,42.0,42.0,?
2017-08-01 19:17:18.868701,4554.454545,2979.63636334,4263.39393897,1055.03030292,3965.12121172,2740.60606033,3871.87878749,3045.57575727,4293.78787836,4215.99999958,4476.66666622,4059.39393899,4217.03030261,3132.12121181,4339.12121169,2658.18181792,4983.06060556,2888.96969668,4190.24242382,94.7878787784,4396.81818138,3432.96969663,4255.15151473,2666.42424216,4850.15151467,2909.57575728,4495.72727228,4075.87878747,42.0,42.0,?
2017-08-01 19:17:18.878386,4561.66666621,2979.63636334,4269.57575715,1055.03030292,3975.42424203,2740.60606033,3885.27272688,3045.57575727,4293.78787836,4215.99999958,4475.12121167,4059.39393899,4213.424242,3132.12121181,4337.06060563,2658.18181792,4978.93939344,2888.96969668,4197.96969655,94.7878787784,4408.66666623,3432.96969663,4255.15151473,2666.42424216,4853.75757527,2909.57575728,4493.66666622,4075.87878747,42.0,42.0,?
2017-08-01 19:17:18.885373,4560.12121167,2979.63636334,4269.57575715,1055.03030292,3977.48484809,2740.60606033,3883.21212082,3045.57575727,4295.84848442,4215.99999958,4478.72727228,4059.39393899,4215.48484806,3132.12121181,4338.60606017,2658.18181792,4982.03030253,2888.96969668,4204.15151473,94.7878787784,4407.12121168,3432.96969663,4252.06060564,2666.42424216,4852.21212073,2909.57575728,4491.60606016,4075.87878747,42.0,42.0,?
2017-08-01 19:17:18.892959,4546.21212076,2979.63636334,4262.87878745,1055.03030292,3967.18181779,2740.60606033,3870.84848446,3045.57575727,4296.36363593,4215.99999958,4480.78787834,4059.39393899,4222.69696927,3132.12121181,4345.81818138,2658.18181792,4986.66666617,2888.96969668,4195.39393897,94.7878787784,4396.81818138,3432.96969663,4254.1212117,2666.42424216,4844.484848,2909.57575728,4491.09090864,4075.87878747,42.0,42.0,?
2017-08-01 19:17:18.918523,4568.36363591,2979.63636334,4267.51515109,1055.03030292,3971.81818142,2740.60606033,3887.33333294,3045.57575727,4289.15151472,4215.99999958,4476.1515147,4059.39393899,4227.33333291,3132.12121181,4345.81818138,2658.18181792,4987.6969692,2888.96969668,4207.24242382,94.7878787784,4416.39393895,3432.96969663,4253.09090867,2666.42424216,4860.96969648,2909.57575728,4513.24242379,4075.87878747,42.0,42.0,?
2017-08-01 19:17:18.918690,4568.36363591,2979.63636334,4267.51515109,1055.03030292,3971.81818142,2740.60606033,3887.33333294,3045.57575727,4289.15151472,4215.99999958,4476.1515147,4059.39393899,4227.33333291,3132.12121181,4345.81818138,2658.18181792,4987.6969692,2888.96969668,4207.24242382,94.7878787784,4416.39393895,3432.96969663,4253.09090867,2666.42424216,4860.96969648,2909.57575728,4513.24242379,4075.87878747,42.0,42.0,?
2017-08-01 19:17:18.918879,4568.36363591,2979.63636334,4267.51515109,1055.03030292,3971.81818142,2740.60606033,3887.33333294,3045.57575727,4289.15151472,4215.99999958,4476.1515147,4059.39393899,4227.33333291,3132.12121181,4345.81818138,2658.18181792,4987.6969692,2888.96969668,4207.24242382,94.7878787784,4416.39393895,3432.96969663,4253.09090867,2666.42424216,4860.96969648,2909.57575728,4513.24242379,4075.87878747,42.0,42.0,?
2017-08-01 19:17:18.923551,4566.81818136,2979.63636334,4262.87878745,1055.03030292,3965.12121172,2740.60606033,3889.90909052,3045.57575727,4289.15151472,4215.99999958,4479.75757531,4059.39393899,4226.8181814,3132.12121181,4345.30302987,2658.18181792,4983.06060556,2888.96969668,4204.66666625,94.7878787784,4405.57575714,3432.96969663,4252.06060564,2666.42424216,4856.84848436,2909.57575728,4519.93939349,4075.87878747,42.0,42.0,?
2017-08-01 19:17:18.932063,4554.96969651,2979.63636334,4258.75757533,1055.03030292,3958.42424203,2740.60606033,3883.21212082,3045.57575727,4292.24242381,4215.99999958,4482.33333289,4059.39393899,4227.33333291,3132.12121181,4345.30302987,2658.18181792,4997.9999995,2888.96969668,4206.21212079,94.7878787784,4406.60606017,3432.96969663,4253.09090867,2666.42424216,4851.69696921,2909.57575728,4500.36363591,4075.87878747,42.0,42.0,?
2017-08-01 19:17:18.938743,4541.06060561,2979.63636334,4258.24242382,1055.03030292,3951.72727233,2740.60606033,3863.12121173,3045.57575727,4288.63636321,4215.99999958,4479.75757531,4059.39393899,4227.84848443,3132.12121181,4344.27272684,2658.18181792,5002.63636314,2888.96969668,4202.60606019,94.7878787784,4411.2424238,3432.96969663,4254.63636321,2666.42424216,4849.63636315,2909.57575728,4484.39393895,4075.87878747,42.0,42.0,?
2017-08-01 19:17:18.946658,4536.42424197,2979.63636334,4254.1212117,1055.03030292,3956.36363597,2740.60606033,3863.12121173,3045.57575727,4285.54545412,4215.99999958,4477.69696925,4059.39393899,4225.78787837,3132.12121181,4344.78787835,2658.18181792,4998.51515102,2888.96969668,4205.69696928,94.7878787784,4405.06060562,3432.96969663,4251.03030261,2666.42424216,4849.63636315,2909.57575728,4494.69696925,4075.87878747,42.0,42.0,?
2017-08-01 19:17:18.955887,4543.63636318,2979.63636334,4252.57575715,1055.03030292,3960.48484809,2740.60606033,3878.06060567,3045.57575727,4289.15151472,4215.99999958,4476.66666622,4059.39393899,4223.7272723,3132.12121181,4343.75757532,2658.18181792,5001.60606011,2888.96969668,4203.63636322,94.7878787784,4401.45454501,3432.96969663,4244.84848442,2666.42424216,4849.12121164,2909.57575728,4501.90909046,4075.87878747,42.0,42.0,?
2017-08-01 19:17:18.963489,4553.42424197,2979.63636334,4252.57575715,1055.03030292,3952.24242385,2740.60606033,3878.57575719,3045.57575727,4295.84848442,4215.99999958,4477.69696925,4059.39393899,4223.21212079,3132.12121181,4343.75757532,2658.18181792,4993.36363586,2888.96969668,4196.424242,94.7878787784,4406.60606017,3432.96969663,4246.90909048,2666.42424216,4850.15151467,2909.57575728,4492.63636319,4075.87878747,42.0,42.0,?
2017-08-01 19:17:18.972225,4562.18181773,2979.63636334,4249.99999958,1055.03030292,3949.15151476,2740.60606033,3885.27272688,3045.57575727,4299.45454502,4215.99999958,4481.81818137,4059.39393899,4228.36363594,3132.12121181,4348.90909047,2658.18181792,4982.03030253,2888.96969668,4202.60606019,94.7878787784,4411.75757532,3432.96969663,4253.60606018,2666.42424216,4860.45454497,2909.57575728,4496.24242379,4075.87878747,42.0,42.0,?
2017-08-01 19:17:18.979166,4562.69696924,2979.63636334,4250.51515109,1055.03030292,3952.75757536,2740.60606033,3895.57575719,3045.57575727,4296.87878745,4215.99999958,4482.8484844,4059.39393899,4230.93939352,3132.12121181,4350.45454502,2658.18181792,4995.93939344,2888.96969668,4210.33333291,94.7878787784,4410.72727229,3432.96969663,4254.63636321,2666.42424216,4865.0909086,2909.57575728,4508.09090864,4075.87878747,42.0,42.0,?
2017-08-01 19:17:18.989419,4550.84848439,2979.63636334,4252.06060564,1055.03030292,3951.72727233,2740.60606033,3883.72727234,3045.57575727,4294.81818139,4215.99999958,4479.75757531,4059.39393899,4221.66666624,3132.12121181,4342.21212078,2658.18181792,5001.60606011,2888.96969668,4203.63636322,94.7878787784,4403.51515107,3432.96969663,4248.96969654,2666.42424216,4852.72727224,2909.57575728,4501.39393894,4075.87878747,42.0,42.0,?
2017-08-01 19:17:18.994596,4540.03030258,2979.63636334,4254.63636321,1055.03030292,3951.21212082,2740.60606033,3870.33333295,3045.57575727,4291.7272723,4215.99999958,4475.63636319,4059.39393899,4212.90909049,3132.12121181,4333.45454502,2658.18181792,4980.9999995,2888.96969668,4186.63636322,94.7878787784,4403.51515107,3432.96969663,4250.51515109,2666.42424216,4844.484848,2909.57575728,4488.51515107,4075.87878747,42.0,42.0,?
2017-08-01 19:17:19.003461,4538.99999955,2979.63636334,4257.7272723,1055.03030292,3948.63636324,2740.60606033,3871.87878749,3045.57575727,4284.51515109,4215.99999958,4468.42424198,4059.39393899,4209.30302988,3132.12121181,4329.3333329,2658.18181792,4973.27272678,2888.96969668,4178.39393898,94.7878787784,4401.45454501,3432.96969663,4251.54545412,2666.42424216,4844.484848,2909.57575728,4485.42424198,4075.87878747,42.0,42.0,?
2017-08-01 19:17:19.010152,4540.03030258,2979.63636334,4256.69696927,1055.03030292,3945.03030264,2740.60606033,3867.24242386,3045.57575727,4280.39393897,4215.99999958,4464.30302986,4059.39393899,4211.87878746,3132.12121181,4326.75757532,2658.18181792,4985.63636314,2888.96969668,4188.18181776,94.7878787784,4393.21212077,3432.96969663,4241.24242382,2666.42424216,4839.84848436,2909.57575728,4483.36363592,4075.87878747,42.0,42.0,?
2017-08-01 19:17:19.017577,4544.66666621,2975.51515122,4257.7272723,1055.03030292,3952.24242385,2740.60606033,3860.54545416,3045.57575727,4282.96969654,4215.99999958,4472.5454541,4059.39393899,4219.09090867,3132.12121181,4329.84848442,2658.18181792,4988.72727223,2888.96969668,4194.87878746,94.7878787784,4392.69696926,3432.96969663,4240.7272723,2666.42424216,4837.27272679,2909.57575728,4491.60606016,4075.87878747,42.0,42.0,?
2017-08-01 19:17:19.028033,4550.33333288,2975.51515122,4261.33333291,1108.6060605,3955.33333294,2740.60606033,3860.54545416,3045.57575727,4287.60606018,4215.99999958,4480.27272682,4059.39393899,4226.30302988,3132.12121181,4342.72727229,2658.18181792,4990.78787829,2888.96969668,4194.87878746,94.7878787784,4397.33333289,3432.96969663,4248.96969654,2666.42424216,4842.93939346,2909.57575728,4494.69696925,4075.87878747,42.0,42.0,?
2017-08-01 19:17:19.033290,4547.7575753,2975.51515122,4258.75757533,1108.6060605,3948.63636324,2740.60606033,3867.24242386,3045.57575727,4291.7272723,4215.99999958,4481.81818137,4059.39393899,4229.90909049,3132.12121181,4351.99999956,2658.18181792,4999.03030253,2888.96969668,4199.5151511,94.7878787784,4395.78787835,3432.96969663,4249.99999958,2666.42424216,4846.03030255,2909.57575728,4477.69696925,4121.2121208,42.0,42.0,?
2017-08-01 19:17:19.042040,4543.63636318,2975.51515122,4256.69696927,1108.6060605,3948.12121173,2748.84848457,3883.21212082,3045.57575727,4290.69696927,4215.99999958,4475.12121167,4059.39393899,4227.84848443,3132.12121181,4348.90909047,2658.18181792,4999.03030253,2888.96969668,4193.33333291,94.7878787784,4394.2424238,3432.96969663,4247.93939351,2666.42424216,4846.03030255,2909.57575728,4478.72727228,4121.2121208,42.0,42.0,?
2017-08-01 19:17:19.056380,4546.72727227,2975.51515122,4260.81818139,1108.6060605,3952.24242385,2748.84848457,3887.84848446,3045.57575727,4289.15151472,4215.99999958,4470.99999955,4059.39393899,4221.66666624,3132.12121181,4345.81818138,2658.18181792,4992.84848435,2888.96969668,4181.99999958,94.7878787784,4397.84848441,3432.96969663,4244.84848442,2666.42424216,4848.09090861,2909.57575728,4498.81818137,4121.2121208,42.0,42.0,?
2017-08-01 19:17:19.059525,4554.96969651,2975.51515122,4267.51515109,1108.6060605,3953.78787839,2748.84848457,3879.60606022,3045.57575727,4293.27272684,4203.63636322,4475.63636319,4059.39393899,4214.45454503,3132.12121181,4341.69696926,2658.18181792,4985.12121162,2888.96969668,4192.30302988,94.7878787784,4396.30302986,3432.96969663,4243.81818139,2666.42424216,4848.60606012,2909.57575728,4499.33333288,4121.2121208,42.0,42.0,?
2017-08-01 19:17:19.065204,4561.1515147,2975.51515122,4266.99999957,1108.6060605,3952.75757536,2748.84848457,3880.63636325,3045.57575727,4288.63636321,4203.63636322,4478.21212076,4059.39393899,4213.424242,3132.12121181,4335.51515108,2658.18181792,4977.90909041,2888.96969668,4194.87878746,94.7878787784,4388.57575714,3432.96969663,4245.36363594,2666.42424216,4846.03030255,2909.57575728,4496.24242379,4121.2121208,42.0,42.0,?
2017-08-01 19:17:19.072434,4562.18181773,2975.51515122,4263.39393897,1108.6060605,3951.21212082,2748.84848457,3882.69696931,3045.57575727,4282.96969654,4203.63636322,4475.12121167,4059.39393899,4212.39393897,3144.48484817,4333.45454502,2658.18181792,4974.30302981,2888.96969668,4185.60606019,94.7878787784,4387.03030259,3432.96969663,4245.87878745,2666.42424216,4846.03030255,2909.57575728,4504.99999955,4121.2121208,42.0,42.0,?
2017-08-01 19:17:19.080153,4557.54545409,2975.51515122,4262.36363594,1108.6060605,3953.27272688,2748.84848457,3878.57575719,3045.57575727,4286.06060563,4203.63636322,4471.51515107,4059.39393899,4209.30302988,3144.48484817,4330.36363593,2654.0606058,4976.36363587,2888.96969668,4192.8181814,94.7878787784,4396.30302986,3432.96969663,4247.93939351,2666.42424216,4849.63636315,2909.57575728,4501.39393894,4121.2121208,42.0,42.0,?
2017-08-01 19:17:19.087695,4552.39393894,2975.51515122,4260.81818139,1108.6060605,3954.30302991,2748.84848457,3879.60606022,3045.57575727,4282.96969654,4203.63636322,4470.99999955,4059.39393899,4212.90909049,3144.48484817,4328.30302987,2654.0606058,4989.24242374,2897.21212092,4196.424242,94.7878787784,4404.03030259,3432.96969663,4249.48484806,2666.42424216,4851.69696921,2909.57575728,4490.57575713,4121.2121208,42.0,42.0,?
2017-08-01 19:17:19.097442,4557.54545409,2975.51515122,4264.93939351,1108.6060605,3951.72727233,2748.84848457,3884.24242385,3045.57575727,4283.48484806,4203.63636322,4474.60606016,4059.39393899,4222.69696927,3144.48484817,4335.51515108,2654.0606058,5001.60606011,2897.21212092,4190.24242382,90.6666666576,4402.99999956,3432.96969663,4245.87878745,2666.42424216,4854.27272679,2909.57575728,4493.66666622,4121.2121208,42.0,42.0,?
2017-08-01 19:17:19.104096,4562.18181773,2975.51515122,4265.96969654,1108.6060605,3949.15151476,2748.84848457,3877.03030264,3045.57575727,4293.27272684,4203.63636322,4473.57575713,4059.39393899,4229.90909049,3144.48484817,4350.45454502,2654.0606058,5001.09090859,2897.21212092,4198.99999958,90.6666666576,4400.42424198,3428.84848451,4246.90909048,2666.42424216,4858.39393891,2909.57575728,4503.96969652,4121.2121208,42.0,42.0,?
2017-08-01 19:17:19.111888,4561.1515147,2975.51515122,4262.36363594,1108.6060605,3950.18181779,2748.84848457,3868.27272689,3045.57575727,4292.75757533,4203.63636322,4467.90909046,4059.39393899,4229.90909049,3144.48484817,4359.72727229,2654.0606058,4999.54545405,2897.21212092,4213.424242,90.6666666576,4405.57575714,3428.84848451,4254.63636321,2658.18181792,4863.03030254,2909.57575728,4508.60606016,4121.2121208,42.0,42.0,?
2017-08-01 19:17:19.119285,4561.1515147,2975.51515122,4264.93939351,1108.6060605,3948.12121173,2748.84848457,3878.06060567,3045.57575727,4288.63636321,4203.63636322,4466.36363592,4059.39393899,4229.90909049,3144.48484817,4359.21212078,2654.0606058,4996.96969647,2897.21212092,4213.93939352,90.6666666576,4407.12121168,3428.84848451,4255.15151473,2658.18181792,4865.60606012,2909.57575728,4496.75757531,4121.2121208,42.0,42.0,?
2017-08-01 19:17:19.129814,4554.96969651,2975.51515122,4264.424242,1108.6060605,3942.45454506,2748.84848457,3886.30302991,3045.57575727,4292.75757533,4203.63636322,4470.99999955,4059.39393899,4227.84848443,3144.48484817,4350.45454502,2654.0606058,4988.21212071,2897.21212092,4204.15151473,94.7878787784,4393.21212077,3428.84848451,4247.93939351,2658.18181792,4855.30302982,2909.57575728,4490.06060561,4121.2121208,42.0,42.0,?
2017-08-01 19:17:19.134745,4546.21212076,2975.51515122,4261.84848442,1108.6060605,3938.33333294,2748.84848457,3873.93939355,3045.57575727,4289.15151472,4203.63636322,4473.06060561,4059.39393899,4215.99999958,3144.48484817,4341.69696926,2654.0606058,4984.09090859,2897.21212092,4191.27272685,94.7878787784,4380.3333329,3441.21212087,4242.27272685,2658.18181792,4839.33333285,2909.57575728,4493.1515147,4121.2121208,42.0,42.0,?
2017-08-01 19:17:19.147731,4546.72727227,2975.51515122,4262.36363594,1108.6060605,3935.24242385,2748.84848457,3874.45454507,3045.57575727,4285.54545412,4203.63636322,4473.06060561,4059.39393899,4209.8181814,3144.48484817,4342.72727229,2654.0606058,4989.24242374,2897.21212092,4186.63636322,94.7878787784,4383.42424199,3441.21212087,4243.81818139,2658.18181792,4841.90909042,2909.57575728,4484.39393895,4121.2121208,42.0,42.0,?
