Timestamp,F3 Value,F3 Quality,FC5 Value,FC5 Quality,F7 Value,F7 Quality,T7 Value,T7 Quality,P7 Value,P7 Quality,O1 Value,O1 Quality,O2 Value,O2 Quality,P8 Value,P8 Quality,T8 Value,T8 Quality,F8 Value,F8 Quality,AF4 Value,AF4 Quality,FC6 Value,FC6 Quality,F4 Value,F4 Quality,AF3 Value,AF3 Quality,X Value,Y Value,Z Value
2017-07-31 18:04:54.469231,4512.21212076,0,4218.06060564,0,3841.4848481,0,3891.96969658,0,4236.60606018,0,4414.84848441,0,4151.09090868,0,4284.51515109,0,4975.84848435,0,4231.45454503,0,4377.75757532,0,4166.54545413,0,4810.484848,0,4491.09090864,0,42.0,42.0,?
2017-07-31 18:04:54.472777,4493.66666622,0,4236.09090867,0,3801.81818144,0,3890.42424204,0,4203.63636322,0,4407.6363632,0,4176.84848443,0,4340.15151472,0,4985.63636314,0,4169.1212117,0,4381.87878744,0,4546.21212076,0,4795.54545407,0,4434.42424198,0,42.0,42.0,?
2017-07-31 18:04:54.475818,4493.66666622,0,4236.09090867,0,3801.81818144,0,3890.42424204,0,4203.63636322,0,4407.6363632,0,4176.84848443,0,4340.15151472,0,4985.63636314,0,4169.1212117,0,4381.87878744,0,4546.21212076,0,4795.54545407,0,4434.42424198,0,42.0,42.0,?
2017-07-31 18:04:54.479383,4497.27272682,0,4240.7272723,0,3807.99999962,0,3885.7878784,0,4201.57575716,0,4410.72727229,0,4178.39393898,0,4347.36363593,0,5001.09090859,0,4170.15151473,0,4383.42424199,0,4554.96969651,0,4796.06060558,0,4433.90909047,0,42.0,42.0,?
2017-07-31 18:04:54.486454,4502.93939349,0,4236.60606018,0,3813.15151477,0,3883.21212082,0,4192.8181814,0,4401.96969653,0,4170.66666625,0,4339.12121169,0,4990.27272677,0,4168.09090867,0,4389.09090865,0,4556.51515106,0,4800.69696922,0,4445.2424238,0,42.0,42.0,?
2017-07-31 18:04:54.490105,4502.93939349,0,4236.60606018,0,3813.15151477,0,3883.21212082,0,4192.8181814,0,4401.96969653,0,4170.66666625,0,4339.12121169,0,4990.27272677,0,4168.09090867,0,4389.09090865,0,4556.51515106,0,4800.69696922,0,4445.2424238,0,42.0,42.0,?
2017-07-31 18:04:54.493598,4502.93939349,0,4236.60606018,0,3813.15151477,0,3883.21212082,0,4192.8181814,0,4401.96969653,0,4170.66666625,0,4339.12121169,0,4990.27272677,0,4168.09090867,0,4389.09090865,0,4556.51515106,0,4800.69696922,0,4445.2424238,0,42.0,42.0,?
2017-07-31 18:04:54.499600,4503.454545,0,4235.06060564,0,3818.30302992,0,3891.96969658,0,4206.72727231,0,4406.09090865,0,4167.57575716,0,4342.21212078,0,4998.51515102,0,4162.93939352,0,4388.06060562,0,4557.54545409,0,4795.03030255,0,4440.60606016,0,42.0,42.0,?
2017-07-31 18:04:54.500791,4508.60606016,0,4234.03030261,0,3824.99999962,0,3891.96969658,0,4205.69696928,0,4405.57575714,0,4172.72727231,0,4346.84848441,0,5008.81818132,0,4172.72727231,0,4397.84848441,0,4559.09090864,0,4799.15151467,0,4448.8484844,0,42.0,42.0,?
2017-07-31 18:04:54.504660,4510.1515147,0,4239.18181776,0,3819.84848447,0,3885.7878784,0,4196.424242,0,4403.51515107,0,4176.84848443,0,4348.39393896,0,5004.6969692,0,4173.75757534,0,4395.78787835,0,4560.63636318,0,4805.33333285,0,4463.27272683,0,42.0,42.0,?
2017-07-31 18:04:54.508007,4513.75757531,0,4233.51515109,0,3816.75757538,0,3887.84848446,0,4203.63636322,0,4405.57575714,0,4175.8181814,0,4347.87878744,0,4995.93939344,0,4164.99999958,0,4392.69696926,0,4559.60606015,0,4800.1818177,0,4473.06060561,0,42.0,42.0,?
2017-07-31 18:04:54.511200,4516.8484844,0,4236.09090867,0,3818.30302992,0,3887.84848446,0,4205.18181776,0,4408.15151471,0,4176.33333292,0,4346.84848441,0,5000.57575708,0,4162.93939352,0,4398.36363592,0,4561.1515147,0,4804.81818134,0,4476.66666622,0,42.0,42.0,?
2017-07-31 18:04:54.515682,4513.75757531,0,4240.21212079,0,3817.27272689,0,3887.33333294,0,4194.36363594,0,4410.72727229,0,4183.54545413,0,4352.51515108,0,5010.87878738,0,4171.18181776,0,4401.45454501,0,4564.24242379,0,4809.96969649,0,4477.69696925,0,42.0,42.0,?
2017-07-31 18:04:54.519360,4511.69696925,3746.18181781,4235.57575715,0,3815.21212083,0,3895.06060567,0,4194.36363594,0,4412.27272683,0,4193.33333291,0,4361.78787835,0,5013.96969647,0,4174.78787837,0,4402.99999956,0,4564.24242379,0,4809.45454497,0,4475.12121167,0,42.0,42.0,?
2017-07-31 18:04:54.522505,4512.72727228,3746.18181781,4238.15151473,4.1212121208,3813.66666629,0,3899.18181779,0,4205.69696928,0,4410.21212077,0,4188.69696928,0,4359.72727229,0,5012.42424192,0,4169.63636322,0,4401.96969653,0,4562.69696924,0,4808.93939346,0,4471.51515107,0,42.0,42.0,?
2017-07-31 18:04:54.525755,4514.78787834,3746.18181781,4237.63636321,4.1212121208,3818.30302992,0,3899.18181779,0,4210.84848443,0,4409.18181774,0,4177.87878746,0,4356.6363632,0,5012.42424192,0,4171.69696928,0,4402.99999956,0,4562.69696924,0,4810.484848,0,4475.12121167,3441.21212087,42.0,42.0,?
2017-07-31 18:04:54.529423,4515.30302985,3746.18181781,4235.06060564,4.1212121208,3820.36363598,251.393939369,3900.21212082,0,4205.18181776,0,4410.21212077,0,4178.90909049,0,4358.69696926,0,5009.33333283,0,4174.78787837,0,4404.03030259,0,4564.7575753,0,4810.99999952,0,4475.63636319,3441.21212087,42.0,42.0,?
2017-07-31 18:04:54.535740,4512.72727228,3746.18181781,4236.09090867,4.1212121208,3818.81818144,251.393939369,3896.0909087,346.181818147,4200.03030261,0,4407.6363632,0,4185.09090867,0,4358.69696926,0,5009.33333283,0,4171.18181776,0,4400.42424198,0,4563.72727227,0,4806.8787874,0,4468.42424198,3441.21212087,42.0,42.0,?
2017-07-31 18:04:54.544810,4512.72727228,3746.18181781,4235.06060564,4.1212121208,3821.90909053,251.393939369,3895.06060567,346.181818147,4201.57575716,181.333333315,4401.45454501,0,4185.09090867,0,4357.15151472,0,5015.51515101,0,4168.09090867,0,4398.36363592,0,4563.21212076,0,4808.42424194,0,4472.03030258,3441.21212087,42.0,42.0,?
2017-07-31 18:04:54.551947,4517.87878743,3746.18181781,4236.60606018,4.1212121208,3822.42424204,251.393939369,3901.24242385,346.181818147,4208.27272685,181.333333315,4400.9393935,3012.6060603,4182.5151511,0,4356.6363632,0,5013.96969647,0,4164.48484807,0,4401.96969653,0,4566.30302985,0,4810.99999952,0,4479.75757531,3441.21212087,42.0,42.0,?
2017-07-31 18:04:54.560991,4519.93939349,3746.18181781,4237.63636321,4.1212121208,3821.90909053,251.393939369,3902.27272688,346.181818147,4211.87878746,181.333333315,4405.57575714,3012.6060603,4185.60606019,3115.63636332,4357.66666623,0,5007.78787829,0,4157.78787837,0,4402.48484804,0,4565.78787833,0,4809.45454497,0,4476.1515147,3441.21212087,42.0,42.0,?
2017-07-31 18:04:54.567398,4517.87878743,3746.18181781,4240.7272723,4.1212121208,3823.45454507,251.393939369,3896.60606022,346.181818147,4208.27272685,181.333333315,4408.66666623,3012.6060603,4185.09090867,3115.63636332,4355.09090866,2728.24242397,5009.33333283,0,4152.12121171,0,4401.96969653,0,4564.24242379,0,4811.51515103,0,4472.5454541,3441.21212087,42.0,42.0,?
2017-07-31 18:04:54.578802,4518.90909046,3746.18181781,4239.69696927,4.1212121208,3826.03030265,251.393939369,3896.60606022,346.181818147,4208.27272685,181.333333315,4411.2424238,3012.6060603,4179.42424201,3115.63636332,4352.51515108,2728.24242397,5011.90909041,2996.12121182,4154.69696928,0,4405.06060562,0,4564.24242379,0,4813.06060558,0,4478.72727228,3441.21212087,42.0,42.0,?
2017-07-31 18:04:54.587062,4523.03030258,3746.18181781,4235.06060564,4.1212121208,3825.51515113,251.393939369,3903.81818143,346.181818147,4212.90909049,181.333333315,4412.27272683,3012.6060603,4179.93939352,3115.63636332,4351.99999956,2728.24242397,5009.33333283,2996.12121182,4156.75757534,86.5454545368,4406.60606017,0,4565.78787833,0,4813.57575709,0,4485.42424198,3441.21212087,42.0,42.0,?
2017-07-31 18:04:54.590804,4521.99999955,3746.18181781,4235.57575715,4.1212121208,3822.42424204,251.393939369,3902.7878784,346.181818147,4201.57575716,181.333333315,4410.21212077,3012.6060603,4183.03030261,3115.63636332,4349.9393935,2728.24242397,5004.6969692,2996.12121182,4149.54545413,86.5454545368,4405.57575714,3334.06060573,4567.84848439,0,4813.06060558,0,4483.36363592,3441.21212087,42.0,42.0,?
2017-07-31 18:04:54.603896,4514.78787834,3746.18181781,4236.09090867,4.1212121208,3817.78787841,251.393939369,3896.60606022,346.181818147,4198.99999958,181.333333315,4406.09090865,3012.6060603,4174.27272686,3115.63636332,4339.12121169,2728.24242397,4992.84848435,2996.12121182,4134.60606019,86.5454545368,4398.36363592,3334.06060573,4567.84848439,762.424242348,4802.75757528,1463.03030288,4471.51515107,3441.21212087,42.0,42.0,?
2017-07-31 18:04:54.606627,4514.78787834,3746.18181781,4236.09090867,4.1212121208,3817.78787841,251.393939369,3896.60606022,346.181818147,4198.99999958,181.333333315,4398.87878744,3012.6060603,4174.27272686,3115.63636332,4339.12121169,2728.24242397,4992.84848435,2996.12121182,4134.60606019,86.5454545368,4398.36363592,3334.06060573,4567.84848439,762.424242348,4802.75757528,1463.03030288,4471.51515107,3441.21212087,42.0,42.0,?
2017-07-31 18:04:54.614783,4508.60606016,3746.18181781,4237.63636321,4.1212121208,3816.24242386,251.393939369,3902.27272688,346.181818147,4201.57575716,181.333333315,4394.2424238,3012.6060603,4172.72727231,3115.63636332,4334.48484805,2728.24242397,4984.60606011,2996.12121182,4134.09090868,90.6666666576,4394.2424238,3334.06060573,4568.36363591,762.424242348,4803.78787831,1463.03030288,4472.5454541,3441.21212087,42.0,42.0,?
2017-07-31 18:04:54.621637,4504.99999955,3746.18181781,4236.09090867,4.1212121208,3815.21212083,251.393939369,3900.21212082,346.181818147,4201.06060564,181.333333315,4397.33333289,3012.6060603,4172.21212079,3115.63636332,4337.06060563,2728.24242397,4982.03030253,2996.12121182,4133.06060565,90.6666666576,4390.12121168,3329.93939361,4570.42424197,762.424242348,4799.15151467,1463.03030288,4471.51515107,3441.21212087,42.0,42.0,?
2017-07-31 18:04:54.629672,4500.36363591,3746.18181781,4237.1212117,4.1212121208,3810.06060568,251.393939369,3894.54545416,346.181818147,4200.03030261,181.333333315,4398.36363592,3012.6060603,4173.75757534,3115.63636332,4342.21212078,2728.24242397,4986.66666617,2996.12121182,4130.48484807,90.6666666576,4382.90909047,3329.93939361,4570.93939348,762.424242348,4795.03030255,1463.03030288,4467.39393895,3441.21212087,42.0,42.0,?
2017-07-31 18:04:54.637016,4504.48484803,3746.18181781,4236.60606018,4.1212121208,3812.63636326,251.393939369,3898.15151476,346.181818147,4201.57575716,181.333333315,4394.75757532,3012.6060603,4184.06060564,3115.63636332,4346.84848441,2728.24242397,4993.36363586,2996.12121182,4136.15151474,90.6666666576,4381.87878744,3329.93939361,4570.42424197,762.424242348,4795.54545407,1463.03030288,4468.42424198,3441.21212087,42.0,42.0,?
2017-07-31 18:04:54.645282,4512.72727228,3746.18181781,4238.15151473,4.1212121208,3816.24242386,251.393939369,3898.15151476,346.181818147,4204.15151473,181.333333315,4392.69696926,3012.6060603,4186.1212117,3115.63636332,4346.84848441,2728.24242397,4992.84848435,2996.12121182,4141.8181814,90.6666666576,4387.54545411,3329.93939361,4571.454545,762.424242348,4801.72727225,1463.03030288,4473.06060561,3441.21212087,42.0,42.0,?
2017-07-31 18:04:54.653909,4509.12121167,3746.18181781,4239.69696927,4.1212121208,3810.06060568,251.393939369,3890.93939355,346.181818147,4200.54545413,181.333333315,4391.66666623,3012.6060603,4170.66666625,3115.63636332,4336.54545411,2728.24242397,4986.15151465,2996.12121182,4136.66666625,90.6666666576,4385.48484805,3329.93939361,4568.87878742,762.424242348,4804.30302982,1463.03030288,4474.09090864,3441.21212087,42.0,42.0,?
2017-07-31 18:04:54.661562,4501.39393894,3746.18181781,4236.09090867,4.1212121208,3805.42424204,251.393939369,3890.93939355,346.181818147,4198.48484806,181.333333315,4396.30302986,3012.6060603,4163.45454504,3115.63636332,4329.84848442,2728.24242397,4981.51515102,2996.12121182,4133.06060565,90.6666666576,4381.87878744,3329.93939361,4565.27272682,762.424242348,4798.12121164,1463.03030288,4468.42424198,3441.21212087,42.0,42.0,?
2017-07-31 18:04:54.669219,4498.81818137,3746.18181781,4236.60606018,4.1212121208,3803.36363598,251.393939369,3890.93939355,346.181818147,4200.03030261,181.333333315,4404.54545411,3012.6060603,4170.66666625,3115.63636332,4332.93939351,2728.24242397,4983.06060556,2996.12121182,4133.57575716,90.6666666576,4382.90909047,3329.93939361,4567.84848439,762.424242348,4797.09090861,1463.03030288,4459.66666622,3441.21212087,42.0,42.0,?
2017-07-31 18:04:54.676672,4499.33333288,3746.18181781,4238.15151473,4.1212121208,3798.72727235,251.393939369,3890.42424204,346.181818147,4201.57575716,181.333333315,4404.54545411,3012.6060603,4171.69696928,3115.63636332,4332.42424199,2728.24242397,4987.18181768,2996.12121182,4132.03030262,90.6666666576,4382.39393896,3329.93939361,4568.36363591,762.424242348,4796.06060558,1463.03030288,4456.57575713,3441.21212087,42.0,42.0,?
2017-07-31 18:04:54.684417,4500.36363591,3746.18181781,4237.63636321,4.1212121208,3798.21212083,251.393939369,3895.57575719,346.181818147,4202.09090867,181.333333315,4399.90909047,3012.6060603,4164.48484807,3115.63636332,4329.3333329,2728.24242397,4983.06060556,2996.12121182,4129.96969656,90.6666666576,4378.78787835,3329.93939361,4566.30302985,762.424242348,4793.99999952,1463.03030288,4457.60606016,3441.21212087,42.0,42.0,?
2017-07-31 18:04:54.692213,4501.39393894,3746.18181781,4234.03030261,4.1212121208,3800.27272689,251.393939369,3898.15151476,346.181818147,4198.48484806,181.333333315,4398.36363592,3012.6060603,4160.87878746,3115.63636332,4328.81818139,2728.24242397,4974.30302981,2996.12121182,4122.75757535,90.6666666576,4379.30302987,3329.93939361,4568.36363591,762.424242348,4797.60606013,1463.03030288,4457.60606016,3441.21212087,42.0,42.0,?
2017-07-31 18:04:54.701874,4501.39393894,3746.18181781,4230.424242,4.1212121208,3797.69696932,251.393939369,3896.60606022,346.181818147,4200.03030261,181.333333315,4399.90909047,3012.6060603,4162.93939352,3115.63636332,4327.78787836,2728.24242397,4974.81818132,2996.12121182,4118.12121171,90.6666666576,4382.90909047,3329.93939361,4565.27272682,762.424242348,4799.15151467,1463.03030288,4457.60606016,3441.21212087,42.0,42.0,?
2017-07-31 18:04:54.708274,4499.33333288,3746.18181781,4236.09090867,4.1212121208,3796.15151477,251.393939369,3898.15151476,346.181818147,4205.18181776,181.333333315,4401.96969653,3012.6060603,4166.03030261,3115.63636332,4329.84848442,2728.24242397,4980.9999995,2996.12121182,4120.69696928,90.6666666576,4384.96969653,3329.93939361,4563.21212076,762.424242348,4801.72727225,1463.03030288,4457.09090865,3441.21212087,42.0,42.0,?
2017-07-31 18:04:54.715860,4495.21212076,3746.18181781,4237.63636321,4.1212121208,3799.75757538,251.393939369,3902.7878784,346.181818147,4206.21212079,181.333333315,4404.03030259,3012.6060603,4174.78787837,3115.63636332,4342.72727229,2728.24242397,4985.63636314,2996.12121182,4121.72727232,90.6666666576,4382.90909047,3329.93939361,4563.21212076,762.424242348,4802.24242376,1463.03030288,4457.09090865,3441.21212087,42.0,42.0,?
2017-07-31 18:04:54.725270,4498.81818137,3746.18181781,4234.03030261,4.1212121208,3805.93939356,251.393939369,3906.393939,346.181818147,4207.24242382,181.333333315,4404.54545411,3012.6060603,4186.63636322,3115.63636332,4354.06060563,2728.24242397,4996.45454495,2996.12121182,4124.30302989,90.6666666576,4383.42424199,3329.93939361,4563.21212076,762.424242348,4802.75757528,1463.03030288,4461.72727228,3441.21212087,42.0,42.0,?
2017-07-31 18:04:54.730649,4508.09090864,3746.18181781,4235.06060564,4.1212121208,3809.03030265,251.393939369,3904.33333294,346.181818147,4205.69696928,181.333333315,4401.96969653,3012.6060603,4186.63636322,3115.63636332,4351.99999956,2728.24242397,5001.60606011,2996.12121182,4125.33333292,90.6666666576,4390.12121168,3329.93939361,4564.24242379,762.424242348,4804.81818134,1463.03030288,4466.36363592,3441.21212087,42.0,42.0,?
2017-07-31 18:04:54.738697,4505.51515106,3746.18181781,4232.48484806,4.1212121208,3807.99999962,251.393939369,3898.15151476,346.181818147,4201.57575716,181.333333315,4393.72727229,3012.6060603,4177.87878746,3115.63636332,4343.75757532,2728.24242397,4993.87878738,2996.12121182,4117.60606019,90.6666666576,4385.48484805,3329.93939361,4562.18181773,762.424242348,4799.15151467,1463.03030288,4462.75757531,3441.21212087,42.0,42.0,?
2017-07-31 18:04:54.747094,4496.75757531,3746.18181781,4236.60606018,4.1212121208,3802.84848447,251.393939369,3901.24242385,346.181818147,4207.24242382,181.333333315,4391.66666623,3012.6060603,4178.90909049,3115.63636332,4343.24242381,2728.24242397,4991.81818132,2996.12121182,4112.45454504,90.6666666576,4377.2424238,3329.93939361,4562.69696924,762.424242348,4798.12121164,1463.03030288,4453.99999955,3441.21212087,42.0,42.0,?
2017-07-31 18:04:54.755618,4499.8484844,3746.18181781,4239.18181776,4.1212121208,3802.84848447,251.393939369,3911.54545415,346.181818147,4220.1212117,181.333333315,4402.99999956,3012.6060603,4187.66666625,3115.63636332,4355.09090866,2728.24242397,5003.66666617,2996.12121182,4122.75757535,90.6666666576,4385.48484805,3329.93939361,4564.24242379,762.424242348,4803.27272679,1463.03030288,4459.66666622,3441.21212087,42.0,42.0,?
2017-07-31 18:04:54.763298,4509.63636319,3746.18181781,4232.99999958,4.1212121208,3809.03030265,251.393939369,3913.60606021,346.181818147,4215.99999958,181.333333315,4409.18181774,3012.6060603,4184.57575716,3115.63636332,4360.24242381,2728.24242397,5004.6969692,2996.12121182,4127.39393898,90.6666666576,4397.33333289,3329.93939361,4561.66666621,762.424242348,4805.33333285,1463.03030288,4473.06060561,3441.21212087,42.0,42.0,?
2017-07-31 18:04:54.769660,4509.63636319,3746.18181781,4235.57575715,4.1212121208,3809.03030265,251.393939369,3907.93939355,346.181818147,4203.63636322,181.333333315,4401.45454501,3012.6060603,4173.24242383,3115.63636332,4346.3333329,2728.24242397,4988.72727223,2996.12121182,4115.54545413,90.6666666576,4391.15151471,3329.93939361,4562.18181773,762.424242348,4805.84848437,1463.03030288,4472.03030258,3441.21212087,42.0,42.0,?
2017-07-31 18:04:54.779342,4505.51515106,3746.18181781,4233.51515109,4.1212121208,3811.60606022,251.393939369,3907.42424203,346.181818147,4209.30302988,181.333333315,4399.90909047,3012.6060603,4170.15151473,3115.63636332,4337.06060563,2728.24242397,4984.60606011,2996.12121182,4113.48484807,90.6666666576,4382.39393896,3329.93939361,4566.81818136,762.424242348,4799.15151467,1463.03030288,4465.33333289,3441.21212087,42.0,42.0,?
2017-07-31 18:04:54.785712,4503.454545,3746.18181781,4230.93939352,4.1212121208,3814.69696932,251.393939369,3907.93939355,346.181818147,4214.96969655,181.333333315,4402.48484804,3012.6060603,4170.66666625,3115.63636332,4339.6363632,2728.24242397,4991.3030298,2996.12121182,4120.69696928,90.6666666576,4388.06060562,3329.93939361,4574.54545409,762.424242348,4798.12121164,1463.03030288,4467.90909046,3441.21212087,42.0,42.0,?
2017-07-31 18:04:54.793657,4501.39393894,3746.18181781,4238.15151473,4.1212121208,3805.93939356,251.393939369,3903.30302991,346.181818147,4208.78787837,181.333333315,4400.9393935,3012.6060603,4173.24242383,3115.63636332,4346.84848441,2728.24242397,4997.9999995,2996.12121182,4122.24242383,90.6666666576,4391.66666623,3329.93939361,4577.63636318,762.424242348,4805.84848437,1463.03030288,4470.99999955,3441.21212087,42.0,42.0,?
2017-07-31 18:04:54.802224,4497.78787834,3746.18181781,4238.66666624,4.1212121208,3805.42424204,251.393939369,3904.33333294,346.181818147,4210.33333291,181.333333315,4399.90909047,3012.6060603,4177.87878746,3115.63636332,4351.99999956,2728.24242397,5004.6969692,2996.12121182,4121.72727232,90.6666666576,4387.03030259,3329.93939361,4575.57575712,762.424242348,4803.27272679,1463.03030288,4470.48484804,3441.21212087,42.0,42.0,?
2017-07-31 18:04:54.810659,4497.78787834,3746.18181781,4237.1212117,4.1212121208,3818.30302992,251.393939369,3910.51515112,346.181818147,4214.96969655,181.333333315,4398.36363592,3012.6060603,4178.90909049,3115.63636332,4347.36363593,2728.24242397,5000.57575708,2996.12121182,4118.12121171,90.6666666576,4384.96969653,3329.93939361,4584.84848439,762.424242348,4800.69696922,1463.03030288,4470.48484804,3441.21212087,42.0,42.0,?
2017-07-31 18:04:54.817077,4500.87878743,3746.18181781,4236.09090867,4.1212121208,3820.8787875,251.393939369,3909.48484809,346.181818147,4211.87878746,181.333333315,4395.78787835,3012.6060603,4173.75757534,3115.63636332,4340.66666623,2728.24242397,4992.84848435,2996.12121182,4109.87878747,90.6666666576,4382.39393896,3329.93939361,4596.69696924,762.424242348,4797.09090861,1463.03030288,4468.42424198,3441.21212087,42.0,42.0,?
2017-07-31 18:04:54.824689,4499.33333288,3746.18181781,4238.15151473,4.1212121208,3812.63636326,251.393939369,3905.87878749,346.181818147,4211.36363594,181.333333315,4396.81818138,3012.6060603,4166.03030261,3115.63636332,4337.57575714,2728.24242397,4994.39393889,2996.12121182,4105.24242383,90.6666666576,4378.78787835,3329.93939361,4594.63636318,762.424242348,4793.99999952,1463.03030288,4464.81818137,3441.21212087,42.0,42.0,?
2017-07-31 18:04:54.834478,4497.27272682,3746.18181781,4238.66666624,4.1212121208,3815.72727235,251.393939369,3910.51515112,346.181818147,4217.54545412,181.333333315,4396.81818138,3012.6060603,4163.96969655,3115.63636332,4337.57575714,2728.24242397,4996.96969647,2996.12121182,4107.81818141,90.6666666576,4381.87878744,3329.93939361,4586.39393894,762.424242348,4798.63636316,1463.03030288,4466.36363592,3441.21212087,42.0,42.0,?
2017-07-31 18:04:54.840688,4502.93939349,3746.18181781,4231.96969655,4.1212121208,3824.4848481,251.393939369,3911.03030264,346.181818147,4222.69696927,181.333333315,4392.69696926,3012.6060603,4171.69696928,3115.63636332,4343.24242381,2728.24242397,4999.54545405,2996.12121182,4108.33333292,90.6666666576,4388.06060562,3329.93939361,4581.7575753,762.424242348,4800.1818177,1463.03030288,4467.90909046,3441.21212087,42.0,42.0,?
2017-07-31 18:04:54.849274,4506.54545409,3746.18181781,4233.51515109,4.1212121208,3821.90909053,251.393939369,3904.33333294,346.181818147,4217.03030261,181.333333315,4393.72727229,3012.6060603,4177.87878746,3115.63636332,4348.39393896,2728.24242397,5000.57575708,2996.12121182,4104.2121208,90.6666666576,4388.57575714,3329.93939361,4580.72727227,762.424242348,4802.24242376,1463.03030288,4464.81818137,3441.21212087,42.0,42.0,?
2017-07-31 18:04:54.856070,4503.96969652,3746.18181781,4237.1212117,4.1212121208,3819.84848447,251.393939369,3907.93939355,346.181818147,4212.39393897,181.333333315,4397.33333289,3012.6060603,4171.69696928,3115.63636332,4341.69696926,2728.24242397,4993.36363586,2996.12121182,4101.12121171,90.6666666576,4384.45454502,3329.93939361,4575.57575712,762.424242348,4802.24242376,1463.03030288,4461.72727228,3441.21212087,42.0,42.0,?
2017-07-31 18:04:54.863635,4499.33333288,3746.18181781,4236.60606018,4.1212121208,3818.30302992,251.393939369,3913.0909087,346.181818147,4218.06060564,181.333333315,4395.78787835,3012.6060603,4157.78787837,3115.63636332,4327.27272684,2728.24242397,4983.06060556,2996.12121182,4096.48484808,90.6666666576,4378.78787835,3329.93939361,4568.87878742,762.424242348,4795.54545407,1463.03030288,4458.63636319,3441.21212087,42.0,42.0,?
2017-07-31 18:04:54.871683,4496.24242379,3746.18181781,4235.06060564,4.1212121208,3811.60606022,251.393939369,3908.45454506,346.181818147,4219.09090867,181.333333315,4392.69696926,3012.6060603,4149.03030262,3115.63636332,4322.12121169,2728.24242397,4982.03030253,2996.12121182,4091.84848444,90.6666666576,4376.21212077,3329.93939361,4568.87878742,762.424242348,4791.93939346,1463.03030288,4455.03030258,3441.21212087,42.0,42.0,?
2017-07-31 18:04:54.880448,4501.90909046,3746.18181781,4231.96969655,4.1212121208,3814.69696932,251.393939369,3904.84848446,346.181818147,4208.78787837,181.333333315,4392.18181774,3012.6060603,4157.27272686,3115.63636332,4327.78787836,2728.24242397,4984.60606011,2996.12121182,4093.9090905,90.6666666576,4381.87878744,3329.93939361,4570.42424197,762.424242348,4795.03030255,1463.03030288,4460.18181774,3441.21212087,42.0,42.0,?
2017-07-31 18:04:54.888225,4511.18181773,3746.18181781,4238.66666624,4.1212121208,3826.03030265,251.393939369,3906.393939,346.181818147,4206.21212079,181.333333315,4394.2424238,3012.6060603,4170.15151473,3115.63636332,4333.96969654,2728.24242397,4988.72727223,2996.12121182,4098.54545414,90.6666666576,4392.18181774,3329.93939361,4568.36363591,762.424242348,4805.33333285,1463.03030288,4467.90909046,3441.21212087,42.0,42.0,?
2017-07-31 18:04:54.895731,4510.66666622,3746.18181781,4240.21212079,4.1212121208,3828.09090871,251.393939369,3906.90909052,346.181818147,4214.96969655,181.333333315,4395.78787835,3012.6060603,4171.18181776,3115.63636332,4340.66666623,2728.24242397,5002.63636314,2996.12121182,4101.63636323,90.6666666576,4393.72727229,3329.93939361,4563.21212076,762.424242348,4806.8787874,1463.03030288,4467.90909046,3441.21212087,42.0,42.0,?
2017-07-31 18:04:54.903458,4503.96969652,3746.18181781,4234.03030261,4.1212121208,3819.84848447,251.393939369,3903.81818143,346.181818147,4215.99999958,181.333333315,4393.21212077,3012.6060603,4169.63636322,3115.63636332,4341.18181775,2728.24242397,5004.18181768,2996.12121182,4096.48484808,90.6666666576,4385.99999956,3329.93939361,4561.66666621,762.424242348,4799.66666619,1463.03030288,4464.30302986,3441.21212087,42.0,42.0,?
2017-07-31 18:04:54.911255,4502.93939349,3746.18181781,4236.60606018,4.1212121208,3815.72727235,251.393939369,3898.66666628,346.181818147,4209.8181814,181.333333315,4392.69696926,3012.6060603,4173.75757534,3115.63636332,4329.84848442,2728.24242397,4982.03030253,2996.12121182,4080.51515111,90.6666666576,4381.36363593,3329.93939361,4565.27272682,762.424242348,4799.15151467,1463.03030288,4462.75757531,3441.21212087,42.0,42.0,?
2017-07-31 18:04:54.920633,4506.54545409,3746.18181781,4235.06060564,4.1212121208,3817.27272689,251.393939369,3899.69696931,346.181818147,4212.90909049,181.333333315,4397.84848441,3012.6060603,4175.30302989,3115.63636332,4323.15151472,2728.24242397,4970.18181768,2996.12121182,4070.21212081,90.6666666576,4380.84848441,3329.93939361,4566.81818136,762.424242348,4795.54545407,1463.03030288,4462.2424238,3441.21212087,42.0,42.0,?
2017-07-31 18:04:54.927340,4503.96969652,3746.18181781,4235.57575715,4.1212121208,3815.72727235,251.393939369,3903.81818143,346.181818147,4219.09090867,181.333333315,4401.96969653,3012.6060603,4170.15151473,3115.63636332,4328.81818139,2728.24242397,4975.84848435,2996.12121182,4072.27272687,90.6666666576,4381.36363593,3329.93939361,4569.90909045,762.424242348,4795.03030255,1463.03030288,4458.63636319,3441.21212087,42.0,42.0,?
2017-07-31 18:04:54.934669,4501.90909046,3746.18181781,4227.33333291,4.1212121208,3816.75757538,251.393939369,3909.99999961,346.181818147,4222.18181776,181.333333315,4402.99999956,3012.6060603,4169.63636322,3115.63636332,4335.51515108,2728.24242397,4987.6969692,2996.12121182,4080.51515111,90.6666666576,4380.3333329,3329.93939361,4568.87878742,762.424242348,4792.45454498,1463.03030288,4460.18181774,3441.21212087,42.0,42.0,?
2017-07-31 18:04:54.942414,4503.96969652,3746.18181781,4222.18181776,4.1212121208,3822.93939356,251.393939369,3914.12121173,346.181818147,4224.75757534,181.333333315,4405.57575714,3012.6060603,4180.45454504,3115.63636332,4342.72727229,2728.24242397,5000.06060556,2996.12121182,4088.24242383,90.6666666576,4380.3333329,3329.93939361,4566.30302985,762.424242348,4791.42424195,1463.03030288,4465.33333289,3441.21212087,42.0,42.0,?
2017-07-31 18:04:54.950318,4495.72727228,3746.18181781,4289.15151472,4.1212121208,3812.12121174,251.393939369,3892.4848481,346.181818147,4212.39393897,181.333333315,4410.21212077,3012.6060603,4178.90909049,3115.63636332,4332.93939351,2728.24242397,4988.72727223,2996.12121182,4072.78787838,90.6666666576,4381.87878744,3329.93939361,4589.48484803,762.424242348,4833.66666618,1463.03030288,4458.63636319,3441.21212087,42.0,42.0,?
2017-07-31 18:04:54.959469,4508.60606016,3746.18181781,4197.96969655,4.1212121208,3834.7878784,251.393939369,3905.87878749,346.181818147,4230.93939352,181.333333315,4410.21212077,3012.6060603,4186.1212117,3115.63636332,4344.78787835,2728.24242397,5004.18181768,2996.12121182,4085.66666626,90.6666666576,4380.3333329,3329.93939361,4555.48484803,762.424242348,4771.33333286,1463.03030288,4474.09090864,3441.21212087,42.0,42.0,?
2017-07-31 18:04:54.966385,4518.39393894,3746.18181781,4177.36363595,4.1212121208,3846.63636325,251.393939369,3924.42424203,346.181818147,4239.18181776,181.333333315,4400.9393935,3012.6060603,4196.424242,3115.63636332,4363.84848441,2728.24242397,5025.81818132,2996.12121182,4101.63636323,90.6666666576,4394.75757532,3329.93939361,4552.90909045,762.424242348,4763.60606013,1463.03030288,4475.12121167,3441.21212087,42.0,42.0,?
2017-07-31 18:04:54.974317,4462.75757531,3746.18181781,4550.33333288,4.1212121208,3746.18181781,251.393939369,3838.39393901,346.181818147,4152.12121171,181.333333315,4402.48484804,3012.6060603,4150.06060565,3115.63636332,4289.15151472,2728.24242397,4938.24242375,2996.12121182,4017.15151475,90.6666666576,4392.18181774,3329.93939361,4683.24242377,762.424242348,5002.63636314,1463.03030288,4421.03030259,3441.21212087,42.0,42.0,?
2017-07-31 18:04:54.983057,4483.87878743,3746.18181781,4365.39393896,4.1212121208,3776.5757572,251.393939369,3857.96969658,346.181818147,4176.84848443,181.333333315,4415.87878744,3012.6060603,4156.75757534,3115.63636332,4296.36363593,2728.24242397,4955.75757526,2996.12121182,4040.84848444,90.6666666576,4364.36363593,3329.93939361,4612.66666621,762.424242348,4864.06060557,1463.03030288,4458.63636319,3441.21212087,42.0,42.0,?
2017-07-31 18:04:54.989466,4547.7575753,3746.18181781,3977.9999996,4.1212121208,3887.84848446,251.393939369,3957.393939,346.181818147,4267.51515109,181.333333315,4407.12121168,3012.6060603,4212.90909049,3115.63636332,4385.99999956,2728.24242397,5061.87878737,2996.12121182,4141.30302989,90.6666666576,4381.36363593,3329.93939361,4490.57575713,762.424242348,4623.99999954,1463.03030288,4514.27272682,3441.21212087,42.0,42.0,?
2017-07-31 18:04:54.996634,4511.69696925,3746.18181781,4216.51515109,4.1212121208,3833.24242386,251.393939369,3912.57575718,346.181818147,4220.63636321,181.333333315,4392.18181774,3012.6060603,4182.5151511,3115.63636332,4348.90909047,2728.24242397,5009.84848435,2996.12121182,4088.24242383,90.6666666576,4398.36363592,3329.93939361,4581.7575753,762.424242348,4799.15151467,1463.03030288,4470.48484804,3441.21212087,42.0,42.0,?
2017-07-31 18:04:55.006796,4500.87878743,3746.18181781,4247.424242,4.1212121208,3817.27272689,251.393939369,3893.51515113,346.181818147,4208.27272685,181.333333315,4397.84848441,3012.6060603,4165.5151511,3115.63636332,4325.72727229,2728.24242397,4984.60606011,2996.12121182,4070.21212081,90.6666666576,4384.96969653,3329.93939361,4588.96969651,762.424242348,4816.15151467,1463.03030288,4465.8484844,3441.21212087,42.0,42.0,?
2017-07-31 18:04:55.013639,4521.48484803,3746.18181781,4144.39393898,12.3636363624,3850.24242386,251.393939369,3923.90909052,346.181818147,4236.09090867,181.333333315,4398.87878744,3012.6060603,4187.15151473,3115.63636332,4349.42424199,2728.24242397,5018.09090859,2996.12121182,4103.69696929,90.6666666576,4386.51515108,3329.93939361,4561.66666621,762.424242348,4749.18181771,1463.03030288,4475.63636319,3441.21212087,42.0,42.0,?
2017-07-31 18:04:55.023139,4511.69696925,3746.18181781,4217.03030261,12.3636363624,3827.57575719,251.393939369,3909.99999961,346.181818147,4220.1212117,181.333333315,4398.36363592,3012.6060603,4180.45454504,3115.63636332,4337.57575714,2728.24242397,5004.6969692,2996.12121182,4083.09090868,90.6666666576,4385.99999956,3329.93939361,4589.48484803,762.424242348,4797.09090861,1463.03030288,4461.72727228,3437.09090875,42.0,42.0,?
2017-07-31 18:04:55.027621,4511.69696925,3746.18181781,4201.06060564,12.3636363624,3823.96969659,259.63636361,3905.87878749,346.181818147,4219.60606018,181.333333315,4402.99999956,3012.6060603,4179.93939352,3115.63636332,4341.69696926,2728.24242397,5004.18181768,2996.12121182,4078.45454505,90.6666666576,4381.36363593,3329.93939361,4583.30302984,762.424242348,4783.1818177,1463.03030288,4465.33333289,3437.09090875,42.0,42.0,?
2017-07-31 18:04:55.035610,4503.96969652,3746.18181781,4207.24242382,12.3636363624,3821.39393901,259.63636361,3903.30302991,342.060606026,4219.60606018,181.333333315,4400.9393935,3012.6060603,4176.84848443,3115.63636332,4337.57575714,2728.24242397,5000.06060556,2996.12121182,4076.39393899,90.6666666576,4377.2424238,3329.93939361,4587.93939348,762.424242348,4784.72727225,1463.03030288,4459.15151471,3437.09090875,42.0,42.0,?
2017-07-31 18:04:55.043634,4500.36363591,3746.18181781,4211.87878746,12.3636363624,3819.84848447,259.63636361,3901.24242385,342.060606026,4220.63636321,185.454545436,4399.90909047,3012.6060603,4171.69696928,3115.63636332,4326.24242381,2728.24242397,4993.36363586,2996.12121182,4077.42424202,90.6666666576,4374.15151471,3329.93939361,4585.87878742,762.424242348,4782.15151467,1463.03030288,4457.09090865,3437.09090875,42.0,42.0,?
2017-07-31 18:04:55.053632,4508.09090864,3746.18181781,4212.39393897,12.3636363624,3826.03030265,259.63636361,3896.0909087,342.060606026,4222.69696927,185.454545436,4401.45454501,3000.24242394,4175.8181814,3115.63636332,4328.30302987,2728.24242397,4988.72727223,2996.12121182,4090.81818141,90.6666666576,4378.78787835,3329.93939361,4583.30302984,762.424242348,4784.72727225,1463.03030288,4461.72727228,3437.09090875,42.0,42.0,?
2017-07-31 18:04:55.059700,4510.1515147,3746.18181781,4216.51515109,12.3636363624,3824.99999962,259.63636361,3896.0909087,342.060606026,4220.63636321,185.454545436,4399.90909047,3000.24242394,4179.93939352,3119.75757545,4333.45454502,2728.24242397,4986.66666617,2996.12121182,4110.39393898,90.6666666576,4380.84848441,3329.93939361,4587.42424197,762.424242348,4794.51515104,1463.03030288,4462.2424238,3437.09090875,42.0,42.0,?
2017-07-31 18:04:55.067908,4507.06060561,3746.18181781,4211.87878746,12.3636363624,3821.39393901,259.63636361,3905.36363597,342.060606026,4223.21212079,185.454545436,4395.27272683,3000.24242394,4177.87878746,3119.75757545,4331.90909048,2719.99999973,4995.42424192,2996.12121182,4130.99999959,90.6666666576,4375.18181774,3329.93939361,4586.90909045,762.424242348,4790.90909043,1463.03030288,4458.63636319,3437.09090875,42.0,42.0,?
2017-07-31 18:04:55.075570,4510.66666622,3746.18181781,4215.99999958,12.3636363624,3820.8787875,259.63636361,3906.393939,342.060606026,4222.69696927,185.454545436,4397.84848441,3000.24242394,4176.33333292,3119.75757545,4326.75757532,2719.99999973,4998.51515102,2987.87878758,4149.03030262,90.6666666576,4373.12121168,3329.93939361,4584.84848439,762.424242348,4793.48484801,1463.03030288,4461.21212077,3437.09090875,42.0,42.0,?
2017-07-31 18:04:55.083371,4516.8484844,3746.18181781,4214.96969655,12.3636363624,3821.90909053,259.63636361,3897.63636325,342.060606026,4220.63636321,185.454545436,4404.54545411,3000.24242394,4179.93939352,3119.75757545,4329.3333329,2719.99999973,4991.81818132,2987.87878758,4166.03030261,107.151515141,4379.81818138,3329.93939361,4583.30302984,762.424242348,4797.60606013,1463.03030288,4468.93939349,3437.09090875,42.0,42.0,?
2017-07-31 18:04:55.091625,4515.30302985,3746.18181781,4215.48484806,12.3636363624,3821.39393901,259.63636361,3892.99999961,342.060606026,4221.66666624,185.454545436,4407.12121168,3000.24242394,4183.03030261,3119.75757545,4334.48484805,2719.99999973,4993.36363586,2987.87878758,4180.96969655,107.151515141,4385.48484805,3342.30302997,4587.93939348,762.424242348,4800.69696922,1463.03030288,4473.06060561,3437.09090875,42.0,42.0,?
2017-07-31 18:04:55.099222,4518.90909046,3746.18181781,4214.96969655,12.3636363624,3826.03030265,259.63636361,3901.24242385,342.060606026,4226.30302988,185.454545436,4405.57575714,3000.24242394,4190.75757534,3119.75757545,4340.15151472,2719.99999973,5002.12121162,2987.87878758,4194.36363594,107.151515141,4385.48484805,3342.30302997,4589.48484803,758.303030227,4799.15151467,1463.03030288,4474.09090864,3437.09090875,42.0,42.0,?
2017-07-31 18:04:55.109027,4524.57575712,3746.18181781,4215.99999958,12.3636363624,3828.60606022,259.63636361,3898.15151476,342.060606026,4229.90909049,185.454545436,4403.51515107,3000.24242394,4194.36363594,3119.75757545,4343.24242381,2719.99999973,5001.09090859,2987.87878758,4197.96969655,107.151515141,4383.42424199,3342.30302997,4587.42424197,758.303030227,4795.03030255,1483.63636349,4471.51515107,3437.09090875,42.0,42.0,?
2017-07-31 18:04:55.114573,4526.12121167,3746.18181781,4219.60606018,12.3636363624,3824.99999962,259.63636361,3885.7878784,342.060606026,4228.36363594,185.454545436,4404.54545411,3000.24242394,4190.75757534,3119.75757545,4342.72727229,2719.99999973,4999.03030253,2987.87878758,4195.39393897,107.151515141,4383.9393935,3342.30302997,4588.96969651,758.303030227,4793.99999952,1483.63636349,4470.48484804,3437.09090875,42.0,42.0,?
2017-07-31 18:04:55.123255,4523.54545409,3746.18181781,4215.48484806,12.3636363624,3826.03030265,259.63636361,3894.03030264,342.060606026,4227.33333291,185.454545436,4405.06060562,3000.24242394,4193.84848443,3119.75757545,4345.81818138,2719.99999973,5004.18181768,2987.87878758,4195.39393897,107.151515141,4384.45454502,3342.30302997,4590.51515106,758.303030227,4796.5757571,1483.63636349,4470.99999955,3437.09090875,42.0,42.0,?
2017-07-31 18:04:55.130827,4516.8484844,3746.18181781,4215.48484806,12.3636363624,3820.8787875,259.63636361,3905.87878749,342.060606026,4232.99999958,185.454545436,4408.15151471,3000.24242394,4196.93939352,3119.75757545,4346.84848441,2719.99999973,5002.63636314,2987.87878758,4191.78787837,107.151515141,4379.30302987,3342.30302997,4587.42424197,762.424242348,4795.03030255,1483.63636349,4461.72727228,3437.09090875,42.0,42.0,?
2017-07-31 18:04:55.138454,4510.66666622,3746.18181781,4218.57575715,12.3636363624,3815.21212083,259.63636361,3900.21212082,342.060606026,4239.18181776,185.454545436,4412.27272683,3000.24242394,4191.27272685,3119.75757545,4344.27272684,2719.99999973,4997.48484799,2987.87878758,4185.09090867,107.151515141,4375.69696926,3342.30302997,4586.39393894,762.424242348,4789.36363588,1483.63636349,4454.51515107,3437.09090875,42.0,42.0,?
2017-07-31 18:04:55.146784,4510.1515147,3746.18181781,4215.99999958,12.3636363624,3824.99999962,259.63636361,3898.66666628,342.060606026,4233.51515109,185.454545436,4409.18181774,3000.24242394,4191.27272685,3119.75757545,4348.90909047,2719.99999973,5006.24242374,2987.87878758,4186.63636322,107.151515141,4380.84848441,3342.30302997,4589.48484803,762.424242348,4791.42424195,1483.63636349,4462.75757531,3437.09090875,42.0,42.0,?
2017-07-31 18:04:55.154278,4514.78787834,3746.18181781,4217.03030261,12.3636363624,3836.84848446,259.63636361,3894.03030264,342.060606026,4225.27272685,185.454545436,4401.45454501,3000.24242394,4192.8181814,3119.75757545,4351.48484805,2719.99999973,5014.48484798,2987.87878758,4190.75757534,107.151515141,4384.96969653,3342.30302997,4588.96969651,762.424242348,4797.09090861,1483.63636349,4472.03030258,3437.09090875,42.0,42.0,?
2017-07-31 18:04:55.161127,4514.27272682,3746.18181781,4220.63636321,12.3636363624,3837.87878749,259.63636361,3873.42424204,342.060606026,4225.27272685,185.454545436,4393.72727229,3000.24242394,4179.93939352,3119.75757545,4337.57575714,2719.99999973,5008.81818132,2987.87878758,4189.72727231,107.151515141,4383.42424199,3342.30302997,4585.87878742,762.424242348,4796.06060558,1483.63636349,4468.93939349,3437.09090875,42.0,42.0,?
2017-07-31 18:04:55.168655,4512.72727228,3746.18181781,4218.57575715,12.3636363624,3836.33333295,259.63636361,3877.03030264,342.060606026,4223.21212079,185.454545436,4391.15151471,3000.24242394,4173.24242383,3119.75757545,4331.39393896,2719.99999973,5005.72727223,2987.87878758,4188.18181776,107.151515141,4385.48484805,3342.30302997,4588.454545,762.424242348,4797.60606013,1483.63636349,4468.93939349,3437.09090875,42.0,42.0,?
2017-07-31 18:04:55.177317,4522.51515106,3746.18181781,4215.99999958,12.3636363624,3843.03030265,259.63636361,3903.30302991,342.060606026,4223.7272723,185.454545436,4396.30302986,3000.24242394,4185.60606019,3119.75757545,4344.27272684,2719.99999973,5011.90909041,2987.87878758,4192.30302988,107.151515141,4390.6363632,3342.30302997,4589.48484803,762.424242348,4802.75757528,1483.63636349,4475.12121167,3437.09090875,42.0,42.0,?
2017-07-31 18:04:55.186661,4528.18181773,3746.18181781,4219.09090867,12.3636363624,3850.75757537,259.63636361,3904.33333294,342.060606026,4231.45454503,185.454545436,4405.06060562,3000.24242394,4190.75757534,3119.75757545,4351.99999956,2719.99999973,5013.45454495,2987.87878758,4192.8181814,107.151515141,4392.18181774,3342.30302997,4585.87878742,762.424242348,4803.78787831,1483.63636349,4474.60606016,3437.09090875,42.0,42.0,?
2017-07-31 18:04:55.193335,4514.27272682,3746.18181781,4221.66666624,12.3636363624,3849.21212083,259.63636361,3887.84848446,342.060606026,4235.06060564,185.454545436,4402.48484804,3000.24242394,4183.03030261,3119.75757545,4344.78787835,2719.99999973,5011.90909041,2987.87878758,4182.5151511,107.151515141,4386.51515108,3342.30302997,4584.33333287,762.424242348,4798.12121164,1483.63636349,4465.8484844,3437.09090875,42.0,42.0,?
2017-07-31 18:04:55.200673,4506.54545409,3746.18181781,4218.57575715,12.3636363624,3847.66666628,259.63636361,3882.18181779,342.060606026,4230.424242,185.454545436,4398.36363592,3000.24242394,4178.39393898,3119.75757545,4338.60606017,2719.99999973,5018.6060601,2987.87878758,4178.90909049,107.151515141,4382.39393896,3342.30302997,4584.84848439,762.424242348,4794.51515104,1483.63636349,4464.81818137,3437.09090875,42.0,42.0,?
2017-07-31 18:04:55.208426,4515.81818137,3746.18181781,4218.57575715,12.3636363624,3849.72727234,259.63636361,3883.72727234,342.060606026,4229.90909049,185.454545436,4399.90909047,3000.24242394,4180.45454504,3119.75757545,4338.60606017,2719.99999973,5021.69696919,2987.87878758,4183.03030261,107.151515141,4388.06060562,3342.30302997,4586.39393894,762.424242348,4800.1818177,1483.63636349,4471.51515107,3437.09090875,42.0,42.0,?
2017-07-31 18:04:55.215748,4515.81818137,3746.18181781,4220.63636321,12.3636363624,3850.75757537,259.63636361,3882.18181779,342.060606026,4234.03030261,185.454545436,4396.81818138,3000.24242394,4177.36363595,3119.75757545,4337.57575714,2719.99999973,5012.93939344,2987.87878758,4177.36363595,107.151515141,4388.57575714,3342.30302997,4585.36363591,762.424242348,4800.1818177,1483.63636349,4467.39393895,3437.09090875,42.0,42.0,?
2017-07-31 18:04:55.225911,4508.60606016,3746.18181781,4221.15151473,12.3636363624,3848.69696931,259.63636361,3885.27272688,342.060606026,4235.06060564,185.454545436,4393.21212077,3000.24242394,4173.24242383,3119.75757545,4336.0303026,2719.99999973,5011.39393889,2987.87878758,4173.24242383,107.151515141,4381.87878744,3342.30302997,4585.87878742,762.424242348,4792.96969649,1483.63636349,4461.72727228,3437.09090875,42.0,42.0,?
2017-07-31 18:04:55.233258,4511.18181773,3746.18181781,4219.09090867,12.3636363624,3850.24242386,259.63636361,3886.30302991,342.060606026,4234.54545412,185.454545436,4397.33333289,3000.24242394,4176.33333292,3119.75757545,4337.57575714,2719.99999973,5020.66666616,2987.87878758,4179.42424201,107.151515141,4381.87878744,3342.30302997,4587.93939348,762.424242348,4792.96969649,1483.63636349,4465.33333289,3437.09090875,42.0,42.0,?
2017-07-31 18:04:55.240775,4513.75757531,3746.18181781,4218.06060564,12.3636363624,3850.24242386,259.63636361,3876.51515113,342.060606026,4231.45454503,185.454545436,4401.45454501,3000.24242394,4180.45454504,3119.75757545,4342.72727229,2719.99999973,5022.72727222,2987.87878758,4178.90909049,107.151515141,4386.51515108,3342.30302997,4583.30302984,762.424242348,4794.51515104,1483.63636349,4464.81818137,3437.09090875,42.0,42.0,?
2017-07-31 18:04:55.247470,4510.1515147,3746.18181781,4220.1212117,12.3636363624,3847.66666628,259.63636361,3869.81818143,342.060606026,4231.96969655,185.454545436,4397.84848441,3000.24242394,4179.93939352,3119.75757545,4342.21212078,2719.99999973,5018.09090859,2987.87878758,4170.15151473,107.151515141,4384.96969653,3342.30302997,4575.0606056,762.424242348,4792.96969649,1483.63636349,4461.72727228,3437.09090875,42.0,42.0,?
2017-07-31 18:04:55.256333,4510.1515147,3746.18181781,4220.63636321,12.3636363624,3848.69696931,259.63636361,3879.0909087,342.060606026,4242.78787836,185.454545436,4395.78787835,3000.24242394,4181.48484807,3119.75757545,4339.12121169,2719.99999973,5016.03030253,2987.87878758,4172.21212079,107.151515141,4385.99999956,3342.30302997,4570.93939348,762.424242348,4794.51515104,1483.63636349,4464.30302986,3437.09090875,42.0,42.0,?
2017-07-31 18:04:55.262671,4519.93939349,3746.18181781,4219.09090867,12.3636363624,3853.33333295,259.63636361,3890.93939355,342.060606026,4243.30302988,185.454545436,4398.36363592,3000.24242394,4186.63636322,3119.75757545,4341.18181775,2719.99999973,5013.96969647,2987.87878758,4177.36363595,107.151515141,4395.78787835,3342.30302997,4567.84848439,762.424242348,4800.69696922,1483.63636349,4469.45454501,3437.09090875,42.0,42.0,?
2017-07-31 18:04:55.270603,4523.54545409,3746.18181781,4220.63636321,12.3636363624,3854.36363598,259.63636361,3886.81818143,342.060606026,4234.54545412,185.454545436,4399.39393895,3000.24242394,4186.1212117,3119.75757545,4340.15151472,2719.99999973,5014.48484798,2987.87878758,4172.72727231,107.151515141,4395.78787835,3342.30302997,4561.66666621,762.424242348,4803.78787831,1483.63636349,4471.51515107,3437.09090875,42.0,42.0,?
2017-07-31 18:04:55.278667,4513.24242379,3746.18181781,4221.15151473,12.3636363624,3852.81818143,259.63636361,3877.03030264,342.060606026,4235.06060564,185.454545436,4398.36363592,3000.24242394,4179.93939352,3119.75757545,4336.0303026,2719.99999973,5011.90909041,2987.87878758,4161.90909049,107.151515141,4385.48484805,3342.30302997,4557.03030257,762.424242348,4796.06060558,1483.63636349,4470.99999955,3437.09090875,42.0,42.0,?
2017-07-31 18:04:55.288559,4506.54545409,3746.18181781,4218.57575715,12.3636363624,3848.69696931,259.63636361,3880.63636325,342.060606026,4218.57575715,185.454545436,4399.39393895,3000.24242394,4175.8181814,3119.75757545,4330.36363593,2719.99999973,5000.06060556,2987.87878758,4149.54545413,107.151515141,4379.81818138,3342.30302997,4553.93939348,762.424242348,4790.39393891,1483.63636349,4466.36363592,3437.09090875,42.0,42.0,?
2017-07-31 18:04:55.294016,4510.1515147,3746.18181781,4218.57575715,12.3636363624,3846.12121174,259.63636361,3885.7878784,342.060606026,4169.1212117,185.454545436,4399.90909047,3000.24242394,4176.33333292,3119.75757545,4325.21212078,2719.99999973,4994.90909041,2987.87878758,4148.5151511,107.151515141,4382.90909047,3342.30302997,4551.36363591,762.424242348,4797.09090861,1483.63636349,4464.81818137,3437.09090875,42.0,42.0,?
2017-07-31 18:04:55.301798,4513.75757531,3746.18181781,4220.1212117,12.3636363624,3852.81818143,259.63636361,3881.15151476,342.060606026,4140.27272686,185.454545436,4397.33333289,3000.24242394,4174.78787837,3119.75757545,4327.27272684,2719.99999973,5002.63636314,2987.87878758,4157.78787837,107.151515141,4390.12121168,3342.30302997,4549.81818136,762.424242348,4802.75757528,1483.63636349,4469.96969652,3437.09090875,42.0,42.0,?
2017-07-31 18:04:55.312117,4512.72727228,3746.18181781,4220.63636321,12.3636363624,3859.51515113,259.63636361,3877.54545416,342.060606026,4146.45454504,185.454545436,4392.69696926,3000.24242394,4172.21212079,3119.75757545,4330.36363593,2719.99999973,5005.21212071,2987.87878758,4159.84848443,107.151515141,4391.15151471,3342.30302997,4546.21212076,762.424242348,4803.78787831,1483.63636349,4473.06060561,3437.09090875,42.0,42.0,?
2017-07-31 18:04:55.317595,4512.72727228,3746.18181781,4218.57575715,12.3636363624,3854.87878749,259.63636361,3880.12121173,342.060606026,4144.90909049,185.454545436,4391.66666623,3000.24242394,4172.72727231,3119.75757545,4328.30302987,2719.99999973,5001.09090859,2987.87878758,4152.63636322,107.151515141,4385.99999956,3342.30302997,4543.12121167,762.424242348,4798.63636316,1483.63636349,4470.99999955,3437.09090875,42.0,42.0,?
2017-07-31 18:04:55.325636,4512.72727228,3746.18181781,4218.06060564,12.3636363624,3846.12121174,259.63636361,3874.45454507,342.060606026,4138.72727231,185.454545436,4390.6363632,3000.24242394,4169.63636322,3119.75757545,4323.15151472,2719.99999973,4997.9999995,2987.87878758,4151.09090868,107.151515141,4381.36363593,3342.30302997,4542.60606015,762.424242348,4792.45454498,1483.63636349,4462.75757531,3437.09090875,42.0,42.0,?
2017-07-31 18:04:55.334936,4506.54545409,3746.18181781,4219.09090867,12.3636363624,3842.51515113,259.63636361,3867.24242386,342.060606026,4141.8181814,185.454545436,4385.48484805,3000.24242394,4159.33333292,3119.75757545,4316.45454502,2719.99999973,4987.18181768,2987.87878758,4147.48484807,107.151515141,4374.15151471,3342.30302997,4541.57575712,762.424242348,4788.33333285,1483.63636349,4454.51515107,3437.09090875,42.0,42.0,?
2017-07-31 18:04:55.341963,4500.87878743,3746.18181781,4218.06060564,12.3636363624,3841.4848481,259.63636361,3879.60606022,342.060606026,4147.99999959,185.454545436,4383.9393935,3000.24242394,4155.72727231,3119.75757545,4311.30302987,2719.99999973,4977.3939389,2987.87878758,4134.60606019,107.151515141,4365.90909047,3342.30302997,4539.51515106,762.424242348,4783.1818177,1483.63636349,4452.96969652,3437.09090875,42.0,42.0,?
2017-07-31 18:04:55.349729,4504.99999955,3746.18181781,4218.57575715,12.3636363624,3843.03030265,259.63636361,3888.36363597,342.060606026,4151.09090868,185.454545436,4387.54545411,3000.24242394,4162.42424201,3119.75757545,4314.90909048,2719.99999973,4986.15151465,2987.87878758,4137.69696928,107.151515141,4372.09090865,3342.30302997,4542.09090864,762.424242348,4785.75757528,1483.63636349,4457.09090865,3437.09090875,42.0,42.0,?
2017-07-31 18:04:55.359312,4513.24242379,3746.18181781,4219.09090867,12.3636363624,3848.1818178,259.63636361,3868.7878784,342.060606026,4149.03030262,185.454545436,4388.57575714,3000.24242394,4167.06060564,3119.75757545,4323.66666623,2719.99999973,4999.54545405,2987.87878758,4155.2121208,107.151515141,4386.51515108,3342.30302997,4544.66666621,762.424242348,4796.06060558,1483.63636349,4462.75757531,3437.09090875,42.0,42.0,?
2017-07-31 18:04:55.366418,4516.33333288,3746.18181781,4219.09090867,12.3636363624,3846.63636325,259.63636361,3860.03030264,342.060606026,4145.42424201,185.454545436,4387.54545411,3000.24242394,4166.54545413,3119.75757545,4327.27272684,2719.99999973,4997.9999995,2987.87878758,4158.30302989,107.151515141,4394.2424238,3342.30302997,4542.60606015,762.424242348,4804.30302982,1483.63636349,4470.48484804,3437.09090875,42.0,42.0,?
2017-07-31 18:04:55.372622,4515.30302985,3746.18181781,4220.63636321,12.3636363624,3841.99999962,259.63636361,3885.27272688,342.060606026,4147.48484807,185.454545436,4390.12121168,3000.24242394,4170.15151473,3119.75757545,4327.27272684,2719.99999973,4992.84848435,2987.87878758,4151.09090868,107.151515141,4394.75757532,3342.30302997,4540.54545409,762.424242348,4808.42424194,1483.63636349,4471.51515107,3437.09090875,42.0,42.0,?
2017-07-31 18:04:55.380200,4513.24242379,3746.18181781,4221.15151473,12.3636363624,3842.51515113,259.63636361,3900.72727234,342.060606026,4155.2121208,185.454545436,4393.21212077,3000.24242394,4175.30302989,3119.75757545,4328.81818139,2719.99999973,4997.9999995,2987.87878758,4151.60606019,107.151515141,4392.18181774,3342.30302997,4541.06060561,762.424242348,4808.93939346,1483.63636349,4466.36363592,3437.09090875,42.0,42.0,?
2017-07-31 18:04:55.389650,4512.21212076,3746.18181781,4219.60606018,12.3636363624,3845.60606022,259.63636361,3887.84848446,342.060606026,4155.2121208,185.454545436,4389.09090865,3000.24242394,4176.84848443,3119.75757545,4330.36363593,2719.99999973,5001.60606011,2987.87878758,4150.57575716,107.151515141,4388.06060562,3342.30302997,4541.57575712,762.424242348,4803.27272679,1483.63636349,4465.33333289,3437.09090875,42.0,42.0,?
2017-07-31 18:04:55.397094,4508.60606016,3746.18181781,4218.06060564,12.3636363624,3844.06060568,259.63636361,3880.63636325,342.060606026,4149.03030262,185.454545436,4383.9393935,3000.24242394,4177.36363595,3119.75757545,4331.39393896,2719.99999973,4997.9999995,2987.87878758,4143.87878746,107.151515141,4382.39393896,3342.30302997,4540.03030258,762.424242348,4794.51515104,1483.63636349,4463.78787834,3437.09090875,42.0,42.0,?
2017-07-31 18:04:55.405287,4504.99999955,3746.18181781,4218.06060564,12.3636363624,3840.45454507,259.63636361,3884.75757537,342.060606026,4147.99999959,185.454545436,4384.45454502,3000.24242394,4178.39393898,3119.75757545,4331.39393896,2719.99999973,4994.39393889,2987.87878758,4138.72727231,107.151515141,4379.30302987,3342.30302997,4539.51515106,762.424242348,4793.99999952,1483.63636349,4462.75757531,3437.09090875,42.0,42.0,?
2017-07-31 18:04:55.412442,4503.454545,3746.18181781,4220.63636321,12.3636363624,3835.81818143,259.63636361,3884.24242385,342.060606026,4153.15151474,185.454545436,4388.06060562,3000.24242394,4176.33333292,3119.75757545,4328.30302987,2719.99999973,4992.84848435,2987.87878758,4136.15151474,107.151515141,4378.27272683,3342.30302997,4540.54545409,762.424242348,4796.5757571,1483.63636349,4461.72727228,3437.09090875,42.0,42.0,?
2017-07-31 18:04:55.419707,4502.42424197,3746.18181781,4221.15151473,12.3636363624,3832.21212083,259.63636361,3878.06060567,342.060606026,4156.75757534,185.454545436,4390.6363632,3000.24242394,4177.87878746,3119.75757545,4325.21212078,2719.99999973,4993.87878738,2987.87878758,4136.66666625,107.151515141,4374.66666623,3342.30302997,4537.454545,762.424242348,4791.93939346,1483.63636349,4459.66666622,3437.09090875,42.0,42.0,?
2017-07-31 18:04:55.427337,4503.96969652,3746.18181781,4218.06060564,12.3636363624,3835.30302992,259.63636361,3873.42424204,342.060606026,4155.72727231,185.454545436,4389.09090865,3000.24242394,4178.39393898,3119.75757545,4327.27272684,2719.99999973,4994.39393889,2987.87878758,4137.69696928,107.151515141,4374.15151471,3342.30302997,4537.454545,762.424242348,4790.39393891,1483.63636349,4463.78787834,3437.09090875,42.0,42.0,?
2017-07-31 18:04:55.436915,4509.63636319,3746.18181781,4217.54545412,12.3636363624,3839.93939356,259.63636361,3882.69696931,342.060606026,4153.15151474,185.454545436,4385.48484805,3000.24242394,4170.66666625,3119.75757545,4327.27272684,2719.99999973,4992.84848435,2987.87878758,4136.66666625,107.151515141,4378.78787835,3342.30302997,4541.06060561,762.424242348,4798.12121164,1483.63636349,4470.48484804,3437.09090875,42.0,42.0,?
2017-07-31 18:04:55.443455,4511.18181773,3746.18181781,4219.09090867,12.3636363624,3840.96969659,259.63636361,3891.45454507,342.060606026,4150.06060565,185.454545436,4385.99999956,3000.24242394,4164.48484807,3119.75757545,4322.6363632,2719.99999973,4991.81818132,2987.87878758,4134.09090868,107.151515141,4381.36363593,3342.30302997,4540.54545409,762.424242348,4799.15151467,1483.63636349,4469.96969652,3437.09090875,42.0,42.0,?
2017-07-31 18:04:55.452762,4508.60606016,3746.18181781,4218.06060564,12.3636363624,3843.03030265,259.63636361,3875.99999961,342.060606026,4150.06060565,185.454545436,4388.06060562,3000.24242394,4167.57575716,3119.75757545,4324.69696926,2719.99999973,4989.24242374,2987.87878758,4134.09090868,107.151515141,4383.42424199,3342.30302997,4540.03030258,762.424242348,4797.60606013,1483.63636349,4469.45454501,3437.09090875,42.0,42.0,?
2017-07-31 18:04:55.459354,4514.78787834,3746.18181781,4216.51515109,12.3636363624,3847.15151477,259.63636361,3869.30302992,342.060606026,4153.66666625,185.454545436,4385.99999956,3000.24242394,4176.33333292,3119.75757545,4331.90909048,2719.99999973,4991.81818132,2987.87878758,4138.72727231,107.151515141,4388.57575714,3342.30302997,4542.09090864,762.424242348,4802.24242376,1483.63636349,4478.21212076,3437.09090875,42.0,42.0,?
2017-07-31 18:04:55.469599,4522.51515106,3746.18181781,4218.57575715,12.3636363624,3851.27272689,259.63636361,3894.03030264,342.060606026,4156.75757534,185.454545436,4385.99999956,3000.24242394,4183.03030261,3119.75757545,4334.48484805,2719.99999973,4996.96969647,2987.87878758,4137.18181777,107.151515141,4392.18181774,3342.30302997,4542.60606015,762.424242348,4806.8787874,1483.63636349,4485.93939349,3437.09090875,42.0,42.0,?
2017-07-31 18:04:55.474171,4519.42424197,3746.18181781,4221.15151473,12.3636363624,3851.7878784,259.63636361,3908.45454506,342.060606026,4162.42424201,185.454545436,4388.57575714,3000.24242394,4182.5151511,3119.75757545,4331.39393896,2719.99999973,4994.39393889,2987.87878758,4127.9090905,107.151515141,4392.18181774,3342.30302997,4540.54545409,762.424242348,4803.27272679,1483.63636349,4479.24242379,3437.09090875,42.0,42.0,?
2017-07-31 18:04:55.483010,4512.21212076,3746.18181781,4220.63636321,12.3636363624,3846.12121174,259.63636361,3901.75757537,342.060606026,4163.45454504,185.454545436,4388.57575714,3000.24242394,4178.90909049,3119.75757545,4326.75757532,2719.99999973,4987.18181768,2987.87878758,4122.75757535,107.151515141,4385.99999956,3342.30302997,4539.51515106,762.424242348,4800.1818177,1483.63636349,4468.93939349,3437.09090875,42.0,42.0,?
2017-07-31 18:04:55.489629,4506.54545409,3746.18181781,4219.60606018,12.3636363624,3839.42424204,259.63636361,3900.72727234,342.060606026,4158.8181814,185.454545436,4390.12121168,3000.24242394,4175.8181814,3119.75757545,4319.54545411,2719.99999973,4979.45454496,2987.87878758,4115.54545413,107.151515141,4377.2424238,3342.30302997,4542.09090864,762.424242348,4797.60606013,1483.63636349,4464.30302986,3437.09090875,42.0,42.0,?
2017-07-31 18:04:55.498160,4497.78787834,3746.18181781,4218.06060564,12.3636363624,3839.93939356,259.63636361,3899.69696931,342.060606026,4161.90909049,185.454545436,4393.72727229,3000.24242394,4171.18181776,3119.75757545,4311.81818139,2719.99999973,4970.6969692,2987.87878758,4105.24242383,107.151515141,4370.54545411,3342.30302997,4543.63636318,762.424242348,4789.8787874,1483.63636349,4460.69696925,3437.09090875,42.0,42.0,?
2017-07-31 18:04:55.507571,4494.18181773,3746.18181781,4219.09090867,12.3636363624,3844.06060568,259.63636361,3897.63636325,342.060606026,4169.63636322,185.454545436,4393.72727229,3000.24242394,4169.63636322,3119.75757545,4311.30302987,2719.99999973,4971.72727223,2987.87878758,4107.81818141,107.151515141,4368.99999956,3342.30302997,4545.18181773,762.424242348,4787.30302982,1483.63636349,4460.69696925,3437.09090875,42.0,42.0,?
2017-07-31 18:04:55.513178,4505.51515106,3754.42424205,4221.66666624,12.3636363624,3849.21212083,259.63636361,3899.69696931,342.060606026,4172.21212079,185.454545436,4394.75757532,3000.24242394,4175.30302989,3119.75757545,4316.45454502,2719.99999973,4983.06060556,2987.87878758,4120.18181777,107.151515141,4374.66666623,3342.30302997,4546.72727227,762.424242348,4793.48484801,1483.63636349,4466.87878743,3437.09090875,42.0,42.0,?
2017-07-31 18:04:55.520635,4512.21212076,3754.42424205,4222.18181776,4.1212121208,3851.7878784,259.63636361,3896.60606022,342.060606026,4170.15151473,185.454545436,4393.72727229,3000.24242394,4177.36363595,3119.75757545,4316.96969654,2719.99999973,4985.63636314,2987.87878758,4121.72727232,107.151515141,4380.3333329,3342.30302997,4549.30302985,762.424242348,4798.12121164,1483.63636349,4471.51515107,3437.09090875,42.0,42.0,?
2017-07-31 18:04:55.530446,4504.99999955,3754.42424205,4220.1212117,4.1212121208,3849.21212083,259.63636361,3895.57575719,342.060606026,4170.15151473,185.454545436,4388.06060562,3000.24242394,4168.60606019,3119.75757545,4310.27272684,2719.99999973,4977.90909041,2987.87878758,4115.54545413,107.151515141,4380.84848441,3342.30302997,4552.39393894,762.424242348,4798.63636316,1483.63636349,4470.48484804,3437.09090875,42.0,42.0,?
2017-07-31 18:04:55.536994,4498.81818137,3754.42424205,4217.54545412,4.1212121208,3845.09090871,251.393939369,3900.21212082,342.060606026,4174.78787837,185.454545436,4385.48484805,3000.24242394,4165.5151511,3119.75757545,4312.3333329,2719.99999973,4975.33333284,2987.87878758,4111.42424201,107.151515141,4378.27272683,3342.30302997,4551.36363591,762.424242348,4795.03030255,1483.63636349,4466.36363592,3437.09090875,42.0,42.0,?
2017-07-31 18:04:55.544590,4496.75757531,3754.42424205,4218.06060564,4.1212121208,3841.4848481,251.393939369,3903.30302991,342.060606026,4172.72727231,185.454545436,4388.57575714,3000.24242394,4173.24242383,3119.75757545,4323.66666623,2719.99999973,4986.15151465,2987.87878758,4112.45454504,107.151515141,4375.18181774,3342.30302997,4547.24242379,762.424242348,4792.45454498,1483.63636349,4461.72727228,3437.09090875,42.0,42.0,?
2017-07-31 18:04:55.552448,4495.21212076,3754.42424205,4219.60606018,4.1212121208,3837.36363598,251.393939369,3904.84848446,342.060606026,4164.48484807,193.696969678,4388.57575714,3000.24242394,4184.06060564,3119.75757545,4329.3333329,2719.99999973,4997.9999995,2987.87878758,4114.5151511,107.151515141,4371.06060562,3342.30302997,4548.78787833,762.424242348,4791.42424195,1483.63636349,4457.60606016,3437.09090875,42.0,42.0,?
2017-07-31 18:04:55.560272,4494.69696925,3754.42424205,4219.09090867,4.1212121208,3838.39393901,251.393939369,3887.84848446,342.060606026,4158.8181814,193.696969678,4387.03030259,3000.24242394,4191.27272685,3119.75757545,4330.87878745,2719.99999973,4997.9999995,2987.87878758,4114.5151511,107.151515141,4374.15151471,3342.30302997,4551.36363591,762.424242348,4792.45454498,1483.63636349,4458.63636319,3437.09090875,42.0,42.0,?
2017-07-31 18:04:55.571253,4495.21212076,3754.42424205,4220.1212117,4.1212121208,3843.54545416,251.393939369,3874.45454507,342.060606026,4160.87878746,193.696969678,4386.51515108,3000.24242394,4191.78787837,3127.99999969,4331.39393896,2719.99999973,4994.39393889,2987.87878758,4111.93939353,107.151515141,4378.27272683,3342.30302997,4551.87878742,762.424242348,4797.09090861,1483.63636349,4463.27272683,3437.09090875,42.0,42.0,?
2017-07-31 18:04:55.577439,4494.69696925,3754.42424205,4220.1212117,4.1212121208,3841.99999962,251.393939369,3898.15151476,342.060606026,4165.5151511,193.696969678,4384.96969653,3000.24242394,4184.57575716,3127.99999969,4326.24242381,2719.99999973,4991.3030298,2987.87878758,4105.75757535,107.151515141,4373.12121168,3342.30302997,4551.87878742,762.424242348,4795.54545407,1483.63636349,4462.2424238,3437.09090875,42.0,42.0,?
2017-07-31 18:04:55.585610,4490.57575713,3754.42424205,4220.1212117,4.1212121208,3836.84848446,251.393939369,3917.72727234,342.060606026,4170.66666625,193.696969678,4391.15151471,3000.24242394,4174.27272686,3127.99999969,4314.39393896,2719.99999973,4985.63636314,2983.75757546,4097.51515111,107.151515141,4365.90909047,3342.30302997,4552.90909045,762.424242348,4787.30302982,1483.63636349,4454.51515107,3437.09090875,42.0,42.0,?
2017-07-31 18:04:55.592309,4484.39393895,3754.42424205,4220.1212117,4.1212121208,3832.21212083,251.393939369,3902.7878784,342.060606026,4174.27272686,193.696969678,4398.87878744,3000.24242394,4169.63636322,3127.99999969,4311.81818139,2719.99999973,4982.54545405,2983.75757546,4092.87878747,111.272727262,4363.84848441,3342.30302997,4554.454545,762.424242348,4785.75757528,1483.63636349,4448.8484844,3437.09090875,42.0,42.0,?
2017-07-31 18:04:55.598626,4484.90909046,3754.42424205,4215.99999958,4.1212121208,3828.60606022,251.393939369,3900.21212082,342.060606026,4172.72727231,193.696969678,4398.87878744,3000.24242394,4172.21212079,3127.99999969,4319.0303026,2719.99999973,4984.09090859,2983.75757546,4094.42424201,111.272727262,4362.81818138,3342.30302997,4558.57575712,762.424242348,4785.24242376,1483.63636349,4447.81818137,3437.09090875,42.0,42.0,?
2017-07-31 18:04:55.609083,4490.57575713,3754.42424205,4217.54545412,4.1212121208,3831.1818178,251.393939369,3908.96969658,342.060606026,4176.84848443,193.696969678,4395.78787835,3000.24242394,4173.75757534,3127.99999969,4318.51515108,2719.99999973,4987.6969692,2983.75757546,4099.06060565,111.272727262,4365.39393896,3342.30302997,4560.63636318,762.424242348,4786.27272679,1483.63636349,4448.8484844,3437.09090875,42.0,42.0,?
2017-07-31 18:04:55.615394,4496.24242379,3754.42424205,4221.66666624,4.1212121208,3843.03030265,251.393939369,3900.21212082,342.060606026,4184.06060564,193.696969678,4397.33333289,3000.24242394,4176.33333292,3127.99999969,4316.45454502,2719.99999973,4996.45454495,2983.75757546,4106.27272686,111.272727262,4374.66666623,3342.30302997,4559.60606015,762.424242348,4793.48484801,1516.60606045,4454.51515107,3437.09090875,42.0,42.0,?
2017-07-31 18:04:55.624175,4499.8484844,3754.42424205,4220.1212117,4.1212121208,3851.27272689,251.393939369,3899.69696931,342.060606026,4181.99999958,193.696969678,4401.45454501,3000.24242394,4181.48484807,3127.99999969,4323.66666623,2719.99999973,4999.54545405,2983.75757546,4108.33333292,98.9090908992,4380.84848441,3342.30302997,4563.21212076,762.424242348,4797.60606013,1516.60606045,4457.60606016,3437.09090875,42.0,42.0,?
2017-07-31 18:04:55.631593,4494.69696925,3754.42424205,4218.06060564,4.1212121208,3845.09090871,251.393939369,3911.03030264,342.060606026,4183.03030261,193.696969678,4403.51515107,3000.24242394,4184.57575716,3127.99999969,4328.30302987,2719.99999973,4993.87878738,2983.75757546,4100.6060602,98.9090908992,4376.21212077,3329.93939361,4567.84848439,762.424242348,4792.45454498,1516.60606045,4452.96969652,3437.09090875,42.0,42.0,?
2017-07-31 18:04:55.638328,4485.93939349,3754.42424205,4219.09090867,4.1212121208,3836.84848446,251.393939369,3913.60606021,342.060606026,4190.75757534,193.696969678,4401.96969653,3000.24242394,4187.15151473,3127.99999969,4326.75757532,2719.99999973,4992.84848435,2983.75757546,4094.42424201,98.9090908992,4368.99999956,3329.93939361,4568.87878742,762.424242348,4786.27272679,1516.60606045,4448.33333289,3437.09090875,42.0,42.0,?
2017-07-31 18:04:55.648452,4489.5454541,3754.42424205,4220.1212117,4.1212121208,3835.30302992,251.393939369,3911.03030264,342.060606026,4187.66666625,193.696969678,4398.36363592,3000.24242394,4187.66666625,3127.99999969,4326.75757532,2719.99999973,4993.87878738,2983.75757546,4092.87878747,98.9090908992,4366.9393935,3329.93939361,4573.51515106,762.424242348,4788.33333285,1516.60606045,4446.78787834,3437.09090875,42.0,42.0,?
2017-07-31 18:04:55.653737,4496.75757531,3754.42424205,4219.09090867,4.1212121208,3840.45454507,251.393939369,3907.42424203,342.060606026,4181.99999958,193.696969678,4398.36363592,3000.24242394,4186.63636322,3127.99999969,4328.30302987,2719.99999973,4997.48484799,2983.75757546,4098.03030262,98.9090908992,4373.12121168,3329.93939361,4581.7575753,762.424242348,4794.51515104,1516.60606045,4450.90909046,3437.09090875,42.0,42.0,?
2017-07-31 18:04:55.661880,4498.81818137,3754.42424205,4217.03030261,4.1212121208,3850.75757537,251.393939369,3909.48484809,342.060606026,4188.18181776,193.696969678,4400.9393935,3000.24242394,4188.69696928,3127.99999969,4328.30302987,2719.99999973,5000.06060556,2983.75757546,4111.42424201,98.9090908992,4384.96969653,3329.93939361,4581.7575753,762.424242348,4801.72727225,1516.60606045,4460.18181774,3437.09090875,42.0,42.0,?
2017-07-31 18:04:55.670869,4497.27272682,3754.42424205,4218.57575715,4.1212121208,3852.30302992,251.393939369,3913.60606021,342.060606026,4183.03030261,193.696969678,4399.39393895,3000.24242394,4188.18181776,3127.99999969,4326.75757532,2719.99999973,4992.84848435,2983.75757546,4116.06060565,98.9090908992,4388.06060562,3329.93939361,4577.63636318,762.424242348,4805.33333285,1516.60606045,4458.12121168,3437.09090875,42.0,42.0,?
2017-07-31 18:04:55.678657,4492.12121167,3754.42424205,4218.57575715,4.1212121208,3845.09090871,251.393939369,3899.18181779,342.060606026,4174.78787837,193.696969678,4394.75757532,3000.24242394,4178.39393898,3127.99999969,4320.06060563,2719.99999973,4988.21212071,2983.75757546,4104.2121208,98.9090908992,4372.60606017,3329.93939361,4575.57575712,762.424242348,4791.42424195,1516.60606045,4446.27272683,3437.09090875,42.0,42.0,?
2017-07-31 18:04:55.684797,4487.48484804,3754.42424205,4216.51515109,4.1212121208,3843.54545416,251.393939369,3891.45454507,342.060606026,4174.78787837,193.696969678,4390.12121168,3000.24242394,4168.60606019,3127.99999969,4311.30302987,2719.99999973,4992.84848435,2983.75757546,4093.9090905,98.9090908992,4360.24242381,3329.93939361,4578.15151469,762.424242348,4778.03030255,1516.60606045,4443.69696925,3437.09090875,42.0,42.0,?
2017-07-31 18:04:55.695562,4491.60606016,3754.42424205,4218.57575715,4.1212121208,3845.60606022,251.393939369,3910.51515112,342.060606026,4183.03030261,193.696969678,4392.69696926,3000.24242394,4167.57575716,3127.99999969,4309.75757533,2719.99999973,4993.87878738,2983.75757546,4094.93939353,98.9090908992,4364.36363593,3329.93939361,4578.66666621,762.424242348,4781.12121164,1516.60606045,4447.30302986,3437.09090875,42.0,42.0,?
2017-07-31 18:04:55.701817,4496.24242379,3754.42424205,4219.09090867,4.1212121208,3845.60606022,251.393939369,3916.18181779,342.060606026,4178.90909049,193.696969678,4396.81818138,3000.24242394,4167.57575716,3127.99999969,4310.78787836,2719.99999973,4990.78787829,2983.75757546,4095.45454505,98.9090908992,4371.06060562,3329.93939361,4573.51515106,762.424242348,4786.27272679,1516.60606045,4449.87878743,3437.09090875,42.0,42.0,?
2017-07-31 18:04:55.711349,4495.21212076,3754.42424205,4217.03030261,4.1212121208,3846.63636325,251.393939369,3903.81818143,342.060606026,4175.8181814,193.696969678,4394.2424238,3000.24242394,4170.66666625,3127.99999969,4309.75757533,2719.99999973,4993.36363586,2983.75757546,4088.75757535,98.9090908992,4371.06060562,3329.93939361,4571.454545,762.424242348,4789.36363588,1516.60606045,4449.87878743,3437.09090875,42.0,42.0,?
2017-07-31 18:04:55.718998,4496.75757531,3754.42424205,4219.09090867,4.1212121208,3842.51515113,251.393939369,3903.81818143,342.060606026,4180.96969655,193.696969678,4391.66666623,3000.24242394,4176.84848443,3127.99999969,4311.81818139,2719.99999973,4994.90909041,2983.75757546,4085.15151474,98.9090908992,4370.54545411,3329.93939361,4570.93939348,762.424242348,4792.45454498,1516.60606045,4444.72727228,3437.09090875,42.0,42.0,?
2017-07-31 18:04:55.725599,4495.72727228,3754.42424205,4218.57575715,4.1212121208,3833.75757537,251.393939369,3901.24242385,342.060606026,4185.09090867,193.696969678,4394.2424238,3000.24242394,4180.96969655,3127.99999969,4315.42424199,2719.99999973,4988.72727223,2983.75757546,4083.6060602,98.9090908992,4372.60606017,3329.93939361,4571.454545,762.424242348,4794.51515104,1516.60606045,4439.06060562,3437.09090875,42.0,42.0,?
2017-07-31 18:04:55.733375,4494.69696925,3754.42424205,4216.51515109,4.1212121208,3835.81818143,251.393939369,3895.06060567,342.060606026,4183.54545413,193.696969678,4397.33333289,3000.24242394,4183.54545413,3127.99999969,4318.51515108,2719.99999973,4987.6969692,2983.75757546,4081.54545414,98.9090908992,4375.18181774,3329.93939361,4572.48484803,762.424242348,4797.60606013,1516.60606045,4443.18181774,3437.09090875,42.0,42.0,?
2017-07-31 18:04:55.745120,4506.03030258,3754.42424205,4215.99999958,4.1212121208,3845.60606022,251.393939369,3905.87878749,342.060606026,4180.45454504,193.696969678,4396.30302986,3000.24242394,4188.18181776,3127.99999969,4326.24242381,2719.99999973,5002.63636314,2983.75757546,4086.69696929,98.9090908992,4380.3333329,3329.93939361,4567.84848439,762.424242348,4804.30302982,1516.60606045,4449.87878743,3437.09090875,42.0,42.0,?
2017-07-31 18:04:55.749838,4512.72727228,3754.42424205,4218.57575715,4.1212121208,3845.60606022,251.393939369,3907.42424203,342.060606026,4183.54545413,193.696969678,4393.72727229,3000.24242394,4184.06060564,3127.99999969,4326.75757532,2719.99999973,5006.24242374,2983.75757546,4091.33333292,98.9090908992,4385.99999956,3329.93939361,4561.66666621,762.424242348,4808.93939346,1516.60606045,4449.87878743,3437.09090875,42.0,42.0,?
2017-07-31 18:04:55.762029,4501.39393894,3754.42424205,4219.09090867,4.1212121208,3839.42424204,251.393939369,3895.06060567,342.060606026,4187.15151473,193.696969678,4393.21212077,3000.24242394,4169.1212117,3127.99999969,4313.36363593,2719.99999973,4985.12121162,2983.75757546,4086.69696929,98.9090908992,4383.42424199,3329.93939361,4563.21212076,762.424242348,4805.33333285,1516.60606045,4444.72727228,3437.09090875,42.0,42.0,?
2017-07-31 18:04:55.770631,4492.63636319,3754.42424205,4218.57575715,4.1212121208,3838.39393901,251.393939369,3898.66666628,342.060606026,4181.99999958,193.696969678,4395.27272683,3000.24242394,4164.99999958,3127.99999969,4307.69696927,2719.99999973,4980.9999995,2983.75757546,4086.69696929,98.9090908992,4380.3333329,3329.93939361,4564.7575753,762.424242348,4801.72727225,1516.60606045,4438.03030259,3437.09090875,42.0,42.0,?
2017-07-31 18:04:55.775188,4498.30302985,3754.42424205,4220.63636321,4.1212121208,3837.87878749,251.393939369,3902.27272688,342.060606026,4179.42424201,193.696969678,4395.78787835,3000.24242394,4172.21212079,3127.99999969,4312.3333329,2719.99999973,4995.42424192,2983.75757546,4095.45454505,98.9090908992,4379.81818138,3329.93939361,4560.63636318,762.424242348,4797.60606013,1516.60606045,4435.45454501,3437.09090875,42.0,42.0,?
2017-07-31 18:04:55.780286,4498.30302985,3754.42424205,4219.60606018,4.1212121208,3834.27272689,251.393939369,3899.18181779,342.060606026,4185.60606019,193.696969678,4395.78787835,3000.24242394,4174.27272686,3127.99999969,4313.87878745,2719.99999973,4995.93939344,2983.75757546,4105.75757535,98.9090908992,4374.66666623,3329.93939361,4559.60606015,762.424242348,4790.39393891,1516.60606045,4434.42424198,3437.09090875,42.0,42.0,?
2017-07-31 18:04:55.788105,4492.12121167,3754.42424205,4218.06060564,4.1212121208,3833.75757537,251.393939369,3897.63636325,342.060606026,4184.57575716,193.696969678,4396.30302986,3000.24242394,4170.15151473,3127.99999969,4311.81818139,2719.99999973,4991.81818132,2983.75757546,4123.27272686,98.9090908992,4372.60606017,3329.93939361,4562.18181773,762.424242348,4790.39393891,1516.60606045,4433.90909047,3437.09090875,42.0,42.0,?
2017-07-31 18:04:55.797590,4511.69696925,3754.42424205,4220.1212117,4.1212121208,3836.33333295,251.393939369,3879.0909087,342.060606026,4181.48484807,193.696969678,4389.60606017,3000.24242394,4166.03030261,3127.99999969,4306.15151472,2719.99999973,4983.57575708,2983.75757546,4164.48484807,98.9090908992,4381.87878744,3329.93939361,4564.7575753,762.424242348,4799.66666619,1516.60606045,4450.90909046,3437.09090875,42.0,42.0,?
2017-07-31 18:04:55.803694,4511.69696925,3754.42424205,4220.1212117,4.1212121208,3836.33333295,251.393939369,3879.0909087,342.060606026,4181.48484807,193.696969678,4389.60606017,3000.24242394,4166.03030261,3127.99999969,4306.15151472,2719.99999973,4983.57575708,2983.75757546,4164.48484807,98.9090908992,4381.87878744,3329.93939361,4564.7575753,762.424242348,4799.66666619,1516.60606045,4450.90909046,3437.09090875,42.0,42.0,?
2017-07-31 18:04:55.815620,4512.21212076,3754.42424205,4221.15151473,4.1212121208,3836.84848446,251.393939369,3886.30302991,342.060606026,4186.1212117,193.696969678,4393.72727229,3000.24242394,4169.63636322,3127.99999969,4308.7272723,2719.99999973,4982.03030253,2983.75757546,4180.45454504,98.9090908992,4383.42424199,3329.93939361,4562.69696924,762.424242348,4805.84848437,1516.60606045,4451.93939349,3437.09090875,42.0,42.0,?
2017-07-31 18:04:55.818900,4499.8484844,3754.42424205,4219.60606018,4.1212121208,3832.72727234,251.393939369,3893.51515113,342.060606026,4177.36363595,193.696969678,4389.60606017,3000.24242394,4175.8181814,3127.99999969,4309.75757533,2719.99999973,4986.66666617,2983.75757546,4187.66666625,98.9090908992,4376.21212077,3329.93939361,4559.60606015,762.424242348,4801.21212073,1516.60606045,4442.66666622,3437.09090875,42.0,42.0,?
2017-07-31 18:04:55.828658,4493.1515147,3754.42424205,4217.03030261,4.1212121208,3828.60606022,251.393939369,3892.99999961,342.060606026,4173.24242383,193.696969678,4380.84848441,3000.24242394,4171.69696928,3127.99999969,4308.21212078,2719.99999973,4984.09090859,2983.75757546,4187.66666625,98.9090908992,4371.06060562,3329.93939361,4562.69696924,762.424242348,4790.90909043,1516.60606045,4440.09090865,3437.09090875,42.0,42.0,?
2017-07-31 18:04:55.836019,4499.33333288,3754.42424205,4219.60606018,4.1212121208,3837.36363598,251.393939369,3897.12121173,342.060606026,4178.39393898,193.696969678,4382.90909047,3000.24242394,4166.03030261,3127.99999969,4309.24242381,2719.99999973,4975.84848435,2983.75757546,4192.8181814,98.9090908992,4376.72727229,3329.93939361,4561.66666621,762.424242348,4790.90909043,1516.60606045,4443.69696925,3437.09090875,42.0,42.0,?
2017-07-31 18:04:55.844644,4510.1515147,3754.42424205,4221.66666624,4.1212121208,3847.66666628,251.393939369,3902.27272688,342.060606026,4185.09090867,193.696969678,4389.60606017,3000.24242394,4171.18181776,3127.99999969,4307.69696927,2719.99999973,4973.78787829,2983.75757546,4198.48484806,98.9090908992,4382.90909047,3329.93939361,4557.54545409,762.424242348,4798.63636316,1516.60606045,4443.18181774,3437.09090875,42.0,42.0,?
2017-07-31 18:04:55.849634,4509.63636319,3754.42424205,4220.63636321,4.1212121208,3841.4848481,251.393939369,3895.57575719,342.060606026,4189.72727231,193.696969678,4388.57575714,3000.24242394,4171.69696928,3127.99999969,4303.57575715,2719.99999973,4974.30302981,2983.75757546,4195.39393897,98.9090908992,4379.81818138,3329.93939361,4559.09090864,762.424242348,4802.24242376,1516.60606045,4435.96969653,3437.09090875,42.0,42.0,?
2017-07-31 18:04:55.859208,4497.78787834,3754.42424205,4218.57575715,4.1212121208,3829.63636325,251.393939369,3887.84848446,342.060606026,4189.72727231,193.696969678,4389.60606017,3000.24242394,4166.03030261,3127.99999969,4306.15151472,2719.99999973,4975.84848435,2983.75757546,4189.72727231,98.9090908992,4375.18181774,3329.93939361,4561.1515147,762.424242348,4797.09090861,1516.60606045,4427.72727228,3437.09090875,42.0,42.0,?
2017-07-31 18:04:55.864772,4492.12121167,3754.42424205,4219.09090867,4.1212121208,3830.15151477,251.393939369,3889.393939,342.060606026,4183.03030261,193.696969678,4394.75757532,3000.24242394,4171.18181776,3127.99999969,4312.84848442,2719.99999973,4981.51515102,2983.75757546,4188.18181776,98.9090908992,4376.72727229,3329.93939361,4560.63636318,762.424242348,4795.03030255,1516.60606045,4425.15151471,3437.09090875,42.0,42.0,?
2017-07-31 18:04:55.872855,4493.66666622,3754.42424205,4219.09090867,4.1212121208,3837.36363598,251.393939369,3892.99999961,342.060606026,4180.96969655,193.696969678,4394.2424238,3000.24242394,4180.96969655,3127.99999969,4316.96969654,2719.99999973,4986.15151465,2983.75757546,4189.72727231,98.9090908992,4377.2424238,3329.93939361,4562.18181773,762.424242348,4795.03030255,1516.60606045,4428.2424238,3437.09090875,42.0,42.0,?
2017-07-31 18:04:55.882366,4498.30302985,3754.42424205,4219.60606018,4.1212121208,3843.03030265,251.393939369,3894.03030264,342.060606026,4184.57575716,193.696969678,4387.54545411,3000.24242394,4178.39393898,3127.99999969,4316.45454502,2719.99999973,4987.6969692,2983.75757546,4192.30302988,98.9090908992,4377.75757532,3329.93939361,4561.66666621,762.424242348,4794.51515104,1516.60606045,4433.39393895,3437.09090875,42.0,42.0,?
2017-07-31 18:04:55.888938,4506.03030258,3754.42424205,4220.1212117,4.1212121208,3846.63636325,251.393939369,3896.0909087,342.060606026,4184.06060564,193.696969678,4384.45454502,3000.24242394,4169.63636322,3127.99999969,4312.3333329,2719.99999973,4987.18181768,2983.75757546,4194.36363594,98.9090908992,4381.87878744,3329.93939361,4561.1515147,762.424242348,4800.1818177,1516.60606045,4439.57575713,3437.09090875,42.0,42.0,?
2017-07-31 18:04:55.896704,4512.72727228,3754.42424205,4218.57575715,4.1212121208,3850.75757537,251.393939369,3899.18181779,342.060606026,4186.1212117,193.696969678,4391.15151471,3000.24242394,4171.18181776,3127.99999969,4312.3333329,2719.99999973,4989.24242374,2983.75757546,4197.45454503,98.9090908992,4385.99999956,3329.93939361,4565.27272682,762.424242348,4805.33333285,1516.60606045,4445.75757531,3437.09090875,42.0,42.0,?
2017-07-31 18:04:55.904390,4511.69696925,3754.42424205,4218.06060564,4.1212121208,3853.84848446,251.393939369,3891.45454507,342.060606026,4190.75757534,193.696969678,4394.2424238,3000.24242394,4179.93939352,3127.99999969,4315.42424199,2719.99999973,4987.18181768,2983.75757546,4198.48484806,98.9090908992,4387.03030259,3329.93939361,4565.78787833,762.424242348,4806.36363588,1516.60606045,4447.81818137,3437.09090875,42.0,42.0,?
2017-07-31 18:04:55.911661,4508.60606016,3754.42424205,4218.57575715,4.1212121208,3850.75757537,251.393939369,3879.60606022,342.060606026,4190.75757534,193.696969678,4388.57575714,3000.24242394,4180.96969655,3127.99999969,4316.45454502,2719.99999973,4983.57575708,2983.75757546,4192.30302988,98.9090908992,4384.45454502,3329.93939361,4562.69696924,762.424242348,4803.78787831,1516.60606045,4447.30302986,3437.09090875,42.0,42.0,?
2017-07-31 18:04:55.921430,4510.66666622,3754.42424205,4218.06060564,4.1212121208,3847.15151477,251.393939369,3881.15151476,342.060606026,4186.1212117,193.696969678,4388.06060562,3000.24242394,4177.87878746,3127.99999969,4319.54545411,2719.99999973,4988.21212071,2983.75757546,4191.78787837,98.9090908992,4385.99999956,3329.93939361,4561.66666621,762.424242348,4803.27272679,1516.60606045,4447.30302986,3437.09090875,42.0,42.0,?
2017-07-31 18:04:55.930747,4508.09090864,3754.42424205,4218.57575715,4.1212121208,3847.66666628,251.393939369,3877.54545416,342.060606026,4182.5151511,193.696969678,4391.66666623,3000.24242394,4178.90909049,3127.99999969,4322.12121169,2719.99999973,4989.75757526,2983.75757546,4193.84848443,98.9090908992,4385.48484805,3329.93939361,4562.18181773,762.424242348,4803.27272679,1516.60606045,4443.69696925,3437.09090875,42.0,42.0,?
2017-07-31 18:04:55.935750,4497.78787834,3754.42424205,4219.09090867,4.1212121208,3846.12121174,251.393939369,3864.66666628,342.060606026,4181.99999958,193.696969678,4384.96969653,3000.24242394,4172.72727231,3127.99999969,4318.51515108,2719.99999973,4983.57575708,2983.75757546,4185.60606019,98.9090908992,4374.66666623,3329.93939361,4560.63636318,762.424242348,4796.06060558,1516.60606045,4436.99999956,3437.09090875,42.0,42.0,?
2017-07-31 18:04:55.946022,4498.81818137,3754.42424205,4211.36363594,4.1212121208,3846.12121174,251.393939369,3873.93939355,342.060606026,4180.96969655,193.696969678,4378.27272683,3000.24242394,4163.45454504,3127.99999969,4312.3333329,2719.99999973,4979.45454496,2983.75757546,4180.45454504,98.9090908992,4372.60606017,3329.93939361,4566.81818136,762.424242348,4794.51515104,1516.60606045,4435.45454501,3437.09090875,42.0,42.0,?
2017-07-31 18:04:55.951037,4498.81818137,3754.42424205,4211.36363594,4.1212121208,3849.21212083,251.393939369,3897.12121173,342.060606026,4180.96969655,193.696969678,4381.36363593,3000.24242394,4162.93939352,3127.99999969,4309.75757533,2719.99999973,4979.45454496,2983.75757546,4187.66666625,98.9090908992,4379.81818138,3329.93939361,4566.81818136,762.424242348,4798.63636316,1516.60606045,4440.09090865,3437.09090875,42.0,42.0,?
2017-07-31 18:04:55.960156,4498.30302985,3754.42424205,4212.90909049,4.1212121208,3849.72727234,251.393939369,3899.18181779,342.060606026,4185.09090867,193.696969678,4384.45454502,3000.24242394,4164.48484807,3127.99999969,4311.30302987,2719.99999973,4977.90909041,2983.75757546,4187.66666625,98.9090908992,4376.72727229,3329.93939361,4561.66666621,762.424242348,4793.48484801,1516.60606045,4438.5454541,3437.09090875,42.0,42.0,?
2017-07-31 18:04:55.968539,4496.75757531,3754.42424205,4218.57575715,4.1212121208,3847.15151477,251.393939369,3886.81818143,342.060606026,4188.69696928,193.696969678,4384.96969653,3000.24242394,4166.54545413,3127.99999969,4316.45454502,2719.99999973,4979.96969647,2983.75757546,4180.96969655,98.9090908992,4373.12121168,3329.93939361,4562.69696924,762.424242348,4791.93939346,1516.60606045,4433.90909047,3437.09090875,42.0,42.0,?
2017-07-31 18:04:55.975601,4499.8484844,3754.42424205,4219.09090867,4.1212121208,3849.21212083,251.393939369,3888.87878749,342.060606026,4184.57575716,193.696969678,4385.48484805,3000.24242394,4172.72727231,3127.99999969,4323.15151472,2719.99999973,4993.87878738,2983.75757546,4183.54545413,98.9090908992,4379.81818138,3329.93939361,4567.84848439,762.424242348,4795.54545407,1516.60606045,4438.03030259,3437.09090875,42.0,42.0,?
2017-07-31 18:04:55.981727,4502.42424197,3754.42424205,4218.57575715,4.1212121208,3849.21212083,251.393939369,3891.45454507,342.060606026,4180.96969655,193.696969678,4386.51515108,3000.24242394,4177.36363595,3127.99999969,4321.09090866,2719.99999973,4999.54545405,2983.75757546,4180.45454504,98.9090908992,4379.81818138,3329.93939361,4567.33333288,762.424242348,4793.99999952,1516.60606045,4442.15151471,3437.09090875,42.0,42.0,?
2017-07-31 18:04:55.989688,4508.09090864,3754.42424205,4220.63636321,4.1212121208,3845.60606022,251.393939369,3881.66666628,342.060606026,4186.1212117,193.696969678,4388.06060562,3000.24242394,4178.39393898,3127.99999969,4314.90909048,2719.99999973,4992.84848435,2983.75757546,4171.69696928,98.9090908992,4377.2424238,3329.93939361,4564.7575753,762.424242348,4798.63636316,1516.60606045,4441.12121168,3437.09090875,42.0,42.0,?
2017-07-31 18:04:55.998375,4512.21212076,3754.42424205,4219.09090867,4.1212121208,3848.69696931,251.393939369,3882.69696931,342.060606026,4190.24242382,193.696969678,4388.57575714,3000.24242394,4180.45454504,3127.99999969,4317.99999957,2719.99999973,4992.84848435,2983.75757546,4174.27272686,98.9090908992,4383.9393935,3329.93939361,4564.7575753,762.424242348,4808.42424194,1516.60606045,4443.69696925,3437.09090875,42.0,42.0,?
2017-07-31 18:04:56.005939,4508.60606016,3754.42424205,4217.03030261,4.1212121208,3853.84848446,251.393939369,3894.54545416,342.060606026,4190.24242382,193.696969678,4388.06060562,3000.24242394,4179.42424201,3127.99999969,4323.66666623,2719.99999973,4997.9999995,2983.75757546,4175.30302989,98.9090908992,4386.51515108,3329.93939361,4566.30302985,762.424242348,4808.42424194,1516.60606045,4450.90909046,3437.09090875,42.0,42.0,?
2017-07-31 18:04:56.015579,4508.60606016,3746.18181781,4217.03030261,4.1212121208,3855.39393901,251.393939369,3893.51515113,342.060606026,4200.03030261,193.696969678,4393.72727229,3000.24242394,4176.33333292,3127.99999969,4325.21212078,2719.99999973,4996.96969647,2983.75757546,4166.54545413,98.9090908992,4381.36363593,3329.93939361,4565.78787833,762.424242348,4799.66666619,1516.60606045,4451.93939349,3437.09090875,42.0,42.0,?
2017-07-31 18:04:56.022168,4511.69696925,3746.18181781,4218.57575715,12.3636363624,3853.84848446,251.393939369,3879.60606022,342.060606026,4205.18181776,193.696969678,4394.75757532,3000.24242394,4175.30302989,3127.99999969,4322.12121169,2719.99999973,4997.48484799,2983.75757546,4162.93939352,98.9090908992,4380.3333329,3329.93939361,4557.54545409,762.424242348,4796.5757571,1516.60606045,4450.90909046,3437.09090875,42.0,42.0,?
2017-07-31 18:04:56.029527,4511.18181773,3746.18181781,4220.1212117,12.3636363624,3854.87878749,251.393939369,3881.66666628,342.060606026,4193.33333291,193.696969678,4390.6363632,3000.24242394,4174.27272686,3127.99999969,4317.48484805,2719.99999973,4997.48484799,2983.75757546,4167.06060564,98.9090908992,4383.42424199,3329.93939361,4549.81818136,762.424242348,4802.75757528,1516.60606045,4452.96969652,3507.1515148,42.0,42.0,?
2017-07-31 18:04:56.036932,4509.63636319,3746.18181781,4217.54545412,12.3636363624,3857.45454507,251.393939369,3898.15151476,342.060606026,4190.75757534,193.696969678,4393.72727229,3000.24242394,4175.8181814,3127.99999969,4318.51515108,2719.99999973,4994.90909041,2983.75757546,4170.15151473,98.9090908992,4385.99999956,3329.93939361,4544.1515147,762.424242348,4803.78787831,1516.60606045,4451.42424198,3507.1515148,42.0,42.0,?
2017-07-31 18:04:56.046247,4508.09090864,3746.18181781,4217.03030261,12.3636363624,3855.39393901,251.393939369,3906.90909052,342.060606026,4200.03030261,193.696969678,4396.81818138,3000.24242394,4178.90909049,3127.99999969,4322.12121169,2719.99999973,5000.06060556,2983.75757546,4172.21212079,98.9090908992,4384.45454502,3329.93939361,4540.54545409,762.424242348,4801.21212073,1516.60606045,4446.78787834,3507.1515148,42.0,42.0,?
2017-07-31 18:04:56.060994,4507.57575713,3746.18181781,4218.57575715,12.3636363624,3859.51515113,251.393939369,3876.51515113,342.060606026,4202.60606019,193.696969678,4394.75757532,3000.24242394,4176.33333292,3127.99999969,4319.0303026,2719.99999973,4999.54545405,2983.75757546,4167.57575716,98.9090908992,4380.84848441,3329.93939361,4543.12121167,762.424242348,4796.5757571,1516.60606045,4447.30302986,3507.1515148,42.0,42.0,?
2017-07-31 18:04:56.061130,4507.57575713,3746.18181781,4218.57575715,12.3636363624,3859.51515113,251.393939369,3876.51515113,342.060606026,4202.60606019,193.696969678,4396.30302986,3008.48484818,4174.78787837,3127.99999969,4319.0303026,2719.99999973,4999.54545405,2983.75757546,4167.57575716,98.9090908992,4379.30302987,3329.93939361,4543.12121167,762.424242348,4792.96969649,1516.60606045,4452.45454501,3507.1515148,42.0,42.0,?
2017-07-31 18:04:56.072076,4510.66666622,3746.18181781,4218.06060564,12.3636363624,3864.66666628,251.393939369,3887.84848446,342.060606026,4204.66666625,193.696969678,4400.9393935,3008.48484818,4178.90909049,3127.99999969,4320.06060563,2719.99999973,4995.93939344,2983.75757546,4170.66666625,98.9090908992,4382.90909047,3329.93939361,4544.1515147,762.424242348,4799.15151467,1516.60606045,4455.03030258,3507.1515148,42.0,42.0,?
2017-07-31 18:04:56.077703,4512.21212076,3746.18181781,4218.06060564,12.3636363624,3858.99999961,251.393939369,3906.393939,342.060606026,4199.5151511,193.696969678,4398.36363592,3008.48484818,4176.33333292,3127.99999969,4315.93939351,2728.24242397,4991.3030298,2983.75757546,4172.72727231,98.9090908992,4383.42424199,3329.93939361,4543.12121167,762.424242348,4803.78787831,1516.60606045,4451.93939349,3507.1515148,42.0,42.0,?
2017-07-31 18:04:56.085977,4510.66666622,3746.18181781,4218.57575715,12.3636363624,3853.84848446,251.393939369,3899.18181779,342.060606026,4198.48484806,193.696969678,4395.27272683,3008.48484818,4166.03030261,3127.99999969,4310.78787836,2728.24242397,4986.15151465,2983.75757546,4169.63636322,98.9090908992,4381.87878744,3329.93939361,4543.63636318,762.424242348,4801.72727225,1516.60606045,4449.36363592,3507.1515148,42.0,42.0,?
2017-07-31 18:04:56.092097,4509.12121167,3746.18181781,4219.60606018,12.3636363624,3858.4848481,251.393939369,3885.27272688,342.060606026,4203.1212117,193.696969678,4397.84848441,3008.48484818,4167.57575716,3127.99999969,4314.90909048,2728.24242397,4993.87878738,2983.75757546,4169.63636322,103.03030302,4382.90909047,3329.93939361,4544.66666621,762.424242348,4801.21212073,1516.60606045,4451.93939349,3507.1515148,42.0,42.0,?
2017-07-31 18:04:56.102193,4510.1515147,3746.18181781,4219.09090867,12.3636363624,3865.1818178,251.393939369,3882.18181779,342.060606026,4206.21212079,193.696969678,4401.45454501,3008.48484818,4176.33333292,3127.99999969,4320.06060563,2728.24242397,5003.66666617,2983.75757546,4176.33333292,103.03030302,4388.06060562,3329.93939361,4545.69696924,762.424242348,4805.33333285,1516.60606045,4457.60606016,3507.1515148,42.0,42.0,?
2017-07-31 18:04:56.108651,4511.69696925,3746.18181781,4219.60606018,12.3636363624,3864.15151477,251.393939369,3879.60606022,342.060606026,4209.30302988,193.696969678,4399.90909047,3008.48484818,4173.75757534,3127.99999969,4315.93939351,2728.24242397,5000.06060556,2983.75757546,4177.36363595,103.03030302,4393.21212077,3329.93939361,4545.18181773,762.424242348,4810.484848,1516.60606045,4461.21212077,3507.1515148,42.0,42.0,?
2017-07-31 18:04:56.116684,4509.63636319,3746.18181781,4219.60606018,12.3636363624,3860.03030264,251.393939369,3881.15151476,342.060606026,4206.21212079,193.696969678,4396.30302986,3008.48484818,4170.15151473,3127.99999969,4309.75757533,2728.24242397,4994.39393889,2983.75757546,4172.72727231,103.03030302,4391.66666623,3329.93939361,4542.09090864,762.424242348,4805.33333285,1458.90909076,4459.15151471,3507.1515148,42.0,42.0,?
2017-07-31 18:04:56.122684,4510.1515147,3746.18181781,4218.06060564,12.3636363624,3857.45454507,251.393939369,3889.393939,342.060606026,4198.48484806,193.696969678,4394.75757532,3008.48484818,4175.30302989,3127.99999969,4309.75757533,2728.24242397,4995.42424192,2983.75757546,4168.09090867,111.272727262,4386.51515108,3329.93939361,4543.63636318,762.424242348,4798.63636316,1458.90909076,4455.5454541,3507.1515148,42.0,42.0,?
2017-07-31 18:04:56.131860,4506.03030258,3746.18181781,4217.03030261,12.3636363624,3855.39393901,251.393939369,3892.4848481,342.060606026,4198.48484806,193.696969678,4395.27272683,3008.48484818,4178.90909049,3127.99999969,4313.36363593,2728.24242397,4995.93939344,2983.75757546,4162.42424201,111.272727262,4383.9393935,3329.93939361,4546.72727227,762.424242348,4801.21212073,1458.90909076,4455.03030258,3507.1515148,42.0,42.0,?
2017-07-31 18:04:56.139714,4501.39393894,3746.18181781,4218.06060564,12.3636363624,3856.42424204,251.393939369,3891.96969658,342.060606026,4204.15151473,193.696969678,4399.39393895,3008.48484818,4177.87878746,3127.99999969,4317.48484805,2728.24242397,4995.42424192,2983.75757546,4162.42424201,111.272727262,4385.99999956,3329.93939361,4545.18181773,758.303030227,4806.36363588,1458.90909076,4457.60606016,3507.1515148,42.0,42.0,?
2017-07-31 18:04:56.147436,4504.99999955,3746.18181781,4219.60606018,12.3636363624,3858.4848481,251.393939369,3887.84848446,342.060606026,4205.18181776,193.696969678,4398.36363592,3008.48484818,4177.36363595,3127.99999969,4315.42424199,2728.24242397,4994.39393889,2983.75757546,4162.42424201,111.272727262,4387.03030259,3329.93939361,4544.66666621,758.303030227,4806.36363588,1458.90909076,4457.60606016,3507.1515148,42.0,42.0,?
2017-07-31 18:04:56.155145,4509.63636319,3746.18181781,4220.1212117,12.3636363624,3855.39393901,251.393939369,3885.27272688,342.060606026,4204.66666625,193.696969678,4391.15151471,3008.48484818,4174.78787837,3127.99999969,4311.30302987,2728.24242397,4992.33333283,2983.75757546,4155.72727231,111.272727262,4385.48484805,3329.93939361,4546.72727227,758.303030227,4804.81818134,1458.90909076,4455.5454541,3507.1515148,42.0,42.0,?
2017-07-31 18:04:56.163949,4512.21212076,3746.18181781,4220.63636321,12.3636363624,3851.7878784,251.393939369,3886.81818143,342.060606026,4202.60606019,193.696969678,4390.12121168,3008.48484818,4176.84848443,3127.99999969,4315.93939351,2728.24242397,4992.33333283,2983.75757546,4150.57575716,111.272727262,4384.96969653,3329.93939361,4547.24242379,758.303030227,4806.8787874,1458.90909076,4457.09090865,3507.1515148,42.0,42.0,?
2017-07-31 18:04:56.170298,4511.69696925,3746.18181781,4222.18181776,12.3636363624,3854.36363598,251.393939369,3881.15151476,342.060606026,4202.09090867,193.696969678,4394.2424238,3008.48484818,4180.45454504,3127.99999969,4318.51515108,2728.24242397,4991.81818132,2983.75757546,4146.96969656,111.272727262,4385.48484805,3329.93939361,4547.24242379,758.303030227,4805.33333285,1458.90909076,4459.15151471,3507.1515148,42.0,42.0,?
2017-07-31 18:04:56.177719,4502.93939349,3746.18181781,4219.09090867,12.3636363624,3855.90909052,251.393939369,3878.06060567,342.060606026,4207.24242382,193.696969678,4391.66666623,3008.48484818,4177.36363595,3127.99999969,4313.87878745,2728.24242397,4992.33333283,2983.75757546,4140.27272686,111.272727262,4379.81818138,3329.93939361,4549.81818136,758.303030227,4796.5757571,1458.90909076,4456.57575713,3507.1515148,42.0,42.0,?
2017-07-31 18:04:56.189975,4499.33333288,3746.18181781,4218.57575715,12.3636363624,3849.72727234,251.393939369,3885.27272688,342.060606026,4205.18181776,193.696969678,4388.06060562,3008.48484818,4174.27272686,3127.99999969,4313.36363593,2728.24242397,4993.36363586,2983.75757546,4135.63636322,111.272727262,4375.69696926,3329.93939361,4555.48484803,758.303030227,4795.03030255,1458.90909076,4455.03030258,3507.1515148,42.0,42.0,?
2017-07-31 18:04:56.194717,4509.12121167,3746.18181781,4222.18181776,12.3636363624,3852.81818143,251.393939369,3894.03030264,342.060606026,4205.69696928,193.696969678,4391.66666623,3008.48484818,4176.84848443,3127.99999969,4319.0303026,2728.24242397,4993.87878738,2983.75757546,4140.27272686,111.272727262,4384.45454502,3329.93939361,4559.60606015,758.303030227,4806.36363588,1458.90909076,4461.21212077,3507.1515148,42.0,42.0,?
2017-07-31 18:04:56.203853,4513.75757531,3746.18181781,4220.63636321,12.3636363624,3863.12121173,251.393939369,3888.87878749,342.060606026,4212.90909049,193.696969678,4395.27272683,3008.48484818,4179.93939352,3127.99999969,4322.12121169,2728.24242397,4996.45454495,2983.75757546,4146.45454504,111.272727262,4391.66666623,3329.93939361,4557.03030257,758.303030227,4809.45454497,1458.90909076,4466.36363592,3507.1515148,42.0,42.0,?
2017-07-31 18:04:56.209756,4509.12121167,3746.18181781,4218.57575715,12.3636363624,3857.45454507,251.393939369,3871.36363598,342.060606026,4208.78787837,193.696969678,4393.21212077,3008.48484818,4172.21212079,3127.99999969,4318.51515108,2728.24242397,4993.87878738,2983.75757546,4142.84848443,111.272727262,4384.45454502,3329.93939361,4553.93939348,758.303030227,4801.21212073,1458.90909076,4461.21212077,3507.1515148,42.0,42.0,?
2017-07-31 18:04:56.217820,4509.12121167,3746.18181781,4219.60606018,12.3636363624,3844.57575719,251.393939369,3867.24242386,342.060606026,4202.09090867,193.696969678,4389.09090865,3008.48484818,4162.93939352,3127.99999969,4313.87878745,2728.24242397,4986.66666617,2983.75757546,4135.63636322,111.272727262,4378.27272683,3329.93939361,4552.90909045,758.303030227,4797.60606013,1458.90909076,4455.5454541,3507.1515148,42.0,42.0,?
2017-07-31 18:04:56.226489,4510.66666622,3746.18181781,4217.54545412,12.3636363624,3850.75757537,251.393939369,3888.36363597,342.060606026,4206.21212079,193.696969678,4388.57575714,3008.48484818,4167.57575716,3127.99999969,4315.93939351,2728.24242397,4986.66666617,2983.75757546,4136.15151474,111.272727262,4387.03030259,3329.93939361,4553.42424197,758.303030227,4804.30302982,1458.90909076,4462.2424238,3507.1515148,42.0,42.0,?
2017-07-31 18:04:56.233843,4511.69696925,3746.18181781,4216.51515109,12.3636363624,3860.03030264,251.393939369,3906.90909052,342.060606026,4208.78787837,193.696969678,4389.09090865,3008.48484818,4171.18181776,3127.99999969,4319.0303026,2728.24242397,4993.87878738,2983.75757546,4138.2121208,111.272727262,4393.21212077,3329.93939361,4551.87878742,758.303030227,4806.8787874,1458.90909076,4470.99999955,3507.1515148,42.0,42.0,?
2017-07-31 18:04:56.241475,4509.12121167,3746.18181781,4218.57575715,12.3636363624,3853.84848446,251.393939369,3902.27272688,342.060606026,4211.36363594,193.696969678,4387.03030259,3008.48484818,4163.45454504,3127.99999969,4312.84848442,2728.24242397,4990.27272677,2983.75757546,4128.93939353,111.272727262,4382.39393896,3329.93939361,4546.21212076,758.303030227,4795.54545407,1458.90909076,4465.8484844,3507.1515148,42.0,42.0,?
2017-07-31 18:04:56.248812,4506.03030258,3746.18181781,4220.1212117,12.3636363624,3846.63636325,251.393939369,3891.96969658,342.060606026,4216.51515109,193.696969678,4384.96969653,3008.48484818,4163.96969655,3127.99999969,4310.78787836,2728.24242397,4980.48484799,2983.75757546,4123.78787838,111.272727262,4375.18181774,3329.93939361,4543.12121167,758.303030227,4793.48484801,1458.90909076,4456.06060561,3507.1515148,42.0,42.0,?
2017-07-31 18:04:56.256336,4509.63636319,3746.18181781,4219.09090867,12.3636363624,3852.81818143,251.393939369,3894.54545416,342.060606026,4209.8181814,193.696969678,4383.9393935,3008.48484818,4169.63636322,3127.99999969,4316.96969654,2728.24242397,4981.51515102,2983.75757546,4132.54545413,111.272727262,4382.39393896,3329.93939361,4546.21212076,758.303030227,4805.33333285,1458.90909076,4460.18181774,3507.1515148,42.0,42.0,?
2017-07-31 18:04:56.263697,4512.21212076,3746.18181781,4219.09090867,12.3636363624,3862.60606022,251.393939369,3898.15151476,342.060606026,4203.63636322,193.696969678,4386.51515108,3008.48484818,4159.33333292,3127.99999969,4314.90909048,2728.24242397,4987.6969692,2983.75757546,4137.18181777,111.272727262,4391.15151471,3329.93939361,4547.7575753,758.303030227,4806.8787874,1458.90909076,4469.45454501,3507.1515148,42.0,42.0,?
2017-07-31 18:04:56.272642,4510.1515147,3746.18181781,4219.60606018,12.3636363624,3857.96969658,251.393939369,3897.63636325,342.060606026,4207.75757534,193.696969678,4386.51515108,3008.48484818,4152.63636322,3127.99999969,4305.63636321,2728.24242397,4987.18181768,2983.75757546,4127.9090905,111.272727262,4385.48484805,3329.93939361,4546.21212076,758.303030227,4798.63636316,1458.90909076,4465.8484844,3507.1515148,42.0,42.0,?
2017-07-31 18:04:56.280292,4508.09090864,3746.18181781,4218.57575715,12.3636363624,3849.21212083,251.393939369,3897.63636325,342.060606026,4205.69696928,193.696969678,4384.96969653,3008.48484818,4162.42424201,3127.99999969,4307.69696927,2728.24242397,4987.18181768,2983.75757546,4121.72727232,111.272727262,4379.81818138,3329.93939361,4545.18181773,758.303030227,4799.15151467,1458.90909076,4459.15151471,3507.1515148,42.0,42.0,?
2017-07-31 18:04:56.292961,4511.69696925,3746.18181781,4219.60606018,12.3636363624,3856.93939355,251.393939369,3892.99999961,342.060606026,4203.1212117,193.696969678,4385.99999956,3008.48484818,4170.15151473,3127.99999969,4317.48484805,2728.24242397,4993.87878738,2983.75757546,4130.99999959,111.272727262,4388.57575714,3329.93939361,4549.30302985,758.303030227,4807.90909043,1458.90909076,4465.33333289,3507.1515148,42.0,42.0,?
2017-07-31 18:04:56.295900,4514.78787834,3746.18181781,4221.66666624,12.3636363624,3866.21212083,251.393939369,3889.90909052,342.060606026,4209.30302988,193.696969678,4386.51515108,3008.48484818,4170.66666625,3127.99999969,4317.48484805,2728.24242397,4998.51515102,2983.75757546,4135.12121171,111.272727262,4389.09090865,3329.93939361,4550.33333288,758.303030227,4804.81818134,1458.90909076,4472.03030258,3507.1515148,42.0,42.0,?
2017-07-31 18:04:56.305358,4506.03030258,3746.18181781,4219.60606018,12.3636363624,3856.93939355,251.393939369,3894.03030264,342.060606026,4212.39393897,193.696969678,4386.51515108,3008.48484818,4171.18181776,3127.99999969,4314.90909048,2728.24242397,4989.75757526,2983.75757546,4116.06060565,111.272727262,4373.12121168,3329.93939361,4545.69696924,758.303030227,4795.03030255,1458.90909076,4459.66666622,3507.1515148,42.0,42.0,?
2017-07-31 18:04:56.313437,4493.66666622,3746.18181781,4218.06060564,12.3636363624,3843.03030265,251.393939369,3896.0909087,342.060606026,4207.24242382,193.696969678,4390.12121168,3008.48484818,4169.63636322,3127.99999969,4320.06060563,2728.24242397,4981.51515102,2983.75757546,4103.18181777,111.272727262,4368.99999956,3329.93939361,4544.66666621,758.303030227,4794.51515104,1458.90909076,4445.75757531,3507.1515148,42.0,42.0,?
2017-07-31 18:04:56.318973,4496.75757531,3746.18181781,4219.09090867,12.3636363624,3845.09090871,251.393939369,3891.45454507,342.060606026,4207.75757534,193.696969678,4395.78787835,3008.48484818,4169.1212117,3127.99999969,4324.18181775,2728.24242397,4987.6969692,2983.75757546,4117.60606019,111.272727262,4383.42424199,3329.93939361,4548.78787833,758.303030227,4800.69696922,1458.90909076,4452.45454501,3507.1515148,42.0,42.0,?
2017-07-31 18:04:56.326781,4510.1515147,3746.18181781,4219.60606018,12.3636363624,3850.24242386,251.393939369,3889.90909052,342.060606026,4214.45454503,193.696969678,4393.72727229,3008.48484818,4167.57575716,3127.99999969,4320.06060563,2728.24242397,4996.45454495,2983.75757546,4127.9090905,111.272727262,4394.75757532,3329.93939361,4548.78787833,758.303030227,4807.39393891,1458.90909076,4467.39393895,3507.1515148,42.0,42.0,?
2017-07-31 18:04:56.335470,4514.27272682,3746.18181781,4219.60606018,12.3636363624,3853.33333295,251.393939369,3898.15151476,342.060606026,4219.09090867,193.696969678,4395.78787835,3008.48484818,4171.18181776,3127.99999969,4322.6363632,2728.24242397,4999.54545405,2983.75757546,4123.78787838,111.272727262,4394.75757532,3329.93939361,4545.18181773,758.303030227,4811.51515103,1458.90909076,4468.93939349,3507.1515148,42.0,42.0,?
2017-07-31 18:04:56.342009,4511.18181773,3746.18181781,4219.60606018,12.3636363624,3856.93939355,251.393939369,3904.84848446,342.060606026,4220.63636321,193.696969678,4402.48484804,3008.48484818,4177.87878746,3127.99999969,4329.84848442,2728.24242397,5002.12121162,2983.75757546,4121.2121208,111.272727262,4387.03030259,3329.93939361,4543.12121167,758.303030227,4807.39393891,1458.90909076,4461.21212077,3507.1515148,42.0,42.0,?
2017-07-31 18:04:56.352043,4510.66666622,3746.18181781,4219.60606018,12.3636363624,3855.90909052,251.393939369,3899.18181779,342.060606026,4217.54545412,193.696969678,4397.84848441,3008.48484818,4172.72727231,3127.99999969,4321.09090866,2728.24242397,4995.42424192,2983.75757546,4116.57575716,111.272727262,4381.87878744,3329.93939361,4545.18181773,758.303030227,4801.72727225,1458.90909076,4457.60606016,3507.1515148,42.0,42.0,?
2017-07-31 18:04:56.358015,4510.66666622,3746.18181781,4219.09090867,12.3636363624,3851.7878784,251.393939369,3890.42424204,342.060606026,4217.54545412,193.696969678,4389.60606017,3008.48484818,4159.33333292,3127.99999969,4307.69696927,2728.24242397,4983.57575708,2983.75757546,4111.42424201,111.272727262,4383.42424199,3329.93939361,4547.24242379,758.303030227,4800.1818177,1458.90909076,4458.63636319,3507.1515148,42.0,42.0,?
2017-07-31 18:04:56.367287,4503.96969652,3746.18181781,4218.57575715,12.3636363624,3847.66666628,251.393939369,3895.57575719,342.060606026,4222.69696927,193.696969678,4389.09090865,3008.48484818,4154.69696928,3127.99999969,4308.7272723,2728.24242397,4983.57575708,2983.75757546,4108.33333292,111.272727262,4381.87878744,3329.93939361,4546.72727227,758.303030227,4798.63636316,1458.90909076,4452.96969652,3507.1515148,42.0,42.0,?
2017-07-31 18:04:56.373906,4496.75757531,3746.18181781,4219.60606018,12.3636363624,3841.99999962,251.393939369,3903.81818143,342.060606026,4214.96969655,193.696969678,4393.21212077,3008.48484818,4157.78787837,3127.99999969,4311.81818139,2728.24242397,4984.60606011,2983.75757546,4101.63636323,111.272727262,4374.15151471,3329.93939361,4544.1515147,758.303030227,4796.5757571,1458.90909076,4444.72727228,3507.1515148,42.0,42.0,?
2017-07-31 18:04:56.381480,4515.81818137,3746.18181781,4220.1212117,12.3636363624,3856.42424204,251.393939369,3887.33333294,342.060606026,4213.424242,193.696969678,4394.75757532,3008.48484818,4166.03030261,3127.99999969,4317.99999957,2728.24242397,4989.75757526,2983.75757546,4126.36363595,111.272727262,4396.30302986,3329.93939361,4552.90909045,758.303030227,4810.484848,1458.90909076,4469.45454501,3507.1515148,42.0,42.0,?
2017-07-31 18:04:56.390080,4515.81818137,3746.18181781,4220.1212117,12.3636363624,3856.42424204,251.393939369,3887.33333294,342.060606026,4213.424242,193.696969678,4394.75757532,3008.48484818,4166.03030261,3127.99999969,4317.99999957,2728.24242397,4989.75757526,2983.75757546,4126.36363595,111.272727262,4396.30302986,3329.93939361,4552.90909045,758.303030227,4810.484848,1458.90909076,4469.45454501,3507.1515148,42.0,42.0,?
2017-07-31 18:04:56.396747,4516.8484844,3746.18181781,4220.63636321,12.3636363624,3868.27272689,251.393939369,3896.60606022,342.060606026,4222.69696927,193.696969678,4399.39393895,3008.48484818,4175.8181814,3127.99999969,4325.21212078,2728.24242397,5002.12121162,2983.75757546,4137.18181777,111.272727262,4405.06060562,3329.93939361,4553.42424197,758.303030227,4814.60606012,1458.90909076,4475.12121167,3507.1515148,42.0,42.0,?
2017-07-31 18:04:56.405426,4514.27272682,3746.18181781,4219.09090867,12.3636363624,3862.0909087,251.393939369,3905.36363597,342.060606026,4223.7272723,193.696969678,4399.90909047,3008.48484818,4178.90909049,3127.99999969,4323.15151472,2728.24242397,5004.18181768,2983.75757546,4132.54545413,111.272727262,4400.9393935,3329.93939361,4549.81818136,758.303030227,4814.60606012,1458.90909076,4467.39393895,3507.1515148,42.0,42.0,?
2017-07-31 18:04:56.413259,4519.42424197,3746.18181781,4221.15151473,12.3636363624,3856.42424204,251.393939369,3898.66666628,342.060606026,4220.1212117,193.696969678,4393.72727229,3008.48484818,4170.15151473,3127.99999969,4315.42424199,2728.24242397,5000.06060556,2983.75757546,4125.84848444,111.272727262,4400.42424198,3329.93939361,4551.36363591,758.303030227,4817.1818177,1458.90909076,4464.30302986,3507.1515148,42.0,42.0,?
2017-07-31 18:04:56.428638,4520.96969652,3746.18181781,4221.15151473,12.3636363624,3864.66666628,251.393939369,3895.06060567,342.060606026,4209.30302988,193.696969678,4387.03030259,3008.48484818,4159.84848443,3127.99999969,4312.3333329,2728.24242397,4996.45454495,2983.75757546,4123.27272686,111.272727262,4403.51515107,3329.93939361,4554.96969651,758.303030227,4812.54545406,1458.90909076,4469.96969652,3507.1515148,42.0,42.0,?
2017-07-31 18:04:56.428877,4514.78787834,3746.18181781,4219.09090867,12.3636363624,3864.66666628,251.393939369,3896.0909087,342.060606026,4209.30302988,193.696969678,4388.57575714,3008.48484818,4164.99999958,3127.99999969,4315.93939351,2728.24242397,4995.42424192,2983.75757546,4120.69696928,111.272727262,4397.84848441,3329.93939361,4554.96969651,758.303030227,4805.84848437,1458.90909076,4470.48484804,3507.1515148,42.0,42.0,?
2017-07-31 18:04:56.435777,4508.09090864,3746.18181781,4221.66666624,12.3636363624,3851.27272689,251.393939369,3890.42424204,342.060606026,4216.51515109,193.696969678,4392.18181774,3008.48484818,4174.78787837,3127.99999969,4318.51515108,2728.24242397,4997.9999995,2983.75757546,4115.54545413,111.272727262,4389.60606017,3329.93939361,4555.48484803,758.303030227,4805.33333285,1458.90909076,4460.18181774,3507.1515148,42.0,42.0,?
2017-07-31 18:04:56.447249,4504.99999955,3746.18181781,4222.69696927,12.3636363624,3846.63636325,251.393939369,3887.33333294,342.060606026,4221.66666624,193.696969678,4391.15151471,3008.48484818,4171.69696928,3127.99999969,4313.36363593,2728.24242397,4997.9999995,2983.75757546,4113.48484807,111.272727262,4388.57575714,3329.93939361,4554.96969651,758.303030227,4806.8787874,1458.90909076,4455.03030258,3507.1515148,42.0,42.0,?
2017-07-31 18:04:56.452307,4509.12121167,3746.18181781,4221.15151473,12.3636363624,3854.36363598,251.393939369,3894.03030264,342.060606026,4220.1212117,193.696969678,4388.57575714,3008.48484818,4164.99999958,3127.99999969,4311.81818139,2728.24242397,4992.33333283,2983.75757546,4112.96969656,111.272727262,4389.60606017,3329.93939361,4553.42424197,758.303030227,4810.484848,1458.90909076,4461.21212077,3507.1515148,42.0,42.0,?
2017-07-31 18:04:56.460798,4514.27272682,3746.18181781,4221.15151473,12.3636363624,3857.96969658,251.393939369,3899.69696931,342.060606026,4219.60606018,193.696969678,4392.18181774,3008.48484818,4170.15151473,3127.99999969,4320.57575714,2728.24242397,4993.36363586,2983.75757546,4111.93939353,111.272727262,4388.57575714,3329.93939361,4557.54545409,758.303030227,4810.484848,1458.90909076,4462.75757531,3507.1515148,42.0,42.0,?
2017-07-31 18:04:56.466979,4512.21212076,3746.18181781,4220.1212117,12.3636363624,3850.75757537,251.393939369,3896.0909087,342.060606026,4220.1212117,193.696969678,4395.78787835,3008.48484818,4174.27272686,3127.99999969,4323.15151472,2728.24242397,4999.03030253,2983.75757546,4108.33333292,111.272727262,4384.96969653,3329.93939361,4560.63636318,758.303030227,4805.84848437,1458.90909076,4457.09090865,3507.1515148,42.0,42.0,?
2017-07-31 18:04:56.474634,4508.09090864,3746.18181781,4218.06060564,12.3636363624,3843.54545416,251.393939369,3884.75757537,342.060606026,4220.63636321,193.696969678,4393.21212077,3008.48484818,4167.06060564,3127.99999969,4316.96969654,2728.24242397,4993.87878738,2983.75757546,4099.57575717,111.272727262,4380.3333329,3329.93939361,4559.09090864,758.303030227,4805.33333285,1458.90909076,4454.51515107,3507.1515148,42.0,42.0,?
2017-07-31 18:04:56.484203,4509.63636319,3746.18181781,4218.57575715,12.3636363624,3845.60606022,251.393939369,3885.7878784,342.060606026,4219.60606018,193.696969678,4389.60606017,3008.48484818,4164.48484807,3127.99999969,4313.87878745,2728.24242397,4988.21212071,2983.75757546,4090.81818141,111.272727262,4377.2424238,3329.93939361,4558.0606056,758.303030227,4802.75757528,1458.90909076,4454.51515107,3507.1515148,42.0,42.0,?
2017-07-31 18:04:56.490913,4506.03030258,3746.18181781,4218.57575715,12.3636363624,3849.21212083,251.393939369,3894.54545416,342.060606026,4219.60606018,193.696969678,4389.09090865,3008.48484818,4168.09090867,3127.99999969,4314.39393896,2728.24242397,4989.24242374,2983.75757546,4090.30302989,111.272727262,4378.27272683,3329.93939361,4559.60606015,758.303030227,4797.60606013,1458.90909076,4450.90909046,3507.1515148,42.0,42.0,?
2017-07-31 18:04:56.498923,4498.81818137,3746.18181781,4218.06060564,12.3636363624,3849.21212083,251.393939369,3891.96969658,342.060606026,4220.1212117,193.696969678,4390.12121168,3008.48484818,4163.96969655,3127.99999969,4314.90909048,2728.24242397,4989.24242374,2983.75757546,4101.12121171,111.272727262,4380.3333329,3329.93939361,4560.63636318,758.303030227,4801.21212073,1458.90909076,4449.36363592,3507.1515148,42.0,42.0,?
2017-07-31 18:04:56.506224,4498.81818137,3746.18181781,4219.09090867,12.3636363624,3844.57575719,251.393939369,3882.69696931,342.060606026,4215.99999958,193.696969678,4387.54545411,3008.48484818,4159.84848443,3127.99999969,4310.27272684,2728.24242397,4989.24242374,2983.75757546,4115.54545413,111.272727262,4380.84848441,3329.93939361,4562.18181773,758.303030227,4804.81818134,1458.90909076,4449.36363592,3507.1515148,42.0,42.0,?
2017-07-31 18:04:56.513701,4498.81818137,3746.18181781,4219.60606018,12.3636363624,3840.96969659,251.393939369,3881.15151476,342.060606026,4210.84848443,193.696969678,4383.9393935,3008.48484818,4161.90909049,3127.99999969,4304.09090866,2728.24242397,4988.21212071,2983.75757546,4126.36363595,111.272727262,4375.18181774,3329.93939361,4563.72727227,758.303030227,4796.06060558,1458.90909076,4447.81818137,3507.1515148,42.0,42.0,?
2017-07-31 18:04:56.523585,4493.66666622,3746.18181781,4216.51515109,12.3636363624,3843.54545416,251.393939369,3885.7878784,342.060606026,4209.8181814,193.696969678,4385.48484805,3008.48484818,4158.8181814,3127.99999969,4306.15151472,2728.24242397,4980.9999995,2983.75757546,4143.87878746,111.272727262,4371.06060562,3329.93939361,4565.27272682,758.303030227,4789.36363588,1458.90909076,4445.2424238,3507.1515148,42.0,42.0,?
2017-07-31 18:04:56.534293,4500.36363591,3746.18181781,4218.06060564,8.2424242416,3847.66666628,251.393939369,3888.36363597,342.060606026,4218.57575715,193.696969678,4390.12121168,3008.48484818,4154.69696928,3127.99999969,4312.84848442,2728.24242397,4984.09090859,2983.75757546,4171.69696928,111.272727262,4380.84848441,3329.93939361,4569.39393894,758.303030227,4800.69696922,1458.90909076,4450.39393895,3507.1515148,42.0,42.0,?
2017-07-31 18:04:56.540446,4512.72727228,3746.18181781,4220.1212117,8.2424242416,3850.24242386,251.393939369,3896.0909087,342.060606026,4227.33333291,193.696969678,4392.69696926,3008.48484818,4158.8181814,3127.99999969,4315.93939351,2728.24242397,4997.9999995,2983.75757546,4196.424242,111.272727262,4390.12121168,3329.93939361,4571.96969651,758.303030227,4808.42424194,1458.90909076,4460.18181774,3507.1515148,42.0,42.0,?
2017-07-31 18:04:56.549328,4511.18181773,3746.18181781,4218.06060564,8.2424242416,3854.36363598,251.393939369,3899.69696931,342.060606026,4222.18181776,193.696969678,4391.66666623,3008.48484818,4162.93939352,3127.99999969,4317.99999957,2728.24242397,4994.90909041,2983.75757546,4211.36363594,111.272727262,4388.06060562,3329.93939361,4568.87878742,758.303030227,4802.24242376,1458.90909076,4463.27272683,3507.1515148,42.0,42.0,?
2017-07-31 18:04:56.554737,4507.06060561,3746.18181781,4217.03030261,8.2424242416,3854.36363598,251.393939369,3891.45454507,342.060606026,4214.45454503,193.696969678,4394.75757532,3008.48484818,4163.96969655,3127.99999969,4322.6363632,2728.24242397,4985.12121162,2983.75757546,4221.66666624,111.272727262,4385.48484805,3329.93939361,4567.33333288,758.303030227,4802.24242376,1458.90909076,4460.69696925,3507.1515148,42.0,42.0,?
2017-07-31 18:04:56.561297,4511.18181773,3746.18181781,4218.57575715,8.2424242416,3849.72727234,251.393939369,3888.36363597,342.060606026,4219.09090867,181.333333315,4401.45454501,3008.48484818,4167.57575716,3127.99999969,4326.24242381,2728.24242397,4987.6969692,2983.75757546,4227.84848443,111.272727262,4389.60606017,3329.93939361,4567.33333288,758.303030227,4806.8787874,1458.90909076,4457.60606016,3507.1515148,42.0,42.0,?
2017-07-31 18:04:56.569074,4512.21212076,3746.18181781,4220.63636321,8.2424242416,3852.81818143,251.393939369,3889.393939,342.060606026,4222.69696927,181.333333315,4398.87878744,3012.6060603,4164.99999958,3127.99999969,4324.69696926,2728.24242397,4987.18181768,2983.75757546,4225.78787837,111.272727262,4393.72727229,3329.93939361,4568.36363591,758.303030227,4806.36363588,1458.90909076,4456.57575713,3507.1515148,42.0,42.0,?
2017-07-31 18:04:56.576673,4514.27272682,3746.18181781,4219.09090867,8.2424242416,3861.57575719,251.393939369,3887.33333294,342.060606026,4218.06060564,181.333333315,4395.78787835,3012.6060603,4158.30302989,3119.75757545,4323.15151472,2728.24242397,4984.60606011,2983.75757546,4224.24242382,111.272727262,4395.78787835,3329.93939361,4569.90909045,758.303030227,4807.39393891,1458.90909076,4456.06060561,3507.1515148,42.0,42.0,?
2017-07-31 18:04:56.585633,4521.99999955,3746.18181781,4218.06060564,8.2424242416,3865.1818178,251.393939369,3891.96969658,342.060606026,4219.09090867,181.333333315,4400.42424198,3012.6060603,4164.48484807,3119.75757545,4327.78787836,2728.24242397,4988.72727223,2983.75757546,4227.84848443,111.272727262,4395.78787835,3329.93939361,4569.39393894,758.303030227,4810.99999952,1458.90909076,4452.45454501,3507.1515148,42.0,42.0,?
2017-07-31 18:04:56.591679,4520.96969652,3746.18181781,4220.1212117,8.2424242416,3864.15151477,251.393939369,3905.87878749,342.060606026,4224.75757534,181.333333315,4402.99999956,3012.6060603,4171.69696928,3119.75757545,4328.81818139,2728.24242397,4985.12121162,2996.12121182,4227.84848443,111.272727262,4397.84848441,3329.93939361,4567.84848439,758.303030227,4811.51515103,1458.90909076,4451.42424198,3507.1515148,42.0,42.0,?
2017-07-31 18:04:56.599660,4510.1515147,3746.18181781,4219.60606018,8.2424242416,3864.15151477,251.393939369,3906.90909052,342.060606026,4224.75757534,181.333333315,4399.39393895,3012.6060603,4165.5151511,3119.75757545,4324.18181775,2728.24242397,4980.9999995,2996.12121182,4221.15151473,98.9090908992,4397.33333289,3329.93939361,4565.78787833,758.303030227,4807.90909043,1458.90909076,4448.33333289,3507.1515148,42.0,42.0,?
2017-07-31 18:04:56.609172,4510.1515147,3746.18181781,4218.06060564,8.2424242416,3863.63636325,251.393939369,3896.60606022,342.060606026,4219.60606018,181.333333315,4398.36363592,3012.6060603,4163.45454504,3119.75757545,4324.69696926,2728.24242397,4988.72727223,2996.12121182,4214.96969655,98.9090908992,4393.72727229,3338.18181785,4567.84848439,758.303030227,4805.84848437,1458.90909076,4444.72727228,3507.1515148,42.0,42.0,?
2017-07-31 18:04:56.616901,4524.06060561,3746.18181781,4218.57575715,8.2424242416,3864.15151477,251.393939369,3897.12121173,342.060606026,4218.06060564,181.333333315,4401.45454501,3012.6060603,4172.21212079,3119.75757545,4328.30302987,2728.24242397,4992.84848435,2996.12121182,4222.69696927,98.9090908992,4404.03030259,3338.18181785,4571.454545,758.303030227,4813.06060558,1458.90909076,4455.5454541,3507.1515148,42.0,42.0,?
2017-07-31 18:04:56.624787,4533.8484844,3746.18181781,4220.63636321,8.2424242416,3869.30302992,251.393939369,3899.18181779,342.060606026,4219.60606018,181.333333315,4400.9393935,3012.6060603,4169.1212117,3119.75757545,4326.75757532,2728.24242397,4988.21212071,2996.12121182,4233.51515109,98.9090908992,4417.9393935,3338.18181785,4570.93939348,758.303030227,4822.33333285,1512.48484833,4472.03030258,3507.1515148,42.0,42.0,?
2017-07-31 18:04:56.632512,4524.57575712,3746.18181781,4221.15151473,8.2424242416,3868.7878784,251.393939369,3897.63636325,342.060606026,4222.18181776,181.333333315,4399.39393895,3012.6060603,4154.18181777,3119.75757545,4322.12121169,2728.24242397,4983.57575708,2996.12121182,4226.8181814,98.9090908992,4411.2424238,3338.18181785,4566.30302985,758.303030227,4819.24242376,1512.48484833,4466.87878743,3507.1515148,42.0,42.0,?
2017-07-31 18:04:56.638845,4513.24242379,3746.18181781,4219.09090867,8.2424242416,3864.15151477,251.393939369,3903.30302991,342.060606026,4229.39393897,181.333333315,4400.42424198,3012.6060603,4154.18181777,3119.75757545,4320.57575714,2728.24242397,4980.48484799,2996.12121182,4215.48484806,98.9090908992,4395.78787835,3338.18181785,4562.18181773,758.303030227,4806.8787874,1512.48484833,4451.93939349,3507.1515148,42.0,42.0,?
