Timestamp,F3 Value,F3 Quality,FC5 Value,FC5 Quality,F7 Value,F7 Quality,T7 Value,T7 Quality,P7 Value,P7 Quality,O1 Value,O1 Quality,O2 Value,O2 Quality,P8 Value,P8 Quality,T8 Value,T8 Quality,F8 Value,F8 Quality,AF4 Value,AF4 Quality,FC6 Value,FC6 Quality,F4 Value,F4 Quality,AF3 Value,AF3 Quality,X Value,Y Value,Z Value
2017-07-31 19:13:56.675604,4505.51515106,0,4232.48484806,0,3855.39393901,0,3903.81818143,0,4277.30302988,0,4500.87878743,0,4189.72727231,0,4313.36363593,0,4952.66666617,0,4197.96969655,0,4418.45454501,0,4202.09090867,0,4830.57575709,0,4440.09090865,0,42.0,42.0,?
2017-07-31 19:13:56.679555,4620.39393893,0,4321.09090866,0,3884.75757537,0,4011.9999996,0,4392.69696926,0,4615.24242378,0,4305.12121169,0,4366.9393935,0,4988.21212071,0,4366.42424199,0,4159.84848443,0,4297.39393896,0,4898.06060557,0,4460.18181774,0,42.0,42.0,?
2017-07-31 19:13:56.681892,4623.48484802,0,4324.69696926,0,3891.45454507,0,4005.81818142,0,4401.96969653,0,4611.12121166,0,4304.60606018,0,4371.57575714,0,4996.45454495,0,4365.90909047,0,4020.75757536,0,4293.27272684,0,4907.33333284,0,4464.81818137,0,42.0,42.0,?
2017-07-31 19:13:56.686423,4619.3636359,0,4321.60606017,0,3890.42424204,0,3969.75757536,0,4407.6363632,0,4611.12121166,0,4312.84848442,0,4380.3333329,0,4994.90909041,0,4358.69696926,0,3983.66666627,0,4288.63636321,0,4911.45454496,0,4465.33333289,0,42.0,42.0,?
2017-07-31 19:13:56.689722,4622.45454499,0,4325.21212078,0,3883.21212082,0,3977.9999996,0,4411.75757532,0,4614.72727227,0,4321.60606017,0,4382.90909047,0,5002.12121162,0,4364.36363593,0,4001.18181778,0,4294.30302987,0,4907.33333284,0,4458.63636319,0,42.0,42.0,?
2017-07-31 19:13:56.693022,4627.09090863,0,4322.6363632,0,3894.54545416,0,3990.87878748,0,4411.75757532,0,4620.90909045,0,4332.42424199,0,4393.72727229,0,5017.06060556,0,4380.84848441,0,4001.6969693,0,4297.90909048,0,4916.60606011,0,4470.99999955,0,42.0,42.0,?
2017-07-31 19:13:56.696274,4641.51515105,0,4328.81818139,0,3907.42424203,0,3970.27272688,0,4411.2424238,0,4632.75757529,0,4342.72727229,0,4414.84848441,0,5026.84848435,0,4389.60606017,0,4013.54545414,0,4297.39393896,0,4937.21212072,0,4491.09090864,0,42.0,42.0,?
2017-07-31 19:13:56.699539,4636.87878742,0,4323.15151472,0,3905.36363597,0,3978.51515112,0,4418.96969653,0,4634.81818135,0,4342.72727229,0,4414.33333289,0,5032.51515101,0,4389.09090865,0,4016.63636323,0,4296.87878745,0,4928.96969648,0,4486.96969652,0,42.0,42.0,?
2017-07-31 19:13:56.703992,4617.30302984,0,4316.45454502,0,3896.60606022,0,3999.12121172,0,4406.09090865,0,4610.09090863,0,4324.69696926,0,4388.06060562,0,5014.9999995,0,4376.21212077,0,4000.66666627,0,4291.21212078,0,4906.81818133,0,4470.99999955,0,42.0,42.0,?
2017-07-31 19:13:56.708189,4620.90909045,0,4325.72727229,0,3891.45454507,0,3989.84848445,0,4391.15151471,0,4605.96969651,0,4306.15151472,0,4372.60606017,0,4984.09090859,0,4361.27272684,0,4003.24242384,0,4289.15151472,0,4915.57575708,0,4466.36363592,0,42.0,42.0,?
2017-07-31 19:13:56.711989,4619.87878742,0,4319.54545411,0,3897.12121173,0,3988.3030299,0,4416.90909047,0,4636.87878742,0,4307.18181775,0,4370.54545411,0,4986.66666617,0,4360.75757532,0,4008.90909051,0,4294.81818139,0,4923.81818133,0,4468.42424198,0,42.0,42.0,?
2017-07-31 19:13:56.715304,4619.3636359,0,4322.6363632,0,3896.0909087,0,3999.12121172,0,4443.18181774,0,4641.51515105,0,4316.96969654,0,4365.39393896,0,5006.24242374,0,4357.66666623,0,4003.75757536,0,4291.21212078,0,4913.51515102,0,4463.78787834,0,42.0,42.0,?
2017-07-31 19:13:56.718677,4621.42424196,0,4324.69696926,0,3889.90909052,0,3999.12121172,0,4441.12121168,0,4616.78787833,0,4318.51515108,0,4372.09090865,0,5009.84848435,0,4353.54545411,0,3998.60606021,0,4289.15151472,0,4905.27272678,0,4459.66666622,0,42.0,42.0,?
2017-07-31 19:13:56.721932,4615.7575753,0,4315.93939351,0,3883.21212082,0,3988.3030299,0,4440.60606016,0,4606.48484802,0,4304.60606018,0,4376.21212077,0,4990.27272677,0,4346.84848441,0,3995.51515112,0,4290.69696927,0,4900.63636315,0,4456.06060561,0,42.0,42.0,?
2017-07-31 19:13:56.724911,4617.81818136,0,4321.60606017,0,3878.06060567,0,3981.09090869,0,4450.90909046,0,4617.81818136,0,4299.45454502,0,4370.03030259,0,4979.96969647,0,4336.54545411,0,3998.60606021,0,4289.15151472,0,4902.18181769,0,4451.93939349,0,42.0,42.0,?
2017-07-31 19:13:56.729993,4614.21212075,0,4320.06060563,0,3882.69696931,0,3990.36363596,0,4465.33333289,0,4623.99999954,0,4318.51515108,0,4379.81818138,0,5003.15151465,0,4356.12121169,0,4004.78787839,0,4292.75757533,0,4904.24242375,0,4455.5454541,0,42.0,42.0,?
2017-07-31 19:13:56.737108,4617.81818136,0,4321.60606017,0,3884.24242385,0,3991.90909051,0,4464.30302986,0,4611.63636318,0,4316.45454502,0,4382.90909047,0,5003.15151465,0,4375.18181774,0,4009.42424202,0,4295.3333329,0,4907.33333284,0,4456.06060561,0,42.0,42.0,?
2017-07-31 19:13:56.746691,4628.63636317,0,4324.69696926,0,3890.42424204,0,3997.06060566,0,4453.99999955,0,4603.90909045,0,4304.09090866,0,4383.42424199,0,4990.78787829,0,4371.06060562,0,4017.66666626,0,4291.7272723,0,4918.66666617,0,4462.2424238,0,42.0,42.0,?
2017-07-31 19:13:56.753024,4632.24242378,0,4322.12121169,0,3899.18181779,0,4011.48484808,0,4452.45454501,0,4609.0606056,0,4319.0303026,0,4405.57575714,0,5013.45454495,0,4378.78787835,0,4030.54545414,0,4293.78787836,0,4927.93939345,0,4477.18181773,0,42.0,42.0,?
2017-07-31 19:13:56.761149,4638.42424196,0,4332.93939351,0,3890.93939355,0,3985.21212081,0,4451.42424198,0,4618.84848439,0,4329.3333329,0,4408.66666623,0,5023.75757526,0,4381.87878744,0,4034.66666626,0,4295.84848442,0,4927.93939345,0,4476.1515147,0,42.0,42.0,?
2017-07-31 19:13:56.768693,4628.63636317,0,4325.21212078,0,3887.84848446,0,3956.87878748,0,4458.63636319,0,4628.63636317,0,4321.60606017,0,4391.15151471,0,5011.90909041,0,4373.6363632,0,4030.03030263,0,4291.7272723,0,4918.66666617,0,4467.39393895,0,42.0,42.0,?
2017-07-31 19:13:56.784683,4620.39393893,0,4319.54545411,0,3890.42424204,0,3989.84848445,0,4469.45454501,0,4623.48484802,0,4303.57575715,0,4376.72727229,0,5009.84848435,0,4369.51515108,0,4025.90909051,0,4290.18181775,0,4907.84848436,0,4462.2424238,0,42.0,42.0,?
2017-07-31 19:13:56.784954,4621.93939348,0,4325.72727229,0,3884.24242385,0,4022.3030299,0,4468.42424198,0,4608.54545408,0,4291.7272723,0,4361.78787835,0,4995.42424192,0,4358.18181775,0,4024.87878748,0,4292.24242381,0,4906.81818133,0,4457.60606016,0,42.0,42.0,?
2017-07-31 19:13:56.804563,4612.15151469,0,4317.99999957,0,3880.63636325,0,3995.51515112,0,4463.27272683,0,4609.0606056,0,4301.51515109,0,4356.6363632,0,4975.84848435,0,4347.87878744,0,4027.45454505,0,4291.7272723,0,4909.3939389,0,4458.63636319,0,42.0,42.0,?
2017-07-31 19:13:56.808014,4615.24242378,0,4320.57575714,0,3878.57575719,0,3972.33333294,0,4458.63636319,0,4611.63636318,0,4305.63636321,0,4366.9393935,0,4980.9999995,0,4351.99999956,0,4031.06060566,0,4290.69696927,0,4909.90909042,0,4458.63636319,0,42.0,42.0,?
2017-07-31 19:13:56.818810,4614.72727227,0,4317.99999957,0,3878.06060567,0,3986.75757536,0,4456.06060561,0,4598.24242378,0,4297.90909048,0,4374.15151471,0,4992.84848435,0,4355.60606017,0,4030.03030263,0,4290.18181775,0,4910.93939345,0,4454.51515107,0,42.0,42.0,?
2017-07-31 19:13:56.823304,4605.45454499,0,4313.36363593,0,3874.96969658,0,3984.18181778,0,4444.72727228,0,4581.7575753,0,4290.18181775,0,4363.84848441,0,4976.87878738,0,4344.78787835,0,4025.90909051,0,4290.69696927,0,4903.72727224,0,4447.30302986,0,42.0,42.0,?
2017-07-31 19:13:56.826799,4610.60606014,0,4318.51515108,0,3873.93939355,0,3977.9999996,0,4445.75757531,0,4591.03030257,0,4299.45454502,0,4367.96969653,0,4975.33333284,0,4346.84848441,0,4027.45454505,0,4295.84848442,0,4894.96969648,0,4447.81818137,0,42.0,42.0,?
2017-07-31 19:13:56.833741,4613.69696924,0,4315.93939351,0,3882.18181779,0,3994.48484809,0,4461.72727228,0,4612.66666621,0,4320.57575714,0,4404.54545411,0,5014.9999995,0,4363.3333329,0,4037.75757535,0,4296.36363593,0,4904.75757527,0,4460.18181774,0,42.0,42.0,?
2017-07-31 19:13:56.838905,4617.81818136,0,4322.6363632,0,3880.63636325,0,3993.45454506,0,4457.60606016,0,4612.15151469,0,4321.60606017,0,4414.84848441,0,5025.3030298,0,4353.03030259,0,4047.03030263,0,4294.81818139,0,4921.24242375,0,4460.18181774,0,42.0,42.0,?
2017-07-31 19:13:56.847792,4616.78787833,0,4320.06060563,0,3877.54545416,0,3982.63636324,0,4451.93939349,0,4608.03030257,0,4316.96969654,0,4389.60606017,0,5006.75757526,0,4340.15151472,0,4050.63636323,0,4295.84848442,0,4922.7878783,0,4455.03030258,0,42.0,42.0,?
2017-07-31 19:13:56.854026,4615.7575753,0,4314.90909048,0,3884.24242385,0,3992.93939354,0,4464.81818137,0,4618.33333287,0,4319.54545411,0,4378.78787835,0,5001.60606011,0,4348.39393896,0,4054.24242384,0,4293.27272684,0,4918.15151466,0,4461.21212077,0,42.0,42.0,?
2017-07-31 19:13:56.861939,4619.3636359,2975.51515122,4323.66666623,0,3887.84848446,0,3987.27272687,0,4460.18181774,0,4620.90909045,0,4311.30302987,0,4380.3333329,0,4994.90909041,0,4346.3333329,0,4055.27272687,0,4288.63636321,0,4917.12121163,0,4461.72727228,0,42.0,42.0,?
2017-07-31 19:13:56.872123,4605.96969651,2975.51515122,4315.93939351,2818.90909063,3884.75757537,0,3961.51515112,0,4444.21212077,0,4607.51515105,0,4293.78787836,0,4365.39393896,0,4970.18181768,0,4327.27272684,0,4050.63636323,0,4289.15151472,0,4912.48484799,0,4455.5454541,0,42.0,42.0,?
2017-07-31 19:13:56.878987,4604.93939348,2975.51515122,4315.42424199,2818.90909063,3880.12121173,0,3969.75757536,0,4443.18181774,0,4596.69696924,0,4282.45454503,0,4347.36363593,0,4961.93939344,0,4319.0303026,0,4048.57575717,0,4293.78787836,0,4903.21212072,0,4453.48484804,4150.06060565,42.0,42.0,?
2017-07-31 19:13:56.887591,4609.57575711,2975.51515122,4315.93939351,2818.90909063,3879.0909087,300.848484818,3998.09090869,0,4439.06060562,0,4587.42424197,0,4284.51515109,0,4356.12121169,0,4988.72727223,0,4340.66666623,0,4049.09090869,0,4294.81818139,0,4890.33333284,0,4454.51515107,4150.06060565,42.0,42.0,?
2017-07-31 19:13:56.893931,4602.3636359,2975.51515122,4309.24242381,2818.90909063,3872.90909052,300.848484818,3984.6969693,482.181818134,4428.2424238,0,4570.93939348,0,4288.12121169,0,4368.99999956,0,4998.51515102,0,4343.75757532,0,4045.9999996,0,4289.15151472,0,4885.69696921,0,4448.8484844,4150.06060565,42.0,42.0,?
2017-07-31 19:13:56.905000,4608.54545408,2975.51515122,4316.45454502,2818.90909063,3866.21212083,300.848484818,3968.21212082,482.181818134,4434.42424198,189.575757557,4573.51515106,0,4284.51515109,0,4368.48484805,0,4985.63636314,0,4319.0303026,0,4052.18181778,0,4286.06060563,0,4900.63636315,0,4446.78787834,4150.06060565,42.0,42.0,?
2017-07-31 19:13:56.909849,4610.60606014,2975.51515122,4314.90909048,2818.90909063,3874.45454507,300.848484818,3987.27272687,482.181818134,4446.27272683,189.575757557,4594.63636318,358.54545451,4290.69696927,0,4374.15151471,0,4981.51515102,0,4326.24242381,0,4065.57575717,0,4290.69696927,0,4912.48484799,0,4455.03030258,4150.06060565,42.0,42.0,?
2017-07-31 19:13:56.919403,4610.60606014,2975.51515122,4316.45454502,2818.90909063,3875.99999961,300.848484818,3988.81818142,482.181818134,4435.45454501,189.575757557,4590.51515106,358.54545451,4298.93939351,3639.03030267,4374.66666623,0,4977.90909041,0,4345.30302987,0,4066.09090868,0,4295.3333329,0,4904.75757527,0,4454.51515107,4150.06060565,42.0,42.0,?
2017-07-31 19:13:56.926204,4607.51515105,2975.51515122,4316.96969654,2818.90909063,3872.39393901,300.848484818,3980.06060566,482.181818134,4430.81818138,189.575757557,4585.87878742,358.54545451,4303.57575715,3639.03030267,4379.30302987,3041.45454515,4987.6969692,0,4341.18181775,0,4061.96969656,0,4293.27272684,0,4896.51515103,0,4449.87878743,4150.06060565,42.0,42.0,?
2017-07-31 19:13:56.935666,4601.84848439,2975.51515122,4310.27272684,2818.90909063,3876.51515113,300.848484818,3988.3030299,482.181818134,4439.57575713,189.575757557,4602.87878742,358.54545451,4306.15151472,3639.03030267,4395.27272683,3041.45454515,5010.87878738,3127.99999969,4332.93939351,0,4066.09090868,0,4286.57575715,0,4903.72727224,0,4455.03030258,4150.06060565,42.0,42.0,?
2017-07-31 19:13:56.940922,4613.69696924,2975.51515122,4317.99999957,2818.90909063,3875.99999961,300.848484818,3974.393939,482.181818134,4429.78787834,189.575757557,4599.27272681,358.54545451,4294.81818139,3639.03030267,4384.45454502,3041.45454515,5003.15151465,3127.99999969,4338.09090866,115.393939382,4073.3030299,0,4290.18181775,0,4909.3939389,0,4457.60606016,4150.06060565,42.0,42.0,?
2017-07-31 19:13:56.950530,4617.30302984,2975.51515122,4315.42424199,2818.90909063,3877.54545416,300.848484818,3954.30302991,482.181818134,4425.15151471,189.575757557,4587.42424197,358.54545451,4296.36363593,3639.03030267,4377.75757532,3041.45454515,4997.48484799,3127.99999969,4353.03030259,115.393939382,4081.03030262,3581.33333298,4295.84848442,0,4906.81818133,0,4461.21212077,4150.06060565,42.0,42.0,?
2017-07-31 19:13:56.964963,4612.15151469,2975.51515122,4313.87878745,2818.90909063,3878.06060567,300.848484818,3976.96969657,482.181818134,4436.99999956,189.575757557,4588.454545,358.54545451,4303.06060563,3639.03030267,4390.12121168,3041.45454515,5007.27272677,3127.99999969,4338.09090866,115.393939382,4088.24242383,3581.33333298,4287.60606018,2814.78787851,4914.54545405,0,4465.33333289,4150.06060565,42.0,42.0,?
2017-07-31 19:13:56.969702,4612.66666621,2975.51515122,4316.96969654,2818.90909063,3873.42424204,300.848484818,4007.87878748,482.181818134,4444.72727228,189.575757557,4585.87878742,358.54545451,4296.87878745,3639.03030267,4383.9393935,3041.45454515,5000.57575708,3127.99999969,4320.06060563,115.393939382,4086.18181777,3581.33333298,4286.57575715,2814.78787851,4913.51515102,3305.21212088,4463.27272683,4150.06060565,42.0,42.0,?
2017-07-31 19:13:56.974011,4604.42424196,2975.51515122,4308.21212078,2818.90909063,3872.39393901,300.848484818,3994.9999996,482.181818134,4441.63636319,189.575757557,4584.33333287,358.54545451,4298.42424199,3639.03030267,4367.45454502,3041.45454515,4997.9999995,3127.99999969,4340.66666623,127.757575745,4077.42424202,3581.33333298,4294.81818139,2814.78787851,4890.33333284,3305.21212088,4460.69696925,4150.06060565,42.0,42.0,?
2017-07-31 19:13:56.979099,4600.30302984,2975.51515122,4310.78787836,2818.90909063,3867.24242386,300.848484818,3963.57575718,482.181818134,4432.36363592,189.575757557,4584.33333287,358.54545451,4293.78787836,3639.03030267,4362.81818138,3041.45454515,4997.48484799,3127.99999969,4351.99999956,127.757575745,4074.33333293,3589.57575722,4290.18181775,2814.78787851,4883.12121163,3305.21212088,4454.51515107,4150.06060565,42.0,42.0,?
2017-07-31 19:13:56.988399,4599.27272681,2975.51515122,4311.81818139,2818.90909063,3868.27272689,300.848484818,3970.78787839,482.181818134,4430.81818138,189.575757557,4582.27272681,358.54545451,4285.54545412,3639.03030267,4373.12121168,3041.45454515,4985.63636314,3127.99999969,4334.99999957,127.757575745,4081.54545414,3589.57575722,4284.51515109,2814.78787851,4903.21212072,3305.21212088,4455.03030258,4150.06060565,42.0,42.0,?
2017-07-31 19:13:56.995652,4602.87878742,2975.51515122,4314.39393896,2818.90909063,3871.36363598,300.848484818,3981.09090869,482.181818134,4432.87878744,189.575757557,4587.93939348,358.54545451,4291.21212078,3639.03030267,4378.78787835,3041.45454515,4980.9999995,3127.99999969,4323.15151472,127.757575745,4085.15151474,3589.57575722,4290.69696927,2814.78787851,4909.3939389,3305.21212088,4456.06060561,4150.06060565,42.0,42.0,?
2017-07-31 19:13:57.004310,4608.54545408,2975.51515122,4317.99999957,2818.90909063,3867.75757537,300.848484818,3965.12121172,482.181818134,4434.42424198,189.575757557,4596.69696924,358.54545451,4303.57575715,3639.03030267,4381.36363593,3041.45454515,4994.39393889,3127.99999969,4333.96969654,127.757575745,4077.42424202,3589.57575722,4295.84848442,2814.78787851,4897.54545406,3305.21212088,4447.81818137,4150.06060565,42.0,42.0,?
2017-07-31 19:13:57.011942,4605.45454499,2975.51515122,4308.7272723,2818.90909063,3870.33333295,300.848484818,3967.18181779,482.181818134,4433.39393895,189.575757557,4592.57575712,358.54545451,4305.63636321,3639.03030267,4383.42424199,3041.45454515,5000.57575708,3127.99999969,4343.75757532,127.757575745,4080.51515111,3589.57575722,4294.30302987,2814.78787851,4899.0909086,3305.21212088,4445.2424238,4150.06060565,42.0,42.0,?
2017-07-31 19:13:57.019876,4612.15151469,2975.51515122,4314.90909048,2818.90909063,3873.42424204,300.848484818,3980.06060566,482.181818134,4426.18181774,189.575757557,4589.99999954,358.54545451,4293.27272684,3639.03030267,4374.15151471,3041.45454515,4993.36363586,3127.99999969,4332.93939351,127.757575745,4092.87878747,3589.57575722,4288.12121169,2814.78787851,4909.90909042,3305.21212088,4446.78787834,4150.06060565,42.0,42.0,?
2017-07-31 19:13:57.026201,4610.09090863,2975.51515122,4313.87878745,2818.90909063,3873.93939355,300.848484818,3984.18181778,482.181818134,4431.33333289,189.575757557,4598.24242378,358.54545451,4299.96969654,3639.03030267,4384.45454502,3041.45454515,5007.27272677,3127.99999969,4321.60606017,127.757575745,4092.87878747,3589.57575722,4283.48484806,2814.78787851,4908.36363587,3305.21212088,4449.87878743,4150.06060565,42.0,42.0,?
2017-07-31 19:13:57.035690,4600.81818136,2975.51515122,4305.12121169,2818.90909063,3871.36363598,300.848484818,3979.54545415,482.181818134,4440.09090865,189.575757557,4598.24242378,358.54545451,4307.69696927,3639.03030267,4399.90909047,3041.45454515,5017.57575707,3127.99999969,4325.21212078,127.757575745,4091.33333292,3589.57575722,4290.18181775,2814.78787851,4899.60606012,3305.21212088,4450.90909046,4150.06060565,42.0,42.0,?
2017-07-31 19:13:57.042557,4607.51515105,2975.51515122,4313.87878745,2818.90909063,3868.7878784,300.848484818,3969.24242385,482.181818134,4436.99999956,189.575757557,4593.09090863,358.54545451,4293.27272684,3639.03030267,4379.30302987,3041.45454515,4994.90909041,3127.99999969,4339.12121169,127.757575745,4102.15151474,3589.57575722,4298.93939351,2814.78787851,4899.0909086,3305.21212088,4449.87878743,4150.06060565,42.0,42.0,?
2017-07-31 19:13:57.050559,4603.90909045,2975.51515122,4310.78787836,2818.90909063,3874.45454507,300.848484818,3965.12121172,482.181818134,4428.2424238,189.575757557,4588.96969651,358.54545451,4288.63636321,3639.03030267,4359.72727229,3041.45454515,4987.6969692,3127.99999969,4343.75757532,127.757575745,4107.30302989,3589.57575722,4295.84848442,2814.78787851,4897.54545406,3305.21212088,4450.90909046,4150.06060565,42.0,42.0,?
2017-07-31 19:13:57.059599,4600.81818136,2975.51515122,4309.75757533,2818.90909063,3877.54545416,300.848484818,3965.63636324,482.181818134,4413.30302986,189.575757557,4577.63636318,358.54545451,4292.24242381,3639.03030267,4367.45454502,3041.45454515,4993.36363586,3127.99999969,4332.42424199,127.757575745,4099.06060565,3589.57575722,4288.63636321,2814.78787851,4887.24242375,3305.21212088,4448.33333289,4150.06060565,42.0,42.0,?
2017-07-31 19:13:57.069301,4601.84848439,2975.51515122,4308.21212078,2818.90909063,3879.60606022,300.848484818,3980.57575718,482.181818134,4413.81818138,189.575757557,4578.15151469,358.54545451,4286.57575715,3639.03030267,4373.12121168,3041.45454515,4980.9999995,3127.99999969,4323.66666623,127.757575745,4096.48484808,3589.57575722,4288.12121169,2814.78787851,4888.7878783,3305.21212088,4445.75757531,4150.06060565,42.0,42.0,?
2017-07-31 19:13:57.081519,4597.72727227,2975.51515122,4305.12121169,2818.90909063,3877.03030264,300.848484818,3990.36363596,482.181818134,4427.72727228,189.575757557,4585.87878742,358.54545451,4284.51515109,3639.03030267,4372.09090865,3041.45454515,4970.18181768,3127.99999969,4317.99999957,127.757575745,4105.75757535,3589.57575722,4290.69696927,2814.78787851,4901.66666618,3305.21212088,4445.75757531,4150.06060565,42.0,42.0,?
2017-07-31 19:13:57.085886,4598.24242378,2975.51515122,4311.81818139,2818.90909063,3866.72727234,300.848484818,3979.54545415,482.181818134,4434.42424198,189.575757557,4581.7575753,358.54545451,4295.3333329,3639.03030267,4376.21212077,3041.45454515,4978.42424193,3127.99999969,4310.27272684,127.757575745,4106.27272686,3589.57575722,4291.21212078,2814.78787851,4898.06060557,3305.21212088,4443.18181774,4150.06060565,42.0,42.0,?
2017-07-31 19:13:57.088929,4593.09090863,2975.51515122,4305.63636321,2818.90909063,3869.30302992,300.848484818,3968.72727233,482.181818134,4435.96969653,189.575757557,4582.78787833,358.54545451,4304.09090866,3639.03030267,4383.42424199,3041.45454515,4999.54545405,3127.99999969,4324.69696926,127.757575745,4090.30302989,3589.57575722,4289.15151472,2814.78787851,4875.90909042,3305.21212088,4445.75757531,4150.06060565,42.0,42.0,?
2017-07-31 19:13:57.097604,4597.72727227,2975.51515122,4309.75757533,2818.90909063,3874.45454507,300.848484818,3954.30302991,482.181818134,4426.69696925,189.575757557,4592.57575712,358.54545451,4299.96969654,3639.03030267,4384.45454502,3041.45454515,5008.3030298,3127.99999969,4322.6363632,127.757575745,4083.09090868,3589.57575722,4281.424242,2814.78787851,4885.69696921,3305.21212088,4449.36363592,4150.06060565,42.0,42.0,?
2017-07-31 19:13:57.105573,4601.84848439,2975.51515122,4314.90909048,2818.90909063,3873.42424204,300.848484818,3954.81818142,482.181818134,4422.06060562,189.575757557,4598.7575753,358.54545451,4297.39393896,3639.03030267,4384.45454502,3041.45454515,5007.27272677,3127.99999969,4295.84848442,127.757575745,4083.09090868,3589.57575722,4286.06060563,2814.78787851,4905.27272678,3305.21212088,4448.8484844,4150.06060565,42.0,42.0,?
2017-07-31 19:13:57.113657,4592.0606056,2975.51515122,4306.66666624,2818.90909063,3872.39393901,300.848484818,3987.78787839,482.181818134,4439.57575713,189.575757557,4605.45454499,358.54545451,4301.51515109,3639.03030267,4376.21212077,3041.45454515,4997.9999995,3127.99999969,4306.66666624,127.757575745,4074.33333293,3589.57575722,4293.78787836,2814.78787851,4884.66666618,3305.21212088,4447.30302986,4150.06060565,42.0,42.0,?
2017-07-31 19:13:57.120452,4598.7575753,2975.51515122,4308.7272723,2818.90909063,3868.27272689,300.848484818,4009.93939354,482.181818134,4439.57575713,189.575757557,4599.78787833,358.54545451,4306.66666624,3639.03030267,4377.75757532,3041.45454515,4990.78787829,3127.99999969,4327.27272684,127.757575745,4072.27272687,3589.57575722,4289.15151472,2814.78787851,4877.96969648,3305.21212088,4444.72727228,4150.06060565,42.0,42.0,?
2017-07-31 19:13:57.130090,4601.84848439,2975.51515122,4306.15151472,2818.90909063,3869.30302992,300.848484818,3983.66666627,482.181818134,4417.42424198,189.575757557,4586.39393894,358.54545451,4308.21212078,3639.03030267,4404.03030259,3041.45454515,5016.54545404,3127.99999969,4325.21212078,127.757575745,4083.09090868,3589.57575722,4289.66666624,2814.78787851,4895.484848,3305.21212088,4446.78787834,4150.06060565,42.0,42.0,?
2017-07-31 19:13:57.136574,4598.7575753,2975.51515122,4307.69696927,2818.90909063,3872.90909052,300.848484818,3951.72727233,482.181818134,4406.60606017,189.575757557,4579.18181772,358.54545451,4291.21212078,3639.03030267,4391.15151471,3041.45454515,5019.12121162,3127.99999969,4319.54545411,127.757575745,4088.75757535,3589.57575722,4294.30302987,2814.78787851,4889.81818133,3305.21212088,4448.33333289,4150.06060565,42.0,42.0,?
2017-07-31 19:13:57.145408,4602.87878742,2975.51515122,4310.78787836,2818.90909063,3873.93939355,300.848484818,3959.96969657,482.181818134,4412.27272683,189.575757557,4576.09090863,358.54545451,4272.66666624,3639.03030267,4350.45454502,3041.45454515,4978.42424193,3127.99999969,4312.84848442,127.757575745,4086.18181777,3589.57575722,4288.63636321,2814.78787851,4883.12121163,3305.21212088,4448.8484844,4150.06060565,42.0,42.0,?
2017-07-31 19:13:57.152090,4604.93939348,2975.51515122,4306.15151472,2818.90909063,3875.4848481,300.848484818,3976.45454506,482.181818134,4423.09090865,189.575757557,4585.36363591,358.54545451,4280.90909048,3639.03030267,4364.87878744,3041.45454515,4979.45454496,3127.99999969,4307.18181775,127.757575745,4090.81818141,3589.57575722,4286.06060563,2814.78787851,4899.60606012,3305.21212088,4455.5454541,4150.06060565,42.0,42.0,?
2017-07-31 19:13:57.160689,4612.15151469,2975.51515122,4315.93939351,2818.90909063,3875.4848481,300.848484818,3970.78787839,482.181818134,4424.63636319,189.575757557,4593.09090863,358.54545451,4288.63636321,3639.03030267,4387.54545411,3041.45454515,5008.81818132,3127.99999969,4311.30302987,127.757575745,4095.96969656,3589.57575722,4293.78787836,2814.78787851,4902.69696921,3305.21212088,4456.06060561,4150.06060565,42.0,42.0,?
2017-07-31 19:13:57.167256,4605.96969651,2975.51515122,4312.3333329,2818.90909063,3876.51515113,300.848484818,3968.21212082,482.181818134,4423.09090865,189.575757557,4586.90909045,358.54545451,4292.24242381,3639.03030267,4372.09090865,3041.45454515,4996.96969647,3127.99999969,4314.90909048,127.757575745,4092.36363595,3589.57575722,4291.21212078,2814.78787851,4893.93939345,3305.21212088,4451.93939349,4150.06060565,42.0,42.0,?
2017-07-31 19:13:57.174978,4598.7575753,2975.51515122,4305.12121169,2818.90909063,3871.36363598,300.848484818,3976.45454506,482.181818134,4418.45454501,189.575757557,4582.27272681,358.54545451,4298.93939351,3639.03030267,4364.87878744,3041.45454515,4977.90909041,3127.99999969,4299.96969654,127.757575745,4090.81818141,3589.57575722,4286.57575715,2814.78787851,4897.03030254,3305.21212088,4448.33333289,4150.06060565,42.0,42.0,?
2017-07-31 19:13:57.184957,4602.3636359,2975.51515122,4311.81818139,2818.90909063,3869.30302992,300.848484818,3974.393939,482.181818134,4410.72727229,189.575757557,4584.84848439,358.54545451,4298.93939351,3639.03030267,4377.75757532,3041.45454515,4996.45454495,3127.99999969,4295.84848442,127.757575745,4095.96969656,3589.57575722,4293.78787836,2814.78787851,4894.45454497,3305.21212088,4445.75757531,4150.06060565,42.0,42.0,?
2017-07-31 19:13:57.191343,4596.18181772,2975.51515122,4307.18181775,2818.90909063,3877.54545416,300.848484818,3968.21212082,482.181818134,4415.36363592,189.575757557,4591.54545409,358.54545451,4295.84848442,3639.03030267,4387.03030259,3041.45454515,5018.6060601,3127.99999969,4310.27272684,127.757575745,4097.51515111,3589.57575722,4293.78787836,2814.78787851,4887.24242375,3305.21212088,4452.45454501,4150.06060565,42.0,42.0,?
2017-07-31 19:13:57.200053,4602.3636359,2975.51515122,4309.75757533,2818.90909063,3875.4848481,300.848484818,3970.78787839,482.181818134,4423.09090865,189.575757557,4596.18181772,358.54545451,4290.69696927,3639.03030267,4378.78787835,3041.45454515,5007.78787829,3127.99999969,4306.66666624,127.757575745,4099.06060565,3589.57575722,4287.60606018,2814.78787851,4891.87878739,3305.21212088,4456.06060561,4150.06060565,42.0,42.0,?
2017-07-31 19:13:57.206940,4608.03030257,2975.51515122,4308.21212078,2818.90909063,3869.30302992,300.848484818,3988.3030299,482.181818134,4424.63636319,189.575757557,4594.63636318,358.54545451,4295.84848442,3639.03030267,4374.15151471,3041.45454515,4987.18181768,3127.99999969,4301.51515109,127.757575745,4111.42424201,3589.57575722,4291.7272723,2814.78787851,4902.69696921,3305.21212088,4453.99999955,4150.06060565,42.0,42.0,?
2017-07-31 19:13:57.215572,4602.3636359,2975.51515122,4304.60606018,2818.90909063,3872.39393901,300.848484818,3992.42424203,482.181818134,4417.9393935,189.575757557,4587.93939348,358.54545451,4305.12121169,3639.03030267,4392.18181774,3041.45454515,4991.3030298,3127.99999969,4309.75757533,127.757575745,4118.12121171,3589.57575722,4294.30302987,2814.78787851,4905.7878783,3305.21212088,4455.5454541,4150.06060565,42.0,42.0,?
2017-07-31 19:13:57.223359,4608.03030257,2975.51515122,4311.30302987,2818.90909063,3874.45454507,300.848484818,3960.48484809,482.181818134,4407.6363632,189.575757557,4586.39393894,358.54545451,4299.96969654,3639.03030267,4409.18181774,3041.45454515,5021.69696919,3127.99999969,4314.90909048,127.757575745,4113.99999959,3589.57575722,4290.18181775,2814.78787851,4900.63636315,3305.21212088,4458.63636319,4150.06060565,42.0,42.0,?
2017-07-31 19:13:57.233372,4608.03030257,2975.51515122,4305.12121169,2818.90909063,3874.96969658,300.848484818,3948.12121173,482.181818134,4408.66666623,189.575757557,4587.42424197,358.54545451,4295.84848442,3639.03030267,4398.36363592,3041.45454515,5036.63636313,3127.99999969,4310.27272684,127.757575745,4116.06060565,3589.57575722,4287.60606018,2814.78787851,4893.93939345,3305.21212088,4461.72727228,4150.06060565,42.0,42.0,?
2017-07-31 19:13:57.238545,4610.09090863,2975.51515122,4306.66666624,2818.90909063,3873.93939355,300.848484818,3964.60606021,482.181818134,4415.87878744,189.575757557,4588.454545,358.54545451,4298.42424199,3639.03030267,4385.48484805,3041.45454515,5014.9999995,3127.99999969,4302.0303026,127.757575745,4123.27272686,3589.57575722,4290.69696927,2814.78787851,4900.63636315,3305.21212088,4461.21212077,4150.06060565,42.0,42.0,?
2017-07-31 19:13:57.244886,4614.21212075,2975.51515122,4309.75757533,2818.90909063,3875.99999961,300.848484818,3988.3030299,482.181818134,4429.27272683,189.575757557,4604.93939348,358.54545451,4311.30302987,3639.03030267,4403.51515107,3041.45454515,5007.78787829,3127.99999969,4308.21212078,127.757575745,4124.30302989,3589.57575722,4294.30302987,2814.78787851,4911.96969648,3305.21212088,4461.72727228,4150.06060565,42.0,42.0,?
2017-07-31 19:13:57.253556,4608.03030257,2975.51515122,4304.60606018,2818.90909063,3879.0909087,300.848484818,3995.51515112,482.181818134,4432.36363592,189.575757557,4612.66666621,358.54545451,4314.39393896,3639.03030267,4406.60606017,3041.45454515,5009.84848435,3127.99999969,4308.7272723,127.757575745,4120.69696928,3589.57575722,4289.66666624,2814.78787851,4904.75757527,3305.21212088,4457.60606016,4150.06060565,42.0,42.0,?
2017-07-31 19:13:57.262703,4605.96969651,2975.51515122,4309.24242381,2818.90909063,3877.54545416,300.848484818,3976.45454506,482.181818134,4422.57575713,189.575757557,4603.90909045,358.54545451,4298.93939351,3639.03030267,4378.78787835,3041.45454515,4987.6969692,3127.99999969,4291.21212078,127.757575745,4121.72727232,3589.57575722,4290.69696927,2814.78787851,4897.54545406,3305.21212088,4450.90909046,4150.06060565,42.0,42.0,?
2017-07-31 19:13:57.269604,4599.78787833,2975.51515122,4306.66666624,2818.90909063,3881.15151476,300.848484818,3969.24242385,482.181818134,4425.66666622,189.575757557,4601.33333287,358.54545451,4292.75757533,3639.03030267,4372.09090865,3041.45454515,4983.06060556,3127.99999969,4294.30302987,127.757575745,4121.72727232,3589.57575722,4295.84848442,2814.78787851,4896.51515103,3305.21212088,4452.96969652,4150.06060565,42.0,42.0,?
2017-07-31 19:13:57.278302,4600.81818136,2975.51515122,4309.75757533,2818.90909063,3880.12121173,300.848484818,3985.21212081,482.181818134,4429.78787834,189.575757557,4596.18181772,358.54545451,4291.21212078,3639.03030267,4381.87878744,3041.45454515,4992.84848435,3127.99999969,4303.06060563,127.757575745,4121.72727232,3589.57575722,4290.18181775,2814.78787851,4894.45454497,3305.21212088,4452.96969652,4150.06060565,42.0,42.0,?
2017-07-31 19:13:57.284864,4602.87878742,2975.51515122,4310.78787836,2818.90909063,3873.93939355,300.848484818,4004.78787839,482.181818134,4432.36363592,189.575757557,4594.12121166,358.54545451,4291.7272723,3639.03030267,4390.6363632,3041.45454515,4991.81818132,3127.99999969,4295.84848442,127.757575745,4128.93939353,3589.57575722,4285.54545412,2814.78787851,4900.63636315,3305.21212088,4449.87878743,4150.06060565,42.0,42.0,?
2017-07-31 19:13:57.298722,4594.63636318,2975.51515122,4300.99999957,2818.90909063,3867.75757537,300.848484818,3999.63636324,482.181818134,4433.39393895,189.575757557,4594.12121166,358.54545451,4302.54545412,3639.03030267,4395.78787835,3041.45454515,5004.18181768,3127.99999969,4297.39393896,127.757575745,4132.54545413,3589.57575722,4292.75757533,2814.78787851,4899.60606012,3305.21212088,4451.93939349,4150.06060565,42.0,42.0,?
2017-07-31 19:13:57.300941,4602.87878742,2975.51515122,4308.21212078,2818.90909063,3866.72727234,300.848484818,3965.12121172,482.181818134,4412.78787835,189.575757557,4575.0606056,358.54545451,4303.57575715,3639.03030267,4398.87878744,3041.45454515,5025.81818132,3127.99999969,4304.60606018,127.757575745,4133.57575716,3589.57575722,4291.7272723,2814.78787851,4899.60606012,3305.21212088,4453.48484804,4150.06060565,42.0,42.0,?
2017-07-31 19:13:57.309710,4607.51515105,2975.51515122,4307.18181775,2818.90909063,3877.54545416,300.848484818,3947.60606021,482.181818134,4394.2424238,189.575757557,4560.63636318,358.54545451,4294.30302987,3639.03030267,4410.72727229,3041.45454515,5029.93939344,3127.99999969,4298.93939351,127.757575745,4143.87878746,3589.57575722,4287.09090866,2814.78787851,4910.42424193,3305.21212088,4457.09090865,4150.06060565,42.0,42.0,?
2017-07-31 19:13:57.318587,4602.87878742,2975.51515122,4305.63636321,2818.90909063,3879.60606022,300.848484818,3976.96969657,482.181818134,4404.03030259,189.575757557,4573.51515106,358.54545451,4286.57575715,3639.03030267,4404.54545411,3041.45454515,5009.84848435,3127.99999969,4288.12121169,127.757575745,4150.57575716,3589.57575722,4293.27272684,2814.78787851,4908.36363587,3305.21212088,4455.5454541,4150.06060565,42.0,42.0,?
2017-07-31 19:13:57.329502,4602.87878742,2975.51515122,4308.7272723,2818.90909063,3873.42424204,300.848484818,4016.12121172,482.181818134,4418.96969653,189.575757557,4588.454545,358.54545451,4290.69696927,3639.03030267,4383.9393935,3041.45454515,5002.63636314,3127.99999969,4292.75757533,127.757575745,4145.93939352,3589.57575722,4293.27272684,2814.78787851,4898.06060557,3305.21212088,4454.51515107,4150.06060565,42.0,42.0,?
2017-07-31 19:13:57.335559,4600.30302984,2975.51515122,4300.48484805,2818.90909063,3872.90909052,300.848484818,4004.27272687,482.181818134,4412.27272683,189.575757557,4587.42424197,358.54545451,4296.87878745,3639.03030267,4383.9393935,3041.45454515,5012.42424192,3127.99999969,4298.93939351,127.757575745,4144.90909049,3589.57575722,4287.60606018,2814.78787851,4897.54545406,3305.21212088,4459.66666622,4150.06060565,42.0,42.0,?
2017-07-31 19:13:57.339578,4602.87878742,2975.51515122,4303.57575715,2818.90909063,3865.69696931,300.848484818,3968.72727233,482.181818134,4406.09090865,189.575757557,4580.21212075,358.54545451,4287.60606018,3639.03030267,4380.84848441,3041.45454515,5000.57575708,3127.99999969,4290.69696927,127.757575745,4146.45454504,3589.57575722,4288.63636321,2814.78787851,4895.484848,3305.21212088,4455.5454541,4150.06060565,42.0,42.0,?
2017-07-31 19:13:57.349769,4600.81818136,2975.51515122,4305.12121169,2818.90909063,3867.75757537,300.848484818,3960.48484809,482.181818134,4419.48484804,189.575757557,4596.18181772,358.54545451,4283.99999957,3639.03030267,4371.06060562,3041.45454515,4982.03030253,3127.99999969,4287.09090866,127.757575745,4145.93939352,3589.57575722,4291.21212078,2814.78787851,4891.36363587,3305.21212088,4453.99999955,4150.06060565,42.0,42.0,?
2017-07-31 19:13:57.356142,4602.87878742,2975.51515122,4306.66666624,2818.90909063,3882.18181779,300.848484818,3966.66666627,482.181818134,4419.99999956,189.575757557,4617.81818136,358.54545451,4298.93939351,3639.03030267,4377.2424238,3041.45454515,4985.63636314,3127.99999969,4284.51515109,127.757575745,4150.06060565,3589.57575722,4286.57575715,2814.78787851,4901.66666618,3305.21212088,4461.72727228,4150.06060565,42.0,42.0,?
2017-07-31 19:13:57.364492,4606.48484802,2975.51515122,4308.21212078,2818.90909063,3884.75757537,300.848484818,3991.39393899,482.181818134,4409.18181774,189.575757557,4598.7575753,358.54545451,4296.87878745,3639.03030267,4381.36363593,3041.45454515,4990.27272677,3127.99999969,4279.36363594,127.757575745,4149.03030262,3589.57575722,4285.54545412,2814.78787851,4903.72727224,3305.21212088,4462.2424238,4150.06060565,42.0,42.0,?
2017-07-31 19:13:57.371377,4590.51515106,3008.48484818,4298.42424199,2818.90909063,3877.54545416,300.848484818,4010.45454505,482.181818134,4414.33333289,189.575757557,4563.21212076,358.54545451,4271.12121169,3639.03030267,4372.09090865,3041.45454515,4977.3939389,3127.99999969,4283.99999957,127.757575745,4142.84848443,3589.57575722,4290.18181775,2814.78787851,4882.60606012,3305.21212088,4455.5454541,4150.06060565,42.0,42.0,?
2017-07-31 19:13:57.378512,4596.69696924,3008.48484818,4306.66666624,2835.39393911,3875.4848481,300.848484818,3987.78787839,482.181818134,4410.72727229,189.575757557,4560.12121167,358.54545451,4265.45454503,3639.03030267,4378.27272683,3041.45454515,4988.72727223,3127.99999969,4290.69696927,127.757575745,4150.57575716,3589.57575722,4294.81818139,2814.78787851,4877.45454497,3305.21212088,4455.03030258,4150.06060565,42.0,42.0,?
2017-07-31 19:13:57.385933,4614.21212075,3008.48484818,4309.75757533,2835.39393911,3886.81818143,300.848484818,3975.93939354,482.181818134,4400.9393935,189.575757557,4579.69696924,358.54545451,4291.7272723,3639.03030267,4409.69696926,3041.45454515,5036.12121162,3127.99999969,4299.45454502,127.757575745,4166.54545413,3589.57575722,4295.84848442,2814.78787851,4893.93939345,3305.21212088,4467.39393895,4129.45454504,42.0,42.0,?
2017-07-31 19:13:57.394528,4612.66666621,3008.48484818,4304.09090866,2835.39393911,3890.42424204,288.484848456,3988.3030299,482.181818134,4406.60606017,189.575757557,4592.0606056,358.54545451,4305.63636321,3639.03030267,4416.39393895,3041.45454515,5039.21212071,3127.99999969,4294.81818139,127.757575745,4168.09090867,3589.57575722,4287.60606018,2814.78787851,4901.66666618,3305.21212088,4474.09090864,4129.45454504,42.0,42.0,?
2017-07-31 19:13:57.402005,4606.99999954,3008.48484818,4308.21212078,2835.39393911,3875.99999961,288.484848456,3980.57575718,519.272727221,4410.21212077,189.575757557,4592.0606056,358.54545451,4288.12121169,3639.03030267,4383.9393935,3041.45454515,4993.36363586,3127.99999969,4274.21212078,127.757575745,4158.30302989,3589.57575722,4282.45454503,2814.78787851,4895.484848,3305.21212088,4463.27272683,4129.45454504,42.0,42.0,?
2017-07-31 19:13:57.412247,4596.18181772,3008.48484818,4299.96969654,2835.39393911,3865.69696931,288.484848456,3960.9999996,519.272727221,4399.39393895,193.696969678,4580.21212075,358.54545451,4269.57575715,3639.03030267,4357.66666623,3041.45454515,4974.81818132,3127.99999969,4263.39393897,127.757575745,4151.09090868,3589.57575722,4287.09090866,2814.78787851,4887.75757527,3305.21212088,4451.42424198,4129.45454504,42.0,42.0,?
2017-07-31 19:13:57.417770,4595.15151469,3008.48484818,4301.51515109,2835.39393911,3865.69696931,288.484848456,3962.54545415,519.272727221,4396.81818138,193.696969678,4583.81818136,304.969696939,4265.96969654,3639.03030267,4357.15151472,3041.45454515,4979.96969647,3127.99999969,4261.33333291,127.757575745,4149.54545413,3589.57575722,4290.18181775,2814.78787851,4886.21212072,3305.21212088,4449.87878743,4129.45454504,42.0,42.0,?
2017-07-31 19:13:57.424910,4599.78787833,3008.48484818,4304.09090866,2835.39393911,3872.90909052,288.484848456,3986.24242384,519.272727221,4415.36363592,193.696969678,4610.09090863,304.969696939,4279.87878745,3630.78787842,4371.06060562,3041.45454515,4978.42424193,3127.99999969,4270.60606018,127.757575745,4153.15151474,3589.57575722,4290.18181775,2814.78787851,4888.27272678,3305.21212088,4458.12121168,4129.45454504,42.0,42.0,?
2017-07-31 19:13:57.434232,4597.21212075,3008.48484818,4300.99999957,2835.39393911,3872.39393901,288.484848456,3998.09090869,519.272727221,4418.96969653,193.696969678,4602.3636359,304.969696939,4288.12121169,3630.78787842,4376.72727229,3041.45454515,4978.42424193,3127.99999969,4277.30302988,127.757575745,4154.18181777,3589.57575722,4289.66666624,2814.78787851,4889.81818133,3305.21212088,4461.21212077,4129.45454504,42.0,42.0,?
2017-07-31 19:13:57.441782,4598.7575753,3008.48484818,4306.15151472,2835.39393911,3866.72727234,288.484848456,3980.57575718,519.272727221,4399.90909047,193.696969678,4571.454545,304.969696939,4273.69696927,3630.78787842,4363.84848441,3041.45454515,4985.63636314,3206.30302998,4264.424242,127.757575745,4149.03030262,3589.57575722,4289.66666624,2814.78787851,4895.484848,3305.21212088,4453.48484804,4129.45454504,42.0,42.0,?
2017-07-31 19:13:57.449588,4596.18181772,3008.48484818,4302.0303026,2835.39393911,3873.93939355,288.484848456,3966.66666627,519.272727221,4391.66666623,193.696969678,4570.93939348,304.969696939,4272.15151472,3630.78787842,4377.75757532,3041.45454515,5003.66666617,3206.30302998,4268.0303026,185.454545436,4153.66666625,3589.57575722,4290.18181775,2814.78787851,4898.06060557,3305.21212088,4455.5454541,4129.45454504,42.0,42.0,?
2017-07-31 19:13:57.467584,4602.3636359,3008.48484818,4304.60606018,2835.39393911,3875.4848481,288.484848456,3967.6969693,519.272727221,4394.75757532,193.696969678,4583.81818136,304.969696939,4284.51515109,3630.78787842,4405.06060562,3041.45454515,5015.51515101,3206.30302998,4285.0303026,185.454545436,4166.03030261,3585.4545451,4291.21212078,2814.78787851,4899.0909086,3305.21212088,4460.18181774,4129.45454504,42.0,42.0,?
2017-07-31 19:13:57.472676,4605.45454499,3008.48484818,4303.57575715,2835.39393911,3867.75757537,288.484848456,3971.30302991,519.272727221,4398.36363592,193.696969678,4584.84848439,304.969696939,4289.15151472,3630.78787842,4404.54545411,3041.45454515,5013.96969647,3206.30302998,4285.0303026,185.454545436,4166.03030261,3585.4545451,4290.69696927,2802.42424214,4900.12121163,3305.21212088,4457.60606016,4129.45454504,42.0,42.0,?
2017-07-31 19:13:57.477084,4595.15151469,3008.48484818,4294.30302987,2835.39393911,3865.69696931,288.484848456,3977.48484809,519.272727221,4402.48484804,193.696969678,4579.18181772,304.969696939,4280.39393897,3630.78787842,4382.39393896,3041.45454515,5000.57575708,3206.30302998,4271.63636321,185.454545436,4161.90909049,3585.4545451,4288.63636321,2802.42424214,4900.12121163,3268.12121179,4458.12121168,4129.45454504,42.0,42.0,?
2017-07-31 19:13:57.479971,4599.78787833,3008.48484818,4305.63636321,2835.39393911,3867.75757537,288.484848456,3980.06060566,519.272727221,4404.54545411,193.696969678,4579.18181772,304.969696939,4271.12121169,3630.78787842,4360.75757532,3041.45454515,4975.33333284,3206.30302998,4268.54545412,185.454545436,4173.75757534,3585.4545451,4291.21212078,2802.42424214,4906.81818133,3268.12121179,4460.69696925,4129.45454504,42.0,42.0,?
2017-07-31 19:13:57.487919,4601.33333287,3008.48484818,4307.18181775,2835.39393911,3870.84848446,288.484848456,3975.42424203,519.272727221,4408.66666623,193.696969678,4598.7575753,304.969696939,4285.0303026,3630.78787842,4364.36363593,3041.45454515,4975.33333284,3206.30302998,4278.33333291,185.454545436,4180.96969655,3589.57575722,4292.24242381,2802.42424214,4906.30302981,3268.12121179,4461.72727228,4129.45454504,42.0,42.0,?
2017-07-31 19:13:57.498988,4593.09090863,3008.48484818,4300.99999957,2835.39393911,3865.1818178,288.484848456,3972.33333294,519.272727221,4405.06060562,193.696969678,4600.30302984,304.969696939,4287.60606018,3630.78787842,4373.6363632,3041.45454515,4992.84848435,3206.30302998,4268.0303026,185.454545436,4162.42424201,3589.57575722,4286.06060563,2802.42424214,4888.27272678,3268.12121179,4452.45454501,4129.45454504,42.0,42.0,?
2017-07-31 19:13:57.504508,4592.0606056,3008.48484818,4303.57575715,2835.39393911,3861.57575719,288.484848456,3982.63636324,519.272727221,4396.30302986,193.696969678,4576.09090863,304.969696939,4268.0303026,3630.78787842,4368.48484805,3041.45454515,4991.3030298,3206.30302998,4252.57575715,185.454545436,4149.03030262,3589.57575722,4286.06060563,2802.42424214,4875.90909042,3268.12121179,4444.72727228,4129.45454504,42.0,42.0,?
2017-07-31 19:13:57.511337,4593.09090863,3008.48484818,4301.51515109,2835.39393911,3867.24242386,288.484848456,3987.27272687,519.272727221,4395.27272683,193.696969678,4578.15151469,304.969696939,4270.60606018,3630.78787842,4365.39393896,3041.45454515,4984.09090859,3206.30302998,4255.66666624,185.454545436,4158.30302989,3589.57575722,4289.15151472,2802.42424214,4885.18181769,3268.12121179,4452.45454501,4129.45454504,42.0,42.0,?
2017-07-31 19:13:57.519547,4597.21212075,3008.48484818,4303.06060563,2835.39393911,3860.54545416,288.484848456,3971.81818142,519.272727221,4393.21212077,193.696969678,4592.0606056,304.969696939,4287.09090866,3630.78787842,4373.6363632,3041.45454515,4985.63636314,3206.30302998,4254.63636321,185.454545436,4164.99999958,3589.57575722,4286.57575715,2802.42424214,4895.484848,3268.12121179,4454.51515107,4129.45454504,42.0,42.0,?
2017-07-31 19:13:57.527415,4593.09090863,3008.48484818,4297.90909048,2835.39393911,3856.93939355,288.484848456,3975.42424203,519.272727221,4394.75757532,193.696969678,4583.30302984,304.969696939,4295.3333329,3630.78787842,4391.15151471,3041.45454515,5005.72727223,3206.30302998,4258.75757533,185.454545436,4168.09090867,3589.57575722,4286.57575715,2802.42424214,4895.484848,3268.12121179,4450.90909046,4129.45454504,42.0,42.0,?
2017-07-31 19:13:57.535863,4595.66666621,3008.48484818,4299.96969654,2835.39393911,3863.12121173,288.484848456,3984.18181778,519.272727221,4396.81818138,193.696969678,4568.87878742,304.969696939,4284.51515109,3630.78787842,4396.81818138,3041.45454515,5021.18181768,3206.30302998,4272.66666624,185.454545436,4178.90909049,3589.57575722,4289.66666624,2802.42424214,4900.63636315,3268.12121179,4456.06060561,4129.45454504,42.0,42.0,?
2017-07-31 19:13:57.542899,4608.03030257,3008.48484818,4309.24242381,2835.39393911,3868.27272689,288.484848456,3968.72727233,519.272727221,4394.2424238,193.696969678,4570.42424197,304.969696939,4271.12121169,3630.78787842,4392.18181774,3041.45454515,5007.27272677,3206.30302998,4282.96969654,185.454545436,4189.21212079,3589.57575722,4292.24242381,2802.42424214,4909.3939389,3268.12121179,4463.27272683,4129.45454504,42.0,42.0,?
2017-07-31 19:13:57.550653,4604.93939348,3008.48484818,4304.09090866,2835.39393911,3873.93939355,288.484848456,3964.09090869,519.272727221,4394.75757532,193.696969678,4580.72727227,304.969696939,4281.93939351,3630.78787842,4397.33333289,3041.45454515,5001.60606011,3206.30302998,4283.99999957,185.454545436,4192.30302988,3589.57575722,4292.24242381,2802.42424214,4911.45454496,3268.12121179,4469.45454501,4129.45454504,42.0,42.0,?
2017-07-31 19:13:57.559018,4609.57575711,3008.48484818,4308.7272723,2835.39393911,3874.96969658,288.484848456,3974.393939,519.272727221,4397.84848441,193.696969678,4596.18181772,304.969696939,4295.84848442,3630.78787842,4399.39393895,3041.45454515,5023.24242374,3206.30302998,4272.66666624,185.454545436,4195.39393897,3589.57575722,4289.15151472,2802.42424214,4911.96969648,3268.12121179,4469.45454501,4129.45454504,42.0,42.0,?
2017-07-31 19:13:57.567268,4610.09090863,3008.48484818,4306.15151472,2835.39393911,3871.36363598,288.484848456,3976.45454506,519.272727221,4407.6363632,193.696969678,4610.09090863,304.969696939,4297.39393896,3630.78787842,4396.81818138,3041.45454515,5033.03030253,3206.30302998,4269.57575715,185.454545436,4196.93939352,3589.57575722,4289.66666624,2802.42424214,4911.96969648,3268.12121179,4465.33333289,4129.45454504,42.0,42.0,?
2017-07-31 19:13:57.582630,4598.7575753,3008.48484818,4301.51515109,2835.39393911,3866.21212083,288.484848456,3972.84848445,519.272727221,4409.69696926,193.696969678,4604.42424196,304.969696939,4288.63636321,3630.78787842,4387.03030259,3041.45454515,5001.60606011,3206.30302998,4267.51515109,185.454545436,4191.27272685,3589.57575722,4289.66666624,2802.42424214,4906.81818133,3268.12121179,4458.63636319,4129.45454504,42.0,42.0,?
2017-07-31 19:13:57.586975,4601.84848439,3008.48484818,4307.69696927,2835.39393911,3864.15151477,288.484848456,3984.18181778,519.272727221,4405.06060562,193.696969678,4594.63636318,304.969696939,4276.78787836,3630.78787842,4369.51515108,3041.45454515,4977.90909041,3206.30302998,4254.63636321,185.454545436,4191.78787837,3589.57575722,4286.06060563,2802.42424214,4906.30302981,3268.12121179,4455.03030258,4129.45454504,42.0,42.0,?
2017-07-31 19:13:57.589948,4600.81818136,3008.48484818,4300.99999957,2835.39393911,3870.33333295,288.484848456,4000.66666627,519.272727221,4414.84848441,193.696969678,4604.93939348,304.969696939,4283.48484806,3630.78787842,4370.03030259,3041.45454515,4988.72727223,3206.30302998,4253.60606018,185.454545436,4195.90909049,3589.57575722,4286.57575715,2802.42424214,4908.36363587,3268.12121179,4458.63636319,4129.45454504,42.0,42.0,?
2017-07-31 19:13:57.598574,4601.84848439,3008.48484818,4303.06060563,2835.39393911,3868.7878784,288.484848456,3991.39393899,519.272727221,4424.12121168,193.696969678,4612.15151469,304.969696939,4302.0303026,3630.78787842,4387.54545411,3041.45454515,5001.09090859,3206.30302998,4261.33333291,185.454545436,4192.8181814,3589.57575722,4292.24242381,2802.42424214,4906.30302981,3268.12121179,4458.63636319,4129.45454504,42.0,42.0,?
2017-07-31 19:13:57.606029,4603.39393893,3008.48484818,4303.57575715,2835.39393911,3868.7878784,288.484848456,3981.60606021,519.272727221,4419.48484804,193.696969678,4599.78787833,304.969696939,4305.12121169,3630.78787842,4400.42424198,3041.45454515,5019.63636313,3206.30302998,4269.57575715,185.454545436,4193.84848443,3589.57575722,4291.7272723,2802.42424214,4905.27272678,3268.12121179,4466.36363592,4129.45454504,42.0,42.0,?
2017-07-31 19:13:57.615594,4603.90909045,3008.48484818,4302.0303026,2835.39393911,3882.18181779,288.484848456,3987.27272687,519.272727221,4408.15151471,193.696969678,4582.78787833,304.969696939,4286.57575715,3630.78787842,4397.84848441,3041.45454515,5034.57575707,3206.30302998,4279.87878745,185.454545436,4212.90909049,3589.57575722,4288.12121169,2802.42424214,4907.33333284,3268.12121179,4488.51515107,4129.45454504,42.0,42.0,?
2017-07-31 19:13:57.621999,4618.33333287,3008.48484818,4311.81818139,2835.39393911,3900.21212082,288.484848456,3983.15151475,519.272727221,4399.90909047,193.696969678,4580.21212075,304.969696939,4279.36363594,3630.78787842,4392.69696926,3041.45454515,5023.75757526,3206.30302998,4288.12121169,185.454545436,4239.18181776,3589.57575722,4292.75757533,2802.42424214,4918.15151466,3268.12121179,4514.78787834,4129.45454504,42.0,42.0,?
2017-07-31 19:13:57.630638,4627.60606014,3008.48484818,4311.81818139,2835.39393911,3922.87878749,288.484848456,3972.84848445,519.272727221,4400.42424198,193.696969678,4594.12121166,304.969696939,4288.12121169,3630.78787842,4404.03030259,3041.45454515,5021.69696919,3206.30302998,4304.60606018,185.454545436,4260.30302988,3589.57575722,4298.42424199,2802.42424214,4927.93939345,3268.12121179,4548.78787833,4129.45454504,42.0,42.0,?
2017-07-31 19:13:57.637203,4644.60606014,3008.48484818,4319.54545411,2835.39393911,3944.51515112,288.484848456,3986.24242384,519.272727221,4405.06060562,193.696969678,4599.27272681,304.969696939,4289.66666624,3630.78787842,4413.30302986,3041.45454515,5034.06060556,3206.30302998,4328.81818139,185.454545436,4287.09090866,3589.57575722,4298.42424199,2802.42424214,4934.63636314,3268.12121179,4593.09090863,4129.45454504,42.0,42.0,?
2017-07-31 19:13:57.645957,4661.60606014,3008.48484818,4325.21212078,2835.39393911,3964.09090869,288.484848456,4001.6969693,519.272727221,4411.2424238,193.696969678,4600.81818136,304.969696939,4297.39393896,3630.78787842,4408.15151471,3041.45454515,5037.15151465,3206.30302998,4340.15151472,185.454545436,4322.12121169,3589.57575722,4295.3333329,2802.42424214,4951.12121163,3268.12121179,4632.75757529,4129.45454504,42.0,42.0,?
2017-07-31 19:13:57.652374,4660.57575711,3008.48484818,4317.99999957,2835.39393911,3976.45454506,288.484848456,3977.48484809,519.272727221,4413.81818138,193.696969678,4603.39393893,304.969696939,4301.51515109,3630.78787842,4392.69696926,3041.45454515,5027.36363586,3206.30302998,4334.99999957,185.454545436,4338.60606017,3589.57575722,4295.3333329,2802.42424214,4963.48484799,3268.12121179,4651.30302984,4129.45454504,42.0,42.0,?
2017-07-31 19:13:57.659961,4663.6666662,3008.48484818,4316.96969654,2835.39393911,3974.393939,288.484848456,3976.45454506,519.272727221,4405.57575714,193.696969678,4582.27272681,304.969696939,4282.96969654,3630.78787842,4388.06060562,3041.45454515,5019.63636313,3206.30302998,4331.90909048,185.454545436,4332.93939351,3589.57575722,4297.39393896,2802.42424214,4960.3939389,3268.12121179,4652.33333287,4129.45454504,42.0,42.0,?
2017-07-31 19:13:57.669182,4658.51515105,3008.48484818,4311.81818139,2835.39393911,3970.27272688,288.484848456,4017.66666626,519.272727221,4404.54545411,193.696969678,4567.84848439,304.969696939,4284.51515109,3630.78787842,4405.06060562,3041.45454515,5027.36363586,3206.30302998,4341.69696926,185.454545436,4325.72727229,3589.57575722,4295.3333329,2802.42424214,4946.99999951,3268.12121179,4646.6666662,4129.45454504,42.0,42.0,?
2017-07-31 19:13:57.678640,4654.39393893,3008.48484818,4318.51515108,2835.39393911,3967.6969693,288.484848456,4014.06060566,519.272727221,4411.2424238,193.696969678,4586.39393894,304.969696939,4303.06060563,3630.78787842,4407.12121168,3041.45454515,5033.54545404,3206.30302998,4340.66666623,185.454545436,4326.24242381,3589.57575722,4291.21212078,2802.42424214,4942.87878738,3268.12121179,4636.3636359,4129.45454504,42.0,42.0,?
2017-07-31 19:13:57.684459,4657.99999953,3008.48484818,4322.12121169,2835.39393911,3964.09090869,288.484848456,3989.33333293,519.272727221,4412.78787835,193.696969678,4588.454545,304.969696939,4307.18181775,3630.78787842,4391.66666623,3041.45454515,5030.45454495,3206.30302998,4327.78787836,185.454545436,4326.24242381,3589.57575722,4294.81818139,2802.42424214,4952.66666617,3268.12121179,4626.57575711,4129.45454504,42.0,42.0,?
2017-07-31 19:13:57.695418,4645.12121166,3008.48484818,4308.7272723,2835.39393911,3952.75757536,288.484848456,3999.63636324,519.272727221,4408.15151471,193.696969678,4549.30302985,304.969696939,4295.84848442,3630.78787842,4393.21212077,3041.45454515,5024.78787829,3206.30302998,4316.45454502,185.454545436,4312.84848442,3589.57575722,4298.42424199,2802.42424214,4948.54545405,3268.12121179,4611.63636318,4129.45454504,42.0,42.0,?
2017-07-31 19:13:57.699886,4635.33333287,3008.48484818,4312.84848442,2835.39393911,3930.0909087,288.484848456,3997.06060566,519.272727221,4404.03030259,193.696969678,4529.72727227,304.969696939,4277.81818139,3630.78787842,4396.81818138,3041.45454515,5017.06060556,3206.30302998,4301.51515109,185.454545436,4295.3333329,3589.57575722,4293.27272684,2802.42424214,4930.51515102,3268.12121179,4583.30302984,4129.45454504,42.0,42.0,?
2017-07-31 19:13:57.710142,4632.24242378,3008.48484818,4311.81818139,2835.39393911,3916.69696931,288.484848456,3981.09090869,519.272727221,4408.66666623,193.696969678,4553.42424197,304.969696939,4280.39393897,3630.78787842,4394.75757532,3041.45454515,5021.69696919,3206.30302998,4294.81818139,185.454545436,4286.57575715,3589.57575722,4288.63636321,2802.42424214,4925.87878739,3268.12121179,4564.7575753,4129.45454504,42.0,42.0,?
2017-07-31 19:13:57.715152,4632.24242378,3008.48484818,4306.66666624,2835.39393911,3911.54545415,288.484848456,3987.27272687,519.272727221,4400.42424198,193.696969678,4559.60606015,304.969696939,4292.75757533,3630.78787842,4396.30302986,3041.45454515,5023.24242374,3206.30302998,4288.63636321,185.454545436,4283.48484806,3589.57575722,4290.69696927,2802.42424214,4936.18181769,3268.12121179,4555.99999954,4129.45454504,42.0,42.0,?
2017-07-31 19:13:57.732885,4620.39393893,3008.48484818,4302.54545412,2835.39393911,3890.42424204,288.484848456,3992.42424203,519.272727221,4386.51515108,193.696969678,4538.99999955,304.969696939,4281.93939351,3630.78787842,4384.96969653,3041.45454515,5021.18181768,3206.30302998,4274.21212078,185.454545436,4262.36363594,3589.57575722,4292.75757533,2802.42424214,4911.45454496,3268.12121179,4522.51515106,4129.45454504,42.0,42.0,?
2017-07-31 19:13:57.734947,4620.39393893,3008.48484818,4302.54545412,2835.39393911,3890.42424204,288.484848456,3992.42424203,519.272727221,4386.51515108,193.696969678,4538.99999955,304.969696939,4281.93939351,3630.78787842,4384.96969653,3041.45454515,5021.18181768,3206.30302998,4274.21212078,185.454545436,4262.36363594,3589.57575722,4292.75757533,2802.42424214,4911.45454496,3268.12121179,4522.51515106,4129.45454504,42.0,42.0,?
2017-07-31 19:13:57.745090,4617.30302984,3008.48484818,4304.09090866,2835.39393911,3880.12121173,288.484848456,3966.66666627,519.272727221,4380.84848441,193.696969678,4543.12121167,304.969696939,4280.90909048,3630.78787842,4379.81818138,3041.45454515,5003.15151465,3206.30302998,4257.7272723,185.454545436,4248.45454503,3589.57575722,4291.21212078,2802.42424214,4918.66666617,3268.12121179,4501.90909046,4129.45454504,42.0,42.0,?
2017-07-31 19:13:57.750982,4617.30302984,3008.48484818,4304.09090866,2835.39393911,3880.12121173,288.484848456,3966.66666627,519.272727221,4380.84848441,193.696969678,4543.12121167,304.969696939,4280.90909048,3630.78787842,4379.81818138,3041.45454515,5003.15151465,3206.30302998,4257.7272723,185.454545436,4248.45454503,3589.57575722,4291.21212078,2802.42424214,4918.66666617,3268.12121179,4501.90909046,4129.45454504,42.0,42.0,?
2017-07-31 19:13:57.754780,4607.51515105,3008.48484818,4299.45454502,2835.39393911,3874.96969658,288.484848456,3976.45454506,519.272727221,4381.87878744,193.696969678,4532.81818136,304.969696939,4291.21212078,3630.78787842,4393.72727229,3041.45454515,5030.96969647,3206.30302998,4257.21212079,185.454545436,4242.78787836,3589.57575722,4291.21212078,2802.42424214,4908.87878739,3268.12121179,4491.09090864,4129.45454504,42.0,42.0,?
2017-07-31 19:13:57.763143,4606.99999954,3008.48484818,4302.54545412,2835.39393911,3868.27272689,288.484848456,3996.54545415,519.272727221,4384.96969653,193.696969678,4534.87878743,304.969696939,4301.51515109,3630.78787842,4391.66666623,3041.45454515,5048.9999995,3206.30302998,4259.27272685,185.454545436,4243.30302988,3589.57575722,4285.54545412,2802.42424214,4910.42424193,3268.12121179,4482.8484844,4129.45454504,42.0,42.0,?
2017-07-31 19:13:57.769673,4595.15151469,3008.48484818,4295.3333329,2835.39393911,3862.0909087,288.484848456,4002.21212081,519.272727221,4385.48484805,193.696969678,4530.24242379,304.969696939,4289.66666624,3630.78787842,4379.81818138,3041.45454515,5024.27272677,3206.30302998,4249.48484806,185.454545436,4233.51515109,3589.57575722,4283.48484806,2802.42424214,4907.33333284,3268.12121179,4472.03030258,4129.45454504,42.0,42.0,?
2017-07-31 19:13:57.779968,4592.0606056,3008.48484818,4297.90909048,2835.39393911,3852.81818143,288.484848456,3991.90909051,519.272727221,4376.21212077,193.696969678,4504.99999955,304.969696939,4274.21212078,3630.78787842,4376.72727229,3041.45454515,5008.81818132,3206.30302998,4234.54545412,185.454545436,4223.7272723,3589.57575722,4286.57575715,2802.42424214,4891.36363587,3268.12121179,4459.15151471,4129.45454504,42.0,42.0,?
2017-07-31 19:13:57.786231,4602.3636359,3008.48484818,4301.51515109,2835.39393911,3859.51515113,288.484848456,3992.42424203,519.272727221,4376.21212077,193.696969678,4494.69696925,304.969696939,4283.99999957,3630.78787842,4380.84848441,3041.45454515,5021.18181768,3206.30302998,4240.21212079,185.454545436,4234.03030261,3589.57575722,4287.09090866,2802.42424214,4900.12121163,3268.12121179,4465.33333289,4129.45454504,42.0,42.0,?
2017-07-31 19:13:57.794751,4604.42424196,3008.48484818,4299.96969654,2835.39393911,3870.84848446,288.484848456,3989.33333293,519.272727221,4390.6363632,193.696969678,4509.12121167,304.969696939,4292.24242381,3630.78787842,4374.15151471,3041.45454515,5022.21212071,3206.30302998,4250.51515109,185.454545436,4245.87878745,3589.57575722,4288.12121169,2802.42424214,4914.54545405,3268.12121179,4478.72727228,4129.45454504,42.0,42.0,?
2017-07-31 19:13:57.801263,4603.90909045,3008.48484818,4306.15151472,2835.39393911,3866.21212083,288.484848456,3978.51515112,519.272727221,4394.2424238,193.696969678,4518.39393894,304.969696939,4274.21212078,3630.78787842,4365.39393896,3041.45454515,5016.54545404,3206.30302998,4249.48484806,185.454545436,4243.30302988,3589.57575722,4290.69696927,2802.42424214,4900.63636315,3268.12121179,4472.5454541,4129.45454504,42.0,42.0,?
2017-07-31 19:13:57.808339,4595.66666621,3008.48484818,4298.93939351,2835.39393911,3862.60606022,288.484848456,3989.33333293,519.272727221,4385.99999956,193.696969678,4514.78787834,304.969696939,4267.51515109,3630.78787842,4369.51515108,3041.45454515,5026.84848435,3206.30302998,4244.33333291,185.454545436,4234.54545412,3589.57575722,4288.63636321,2802.42424214,4887.75757527,3268.12121179,4462.2424238,4129.45454504,42.0,42.0,?
2017-07-31 19:13:57.816054,4593.09090863,3008.48484818,4296.87878745,2835.39393911,3857.96969658,288.484848456,3995.51515112,519.272727221,4376.21212077,193.696969678,4505.51515106,304.969696939,4274.21212078,3630.78787842,4367.96969653,3041.45454515,5028.39393889,3206.30302998,4231.96969655,185.454545436,4226.30302988,3589.57575722,4282.96969654,2802.42424214,4887.75757527,3268.12121179,4456.06060561,4129.45454504,42.0,42.0,?
2017-07-31 19:13:57.825955,4594.63636318,3008.48484818,4297.39393896,2835.39393911,3855.39393901,288.484848456,3986.24242384,519.272727221,4376.21212077,193.696969678,4508.60606016,304.969696939,4283.48484806,3630.78787842,4365.90909047,3041.45454515,5024.78787829,3206.30302998,4226.30302988,185.454545436,4224.24242382,3589.57575722,4281.93939351,2802.42424214,4887.75757527,3268.12121179,4456.06060561,4129.45454504,42.0,42.0,?
2017-07-31 19:13:57.832843,4587.93939348,3008.48484818,4292.75757533,2835.39393911,3852.81818143,288.484848456,3982.12121172,519.272727221,4379.81818138,193.696969678,4516.33333288,304.969696939,4285.0303026,3630.78787842,4365.39393896,3041.45454515,5016.54545404,3206.30302998,4221.66666624,185.454545436,4228.36363594,3589.57575722,4282.96969654,2802.42424214,4891.87878739,3268.12121179,4453.99999955,4129.45454504,42.0,42.0,?
2017-07-31 19:13:57.839946,4586.39393894,3008.48484818,4298.42424199,2835.39393911,3839.93939356,288.484848456,3972.84848445,519.272727221,4379.30302987,193.696969678,4504.99999955,304.969696939,4270.09090866,3630.78787842,4354.06060563,3041.45454515,5002.63636314,3206.30302998,4207.24242382,185.454545436,4223.21212079,3589.57575722,4285.54545412,2802.42424214,4885.18181769,3268.12121179,4441.12121168,4129.45454504,42.0,42.0,?
2017-07-31 19:13:57.846947,4580.72727227,3008.48484818,4292.75757533,2835.39393911,3841.99999962,288.484848456,3972.33333294,519.272727221,4388.06060562,193.696969678,4501.90909046,304.969696939,4274.21212078,3630.78787842,4366.42424199,3041.45454515,5021.69696919,3206.30302998,4217.03030261,185.454545436,4218.06060564,3589.57575722,4288.12121169,2802.42424214,4872.30302982,3268.12121179,4441.63636319,4129.45454504,42.0,42.0,?
2017-07-31 19:13:57.859076,4586.39393894,3008.48484818,4296.87878745,2835.39393911,3853.84848446,288.484848456,3996.03030263,519.272727221,4385.48484805,193.696969678,4506.03030258,304.969696939,4292.24242381,3630.78787842,4391.15151471,3041.45454515,5044.87878737,3206.30302998,4228.36363594,185.454545436,4229.39393897,3589.57575722,4285.0303026,2802.42424214,4884.66666618,3268.12121179,4452.45454501,4129.45454504,42.0,42.0,?
2017-07-31 19:13:57.863844,4592.57575712,3008.48484818,4302.54545412,2835.39393911,3857.45454507,288.484848456,4005.3030299,519.272727221,4372.60606017,193.696969678,4487.99999955,304.969696939,4286.57575715,3630.78787842,4382.90909047,3041.45454515,5034.06060556,3206.30302998,4215.48484806,185.454545436,4235.57575715,3589.57575722,4284.51515109,2802.42424214,4894.96969648,3268.12121179,4450.90909046,4129.45454504,42.0,42.0,?
2017-07-31 19:13:57.870999,4580.72727227,2971.3939391,4285.0303026,2835.39393911,3857.45454507,288.484848456,3985.72727233,519.272727221,4373.12121168,193.696969678,4476.1515147,304.969696939,4271.63636321,3630.78787842,4365.39393896,3041.45454515,5020.15151465,3206.30302998,4220.63636321,185.454545436,4226.30302988,3589.57575722,4288.12121169,2802.42424214,4876.93939345,3268.12121179,4450.39393895,4129.45454504,42.0,42.0,?
2017-07-31 19:13:57.879666,4594.12121166,2971.3939391,4308.21212078,2864.24242396,3849.72727234,288.484848456,3976.96969657,519.272727221,4373.12121168,193.696969678,4481.30302985,304.969696939,4268.0303026,3630.78787842,4366.42424199,3041.45454515,5018.09090859,3206.30302998,4230.93939352,185.454545436,4228.87878746,3589.57575722,4290.69696927,2802.42424214,4875.39393891,3268.12121179,4450.39393895,4129.45454504,42.0,42.0,?
2017-07-31 19:13:57.888573,4601.84848439,2971.3939391,4303.57575715,2864.24242396,3860.54545416,288.484848456,4009.93939354,519.272727221,4387.54545411,193.696969678,4500.36363591,304.969696939,4286.06060563,3630.78787842,4382.39393896,3041.45454515,5035.6060601,3206.30302998,4236.09090867,185.454545436,4244.33333291,3589.57575722,4292.24242381,2802.42424214,4892.3939389,3268.12121179,4459.15151471,4088.24242383,42.0,42.0,?
2017-07-31 19:13:57.897225,4579.69696924,2971.3939391,4262.36363594,2864.24242396,3874.96969658,280.242424214,4018.18181778,519.272727221,4404.03030259,193.696969678,4512.72727228,304.969696939,4301.51515109,3630.78787842,4385.48484805,3041.45454515,5047.45454495,3206.30302998,4234.54545412,185.454545436,4243.81818139,3589.57575722,4285.54545412,2802.42424214,4886.72727224,3268.12121179,4466.36363592,4088.24242383,42.0,42.0,?
2017-07-31 19:13:57.902805,4596.18181772,2971.3939391,4322.6363632,2864.24242396,3844.06060568,280.242424214,3966.66666627,568.72727267,4379.81818138,193.696969678,4497.27272682,304.969696939,4278.84848442,3630.78787842,4360.75757532,3041.45454515,5022.72727222,3206.30302998,4201.57575716,185.454545436,4231.96969655,3589.57575722,4282.45454503,2802.42424214,4888.27272678,3268.12121179,4440.60606016,4088.24242383,42.0,42.0,?
2017-07-31 19:13:57.909854,4603.90909045,2971.3939391,4325.21212078,2864.24242396,3840.96969659,280.242424214,3960.48484809,568.72727267,4373.12121168,214.303030282,4487.99999955,304.969696939,4277.81818139,3630.78787842,4367.45454502,3041.45454515,5027.36363586,3206.30302998,4207.75757534,185.454545436,4236.60606018,3589.57575722,4289.15151472,2802.42424214,4898.57575709,3268.12121179,4440.09090865,4088.24242383,42.0,42.0,?
2017-07-31 19:13:57.919912,4583.81818136,2971.3939391,4269.06060563,2864.24242396,3868.7878784,280.242424214,3987.78787839,568.72727267,4389.09090865,214.303030282,4492.63636319,366.787878751,4298.42424199,3630.78787842,4393.72727229,3041.45454515,5048.48484798,3206.30302998,4238.66666624,185.454545436,4246.90909048,3589.57575722,4290.18181775,2802.42424214,4891.87878739,3268.12121179,4465.33333289,4088.24242383,42.0,42.0,?
2017-07-31 19:13:57.926428,4591.03030257,2971.3939391,4298.42424199,2864.24242396,3856.93939355,280.242424214,3978.51515112,568.72727267,4382.39393896,214.303030282,4499.33333288,366.787878751,4289.15151472,3651.39393903,4389.60606017,3041.45454515,5036.12121162,3206.30302998,4225.78787837,185.454545436,4244.33333291,3589.57575722,4287.09090866,2802.42424214,4895.484848,3268.12121179,4456.06060561,4088.24242383,42.0,42.0,?
2017-07-31 19:13:57.933915,4591.03030257,2971.3939391,4299.45454502,2864.24242396,3845.60606022,280.242424214,3978.51515112,568.72727267,4381.87878744,214.303030282,4506.54545409,366.787878751,4282.96969654,3651.39393903,4381.87878744,3049.69696939,5029.42424192,3206.30302998,4213.424242,185.454545436,4240.21212079,3589.57575722,4282.96969654,2802.42424214,4900.63636315,3268.12121179,4443.18181774,4088.24242383,42.0,42.0,?
2017-07-31 19:13:57.941559,4585.36363591,2971.3939391,4287.60606018,2864.24242396,3849.72727234,280.242424214,3992.42424203,568.72727267,4384.45454502,214.303030282,4495.21212076,366.787878751,4285.0303026,3651.39393903,4369.51515108,3049.69696939,5021.18181768,3107.39393908,4209.30302988,185.454545436,4243.81818139,3589.57575722,4287.60606018,2802.42424214,4896.51515103,3268.12121179,4445.75757531,4088.24242383,42.0,42.0,?
2017-07-31 19:13:57.949276,4586.90909045,2971.3939391,4299.45454502,2864.24242396,3854.36363598,280.242424214,3984.6969693,568.72727267,4381.87878744,214.303030282,4479.75757531,366.787878751,4290.18181775,3651.39393903,4371.06060562,3049.69696939,5019.12121162,3107.39393908,4210.84848443,164.848484832,4247.93939351,3589.57575722,4293.27272684,2802.42424214,4891.36363587,3268.12121179,4452.45454501,4088.24242383,42.0,42.0,?
2017-07-31 19:13:57.958882,4591.03030257,2971.3939391,4302.0303026,2864.24242396,3859.51515113,280.242424214,3972.84848445,568.72727267,4378.27272683,214.303030282,4483.36363592,366.787878751,4287.09090866,3651.39393903,4382.39393896,3049.69696939,5036.12121162,3107.39393908,4220.1212117,164.848484832,4247.424242,3589.57575722,4286.06060563,2802.42424214,4889.30302981,3268.12121179,4458.12121168,4088.24242383,42.0,42.0,?
2017-07-31 19:13:57.965753,4593.09090863,2971.3939391,4300.48484805,2864.24242396,3857.96969658,280.242424214,3992.93939354,568.72727267,4378.27272683,214.303030282,4495.72727228,366.787878751,4274.21212078,3651.39393903,4370.03030259,3049.69696939,5029.42424192,3107.39393908,4213.424242,164.848484832,4246.90909048,3589.57575722,4282.45454503,2814.78787851,4894.96969648,3268.12121179,4456.57575713,4088.24242383,42.0,42.0,?
2017-07-31 19:13:57.973703,4587.42424197,2971.3939391,4292.75757533,2864.24242396,3852.81818143,280.242424214,4003.24242384,568.72727267,4387.03030259,214.303030282,4499.33333288,366.787878751,4276.27272685,3651.39393903,4362.30302987,3049.69696939,5012.42424192,3107.39393908,4206.72727231,164.848484832,4246.90909048,3589.57575722,4289.66666624,2814.78787851,4893.42424193,3321.69696936,4456.06060561,4088.24242383,42.0,42.0,?
2017-07-31 19:13:57.981001,4586.90909045,2971.3939391,4299.45454502,2864.24242396,3846.63636325,280.242424214,3973.36363597,568.72727267,4383.9393935,214.303030282,4492.12121167,366.787878751,4277.30302988,3651.39393903,4366.42424199,3049.69696939,5014.48484798,3107.39393908,4210.33333291,164.848484832,4243.30302988,3589.57575722,4290.18181775,2814.78787851,4884.15151466,3321.69696936,4451.42424198,4088.24242383,42.0,42.0,?
2017-07-31 19:13:57.988584,4582.27272681,2971.3939391,4296.36363593,2864.24242396,3854.87878749,280.242424214,3981.60606021,568.72727267,4366.9393935,214.303030282,4486.45454501,366.787878751,4276.27272685,3651.39393903,4373.6363632,3049.69696939,5027.36363586,3107.39393908,4212.39393897,164.848484832,4239.18181776,3581.33333298,4285.54545412,2814.78787851,4882.60606012,3321.69696936,4449.36363592,4088.24242383,42.0,42.0,?
2017-07-31 19:13:57.998389,4587.93939348,2971.3939391,4296.87878745,2864.24242396,3863.12121173,280.242424214,4014.57575717,568.72727267,4364.87878744,214.303030282,4498.81818137,366.787878751,4283.99999957,3651.39393903,4386.51515108,3049.69696939,5042.3030298,3107.39393908,4210.33333291,164.848484832,4247.93939351,3581.33333298,4285.0303026,2806.54545426,4895.99999951,3321.69696936,4455.03030258,4088.24242383,42.0,42.0,?
2017-07-31 19:13:58.004787,4597.21212075,2971.3939391,4299.96969654,2864.24242396,3862.60606022,280.242424214,4007.87878748,568.72727267,4389.60606017,214.303030282,4517.87878743,366.787878751,4303.57575715,3651.39393903,4406.09090865,3049.69696939,5062.39393889,3107.39393908,4217.54545412,164.848484832,4258.75757533,3581.33333298,4286.06060563,2806.54545426,4904.75757527,3321.69696936,4462.2424238,4088.24242383,42.0,42.0,?
2017-07-31 19:13:58.013734,4585.87878742,2971.3939391,4292.24242381,2864.24242396,3858.4848481,280.242424214,3984.18181778,568.72727267,4397.33333289,214.303030282,4512.21212076,366.787878751,4311.81818139,3651.39393903,4405.57575714,3049.69696939,5064.96969646,3107.39393908,4217.54545412,164.848484832,4253.09090867,3581.33333298,4288.63636321,2806.54545426,4893.42424193,3321.69696936,4459.15151471,4088.24242383,42.0,42.0,?
2017-07-31 19:13:58.020953,4584.33333287,2971.3939391,4295.84848442,2864.24242396,3853.33333295,280.242424214,3982.63636324,568.72727267,4372.60606017,214.303030282,4498.30302985,366.787878751,4296.36363593,3651.39393903,4379.30302987,3049.69696939,5040.75757525,3107.39393908,4205.69696928,164.848484832,4251.54545412,3581.33333298,4290.69696927,2806.54545426,4892.3939389,3321.69696936,4450.90909046,4088.24242383,42.0,42.0,?
2017-07-31 19:13:58.028435,4589.48484803,2971.3939391,4292.75757533,2864.24242396,3858.4848481,280.242424214,3997.06060566,568.72727267,4371.57575714,214.303030282,4499.33333288,366.787878751,4294.30302987,3651.39393903,4382.90909047,3049.69696939,5040.24242374,3107.39393908,4212.90909049,164.848484832,4264.93939351,3581.33333298,4289.66666624,2806.54545426,4907.33333284,3321.69696936,4456.57575713,4088.24242383,42.0,42.0,?
2017-07-31 19:13:58.035745,4588.454545,2971.3939391,4294.81818139,2864.24242396,3856.42424204,280.242424214,3991.39393899,568.72727267,4388.57575714,214.303030282,4494.18181773,366.787878751,4291.21212078,3651.39393903,4393.72727229,3049.69696939,5050.03030253,3107.39393908,4219.09090867,164.848484832,4264.93939351,3581.33333298,4290.18181775,2806.54545426,4902.69696921,3321.69696936,4455.5454541,4088.24242383,42.0,42.0,?
2017-07-31 19:13:58.043322,4580.21212075,2971.3939391,4298.42424199,2864.24242396,3848.1818178,280.242424214,3977.48484809,568.72727267,4381.87878744,214.303030282,4485.42424198,366.787878751,4268.54545412,3651.39393903,4365.39393896,3049.69696939,5020.66666616,3107.39393908,4204.66666625,164.848484832,4247.93939351,3581.33333298,4290.69696927,2806.54545426,4882.60606012,3321.69696936,4445.2424238,4088.24242383,42.0,42.0,?
2017-07-31 19:13:58.051127,4573.51515106,2971.3939391,4294.81818139,2864.24242396,3848.1818178,280.242424214,3984.18181778,568.72727267,4363.3333329,214.303030282,4489.5454541,366.787878751,4258.24242382,3651.39393903,4345.30302987,3049.69696939,4998.51515102,3107.39393908,4188.69696928,164.848484832,4243.81818139,3581.33333298,4281.93939351,2806.54545426,4878.99999951,3321.69696936,4445.2424238,4088.24242383,42.0,42.0,?
2017-07-31 19:13:58.061857,4586.39393894,2971.3939391,4308.21212078,2864.24242396,3850.24242386,280.242424214,3990.87878748,568.72727267,4365.39393896,214.303030282,4492.12121167,366.787878751,4272.66666624,3651.39393903,4363.84848441,3049.69696939,5023.24242374,3107.39393908,4180.96969655,164.848484832,4254.63636321,3581.33333298,4279.36363594,2806.54545426,4892.3939389,3321.69696936,4451.42424198,4088.24242383,42.0,42.0,?
2017-07-31 19:13:58.066948,4587.93939348,2971.3939391,4305.63636321,2864.24242396,3853.33333295,280.242424214,3996.54545415,568.72727267,4388.06060562,214.303030282,4491.09090864,366.787878751,4287.60606018,3651.39393903,4388.06060562,3049.69696939,5055.18181768,3107.39393908,4194.36363594,164.848484832,4260.30302988,3581.33333298,4292.24242381,2806.54545426,4897.03030254,3321.69696936,4455.03030258,4088.24242383,42.0,42.0,?
2017-07-31 19:13:58.075884,4587.93939348,2971.3939391,4301.51515109,2864.24242396,3850.75757537,280.242424214,4002.72727233,568.72727267,4394.2424238,214.303030282,4498.81818137,366.787878751,4288.12121169,3651.39393903,4387.03030259,3049.69696939,5048.48484798,3107.39393908,4196.424242,164.848484832,4262.36363594,3581.33333298,4289.66666624,2806.54545426,4903.21212072,3321.69696936,4451.42424198,4088.24242383,42.0,42.0,?
2017-07-31 19:13:58.082404,4597.72727227,2971.3939391,4307.69696927,2864.24242396,3854.36363598,280.242424214,3996.54545415,568.72727267,4381.36363593,214.303030282,4514.27272682,366.787878751,4292.24242381,3651.39393903,4381.87878744,3049.69696939,5040.24242374,3107.39393908,4182.5151511,164.848484832,4268.54545412,3581.33333298,4281.93939351,2806.54545426,4919.18181769,3321.69696936,4452.96969652,4088.24242383,42.0,42.0,?
2017-07-31 19:13:58.090610,4592.57575712,2971.3939391,4301.51515109,2864.24242396,3869.30302992,280.242424214,3988.81818142,568.72727267,4377.2424238,214.303030282,4517.87878743,366.787878751,4302.54545412,3651.39393903,4391.66666623,3049.69696939,5062.39393889,3107.39393908,4191.78787837,164.848484832,4274.7272723,3581.33333298,4293.27272684,2806.54545426,4917.63636314,3321.69696936,4465.33333289,4088.24242383,42.0,42.0,?
2017-07-31 19:13:58.100064,4601.33333287,2971.3939391,4307.69696927,2864.24242396,3869.30302992,280.242424214,3991.90909051,568.72727267,4380.84848441,214.303030282,4507.57575713,366.787878751,4297.90909048,3651.39393903,4395.27272683,3049.69696939,5063.93939343,3107.39393908,4207.75757534,164.848484832,4281.424242,3581.33333298,4299.45454502,2806.54545426,4908.36363587,3321.69696936,4469.45454501,4088.24242383,42.0,42.0,?
2017-07-31 19:13:58.105973,4609.0606056,2971.3939391,4305.12121169,2864.24242396,3861.06060567,280.242424214,3992.93939354,568.72727267,4384.45454502,214.303030282,4507.57575713,366.787878751,4286.06060563,3651.39393903,4384.96969653,3049.69696939,5042.3030298,3107.39393908,4207.75757534,164.848484832,4282.45454503,3581.33333298,4288.12121169,2806.54545426,4908.36363587,3321.69696936,4466.87878743,4088.24242383,42.0,42.0,?
2017-07-31 19:13:58.115879,4602.3636359,2971.3939391,4300.48484805,2864.24242396,3861.57575719,280.242424214,3994.9999996,568.72727267,4386.51515108,214.303030282,4516.8484844,366.787878751,4283.48484806,3651.39393903,4373.6363632,3049.69696939,5037.15151465,3107.39393908,4196.93939352,164.848484832,4279.87878745,3581.33333298,4283.48484806,2806.54545426,4910.93939345,3321.69696936,4464.81818137,4088.24242383,42.0,42.0,?
2017-07-31 19:13:58.120862,4604.42424196,2971.3939391,4309.24242381,2864.24242396,3865.1818178,280.242424214,3991.90909051,568.72727267,4384.96969653,214.303030282,4516.8484844,366.787878751,4283.99999957,3651.39393903,4373.6363632,3049.69696939,5048.9999995,3107.39393908,4192.30302988,164.848484832,4281.93939351,3581.33333298,4290.69696927,2806.54545426,4909.3939389,3321.69696936,4465.33333289,4088.24242383,42.0,42.0,?
2017-07-31 19:13:58.129322,4600.30302984,2971.3939391,4302.54545412,2864.24242396,3867.24242386,280.242424214,3978.51515112,568.72727267,4386.51515108,214.303030282,4510.66666622,366.787878751,4279.87878745,3651.39393903,4374.66666623,3049.69696939,5047.96969646,3107.39393908,4192.8181814,164.848484832,4284.51515109,3581.33333298,4287.60606018,2806.54545426,4907.33333284,3321.69696936,4466.36363592,4088.24242383,42.0,42.0,?
2017-07-31 19:13:58.137646,4593.09090863,2971.3939391,4301.51515109,2864.24242396,3855.39393901,280.242424214,3993.45454506,568.72727267,4388.06060562,214.303030282,4510.1515147,366.787878751,4273.69696927,3651.39393903,4354.57575714,3049.69696939,5014.48484798,3107.39393908,4177.36363595,164.848484832,4278.84848442,3581.33333298,4280.39393897,2806.54545426,4904.24242375,3321.69696936,4452.45454501,4088.24242383,42.0,42.0,?
2017-07-31 19:13:58.145460,4584.84848439,2971.3939391,4299.96969654,2864.24242396,3844.57575719,280.242424214,4013.54545414,568.72727267,4392.18181774,214.303030282,4513.75757531,366.787878751,4275.75757533,3651.39393903,4346.84848441,3049.69696939,5001.60606011,3107.39393908,4164.48484807,164.848484832,4268.0303026,3581.33333298,4285.0303026,2806.54545426,4893.42424193,3321.69696936,4440.09090865,4088.24242383,42.0,42.0,?
2017-07-31 19:13:58.152670,4577.63636318,2971.3939391,4294.81818139,2864.24242396,3841.4848481,280.242424214,3989.33333293,568.72727267,4389.60606017,214.303030282,4509.12121167,366.787878751,4279.87878745,3651.39393903,4365.39393896,3049.69696939,5028.90909041,3107.39393908,4172.21212079,164.848484832,4265.45454503,3581.33333298,4291.7272723,2806.54545426,4883.63636315,3321.69696936,4445.2424238,4088.24242383,42.0,42.0,?
2017-07-31 19:13:58.161758,4587.42424197,2971.3939391,4303.06060563,2864.24242396,3844.57575719,280.242424214,3980.57575718,568.72727267,4378.78787835,214.303030282,4509.63636319,366.787878751,4287.60606018,3651.39393903,4386.51515108,3049.69696939,5055.18181768,3107.39393908,4187.66666625,164.848484832,4274.21212078,3581.33333298,4291.21212078,2806.54545426,4889.30302981,3321.69696936,4451.93939349,4088.24242383,42.0,42.0,?
2017-07-31 19:13:58.167901,4591.03030257,2971.3939391,4299.96969654,2864.24242396,3856.93939355,280.242424214,4005.3030299,568.72727267,4376.72727229,214.303030282,4523.54545409,366.787878751,4298.93939351,3651.39393903,4400.9393935,3049.69696939,5062.39393889,3107.39393908,4196.424242,164.848484832,4285.0303026,3581.33333298,4288.63636321,2806.54545426,4902.69696921,3321.69696936,4456.57575713,4088.24242383,42.0,42.0,?
2017-07-31 19:13:58.176057,4586.39393894,2971.3939391,4302.0303026,2864.24242396,3855.39393901,280.242424214,3992.93939354,568.72727267,4374.66666623,214.303030282,4515.30302985,366.787878751,4288.63636321,3651.39393903,4384.96969653,3049.69696939,5035.09090859,3107.39393908,4183.54545413,164.848484832,4280.90909048,3581.33333298,4286.06060563,2806.54545426,4902.18181769,3321.69696936,4451.42424198,4088.24242383,42.0,42.0,?
2017-07-31 19:13:58.185704,4583.30302984,2971.3939391,4302.0303026,2864.24242396,3845.60606022,280.242424214,3983.15151475,568.72727267,4382.90909047,214.303030282,4506.54545409,366.787878751,4281.424242,3651.39393903,4363.3333329,3049.69696939,5013.96969647,3107.39393908,4176.33333292,164.848484832,4270.60606018,3581.33333298,4287.60606018,2806.54545426,4890.84848436,3321.69696936,4445.75757531,4088.24242383,42.0,42.0,?
2017-07-31 19:13:58.195962,4583.81818136,2971.3939391,4295.84848442,2864.24242396,3847.66666628,280.242424214,4005.81818142,568.72727267,4396.30302986,214.303030282,4521.48484803,366.787878751,4293.27272684,3651.39393903,4371.06060562,3049.69696939,5033.54545404,3107.39393908,4186.63636322,164.848484832,4273.18181775,3581.33333298,4289.66666624,2806.54545426,4890.84848436,3321.69696936,4451.42424198,4088.24242383,42.0,42.0,?
2017-07-31 19:13:58.199508,4586.90909045,2971.3939391,4302.0303026,2864.24242396,3847.66666628,280.242424214,3991.90909051,568.72727267,4388.06060562,214.303030282,4523.03030258,366.787878751,4283.99999957,3651.39393903,4373.6363632,3049.69696939,5040.24242374,3107.39393908,4177.87878746,164.848484832,4274.7272723,3581.33333298,4286.57575715,2806.54545426,4897.03030254,3321.69696936,4450.90909046,4088.24242383,42.0,42.0,?
2017-07-31 19:13:58.209162,4570.93939348,2971.3939391,4294.81818139,2864.24242396,3848.69696931,280.242424214,3972.33333294,568.72727267,4378.27272683,214.303030282,4519.42424197,366.787878751,4271.12121169,3651.39393903,4371.57575714,3049.69696939,5031.48484798,3107.39393908,4168.09090867,164.848484832,4272.15151472,3581.33333298,4285.0303026,2806.54545426,4891.36363587,3321.69696936,4443.69696925,4088.24242383,42.0,42.0,?
2017-07-31 19:13:58.215456,4564.24242379,2971.3939391,4295.3333329,2864.24242396,3845.60606022,280.242424214,3992.42424203,568.72727267,4376.72727229,214.303030282,4525.09090864,366.787878751,4277.30302988,3651.39393903,4373.12121168,3049.69696939,5036.12121162,3107.39393908,4172.72727231,164.848484832,4273.69696927,3581.33333298,4288.63636321,2806.54545426,4884.66666618,3321.69696936,4440.60606016,4088.24242383,42.0,42.0,?
2017-07-31 19:13:58.222893,4571.96969651,2971.3939391,4303.06060563,2864.24242396,3839.93939356,280.242424214,4014.57575717,568.72727267,4380.3333329,214.303030282,4516.8484844,366.787878751,4282.96969654,3651.39393903,4370.03030259,3049.69696939,5030.45454495,3107.39393908,4170.15151473,164.848484832,4274.7272723,3581.33333298,4287.60606018,2806.54545426,4888.27272678,3321.69696936,4441.63636319,4088.24242383,42.0,42.0,?
2017-07-31 19:13:58.231882,4563.72727227,2971.3939391,4293.78787836,2864.24242396,3839.42424204,280.242424214,3999.12121172,568.72727267,4377.75757532,214.303030282,4508.60606016,366.787878751,4279.36363594,3651.39393903,4362.30302987,3049.69696939,5014.48484798,3107.39393908,4156.24242383,164.848484832,4272.15151472,3581.33333298,4284.51515109,2806.54545426,4890.84848436,3321.69696936,4440.60606016,4088.24242383,42.0,42.0,?
2017-07-31 19:13:58.238462,4563.21212076,2971.3939391,4297.90909048,2864.24242396,3835.81818143,280.242424214,3969.75757536,568.72727267,4344.27272684,214.303030282,4521.48484803,366.787878751,4264.424242,3651.39393903,4353.54545411,3049.69696939,5011.90909041,3107.39393908,4145.42424201,164.848484832,4273.18181775,3581.33333298,4287.60606018,2806.54545426,4888.7878783,3321.69696936,4433.90909047,4088.24242383,42.0,42.0,?
2017-07-31 19:13:58.246890,4566.30302985,2971.3939391,4297.39393896,2864.24242396,3837.36363598,280.242424214,3984.18181778,568.72727267,4305.12121169,214.303030282,4525.09090864,366.787878751,4261.84848442,3651.39393903,4359.21212078,3049.69696939,5023.75757526,3107.39393908,4157.27272686,164.848484832,4274.7272723,3581.33333298,4289.66666624,2806.54545426,4885.69696921,3321.69696936,4433.39393895,4088.24242383,42.0,42.0,?
2017-07-31 19:13:58.254562,4570.93939348,2971.3939391,4297.39393896,2864.24242396,3845.09090871,280.242424214,4016.63636323,568.72727267,4298.42424199,214.303030282,4509.12121167,366.787878751,4276.78787836,3651.39393903,4372.09090865,3049.69696939,5025.81818132,3107.39393908,4168.60606019,164.848484832,4275.24242381,3581.33333298,4286.57575715,2806.54545426,4890.84848436,3321.69696936,4439.57575713,4088.24242383,42.0,42.0,?
2017-07-31 19:13:58.262845,4583.81818136,2971.3939391,4306.66666624,2864.24242396,3851.7878784,280.242424214,4012.51515111,568.72727267,4324.69696926,214.303030282,4519.93939349,366.787878751,4289.66666624,3651.39393903,4380.84848441,3049.69696939,5026.84848435,3107.39393908,4169.63636322,164.848484832,4285.54545412,3581.33333298,4285.54545412,2806.54545426,4905.7878783,3321.69696936,4448.8484844,4088.24242383,42.0,42.0,?
2017-07-31 19:13:58.270572,4584.33333287,2971.3939391,4302.54545412,2864.24242396,3855.39393901,280.242424214,3986.24242384,568.72727267,4328.81818139,214.303030282,4546.72727227,366.787878751,4297.39393896,3651.39393903,4388.57575714,3049.69696939,5037.15151465,3107.39393908,4175.30302989,164.848484832,4294.30302987,3581.33333298,4287.09090866,2806.54545426,4908.36363587,3321.69696936,4456.57575713,4088.24242383,42.0,42.0,?
2017-07-31 19:13:58.279336,4581.24242378,2971.3939391,4304.09090866,2864.24242396,3847.15151477,280.242424214,3970.78787839,568.72727267,4272.15151472,214.303030282,4545.18181773,366.787878751,4297.39393896,3651.39393903,4389.60606017,3049.69696939,5030.96969647,3107.39393908,4170.66666625,164.848484832,4282.96969654,3581.33333298,4288.12121169,2806.54545426,4894.96969648,3321.69696936,4448.33333289,4088.24242383,42.0,42.0,?
2017-07-31 19:13:58.285976,4571.454545,2971.3939391,4297.90909048,2864.24242396,3837.36363598,280.242424214,3980.06060566,568.72727267,4220.63636321,214.303030282,4528.18181773,366.787878751,4287.60606018,3651.39393903,4381.87878744,3049.69696939,5010.87878738,3107.39393908,4154.69696928,164.848484832,4272.66666624,3581.33333298,4287.09090866,2806.54545426,4889.30302981,3321.69696936,4440.09090865,4088.24242383,42.0,42.0,?
2017-07-31 19:13:58.294569,4569.90909045,2971.3939391,4293.27272684,2864.24242396,3835.81818143,280.242424214,4000.15151475,568.72727267,4218.06060564,214.303030282,4523.54545409,366.787878751,4278.84848442,3651.39393903,4374.15151471,3049.69696939,5001.60606011,3107.39393908,4155.2121208,164.848484832,4280.90909048,3581.33333298,4286.06060563,2806.54545426,4897.03030254,3321.69696936,4444.21212077,4088.24242383,42.0,42.0,?
2017-07-31 19:13:58.302281,4581.24242378,2971.3939391,4302.0303026,2864.24242396,3836.33333295,280.242424214,4003.75757536,568.72727267,4217.03030261,214.303030282,4529.72727227,366.787878751,4279.87878745,3651.39393903,4377.2424238,3049.69696939,5010.36363586,3107.39393908,4164.48484807,164.848484832,4291.7272723,3581.33333298,4286.06060563,2806.54545426,4904.24242375,3321.69696936,4446.27272683,4088.24242383,42.0,42.0,?
2017-07-31 19:13:58.309933,4569.39393894,2971.3939391,4293.78787836,2864.24242396,3832.72727234,280.242424214,3991.90909051,568.72727267,4204.15151473,214.303030282,4535.39393894,366.787878751,4278.84848442,3651.39393903,4370.03030259,3049.69696939,5005.21212071,3107.39393908,4154.18181777,164.848484832,4291.21212078,3581.33333298,4283.99999957,2806.54545426,4900.12121163,3321.69696936,4441.12121168,4088.24242383,42.0,42.0,?
2017-07-31 19:13:58.319006,4568.36363591,2971.3939391,4294.81818139,2864.24242396,3826.03030265,280.242424214,3984.18181778,568.72727267,4200.03030261,214.303030282,4530.24242379,366.787878751,4268.54545412,3651.39393903,4346.84848441,3049.69696939,4976.36363587,3107.39393908,4142.33333292,164.848484832,4289.66666624,3581.33333298,4282.96969654,2806.54545426,4897.54545406,3321.69696936,4438.03030259,4088.24242383,42.0,42.0,?
2017-07-31 19:13:58.324400,4578.15151469,2971.3939391,4297.39393896,2864.24242396,3827.06060568,280.242424214,3992.93939354,568.72727267,4200.03030261,214.303030282,4520.96969652,366.787878751,4265.96969654,3651.39393903,4346.84848441,3049.69696939,4968.63636314,3107.39393908,4149.03030262,164.848484832,4293.78787836,3581.33333298,4284.51515109,2806.54545426,4898.57575709,3321.69696936,4444.21212077,4088.24242383,42.0,42.0,?
2017-07-31 19:13:58.331988,4572.48484803,2971.3939391,4292.24242381,2864.24242396,3829.12121174,280.242424214,3993.45454506,568.72727267,4197.45454503,214.303030282,4520.96969652,366.787878751,4269.06060563,3651.39393903,4366.9393935,3049.69696939,4983.57575708,3107.39393908,4154.18181777,164.848484832,4295.84848442,3581.33333298,4287.60606018,2806.54545426,4890.84848436,3321.69696936,4449.36363592,4088.24242383,42.0,42.0,?
2017-07-31 19:13:58.348270,4574.03030257,2971.3939391,4299.96969654,2864.24242396,3829.12121174,280.242424214,3965.12121172,568.72727267,4189.21212079,214.303030282,4524.06060561,366.787878751,4273.18181775,3651.39393903,4375.18181774,3049.69696939,4998.51515102,3107.39393908,4157.78787837,164.848484832,4293.78787836,3581.33333298,4287.09090866,2806.54545426,4885.69696921,3321.69696936,4448.33333289,4088.24242383,42.0,42.0,?
2017-07-31 19:13:58.350487,4571.96969651,2971.3939391,4296.36363593,2864.24242396,3834.27272689,280.242424214,3954.81818142,568.72727267,4177.87878746,214.303030282,4520.96969652,366.787878751,4278.84848442,3651.39393903,4374.15151471,3049.69696939,5003.66666617,3107.39393908,4156.75757534,164.848484832,4294.81818139,3581.33333298,4281.424242,2806.54545426,4893.42424193,3321.69696936,4449.36363592,4088.24242383,42.0,42.0,?
2017-07-31 19:13:58.356962,4573.51515106,2971.3939391,4298.42424199,2864.24242396,3832.21212083,280.242424214,3979.54545415,568.72727267,4179.42424201,214.303030282,4521.48484803,366.787878751,4278.84848442,3651.39393903,4376.21212077,3049.69696939,4995.42424192,3107.39393908,4146.45454504,164.848484832,4300.99999957,3581.33333298,4282.96969654,2806.54545426,4901.15151466,3321.69696936,4448.8484844,4088.24242383,42.0,42.0,?
2017-07-31 19:13:58.365873,4582.27272681,2971.3939391,4301.51515109,2864.24242396,3836.84848446,280.242424214,4006.84848445,568.72727267,4200.54545413,214.303030282,4538.48484803,366.787878751,4296.87878745,3651.39393903,4399.39393895,3049.69696939,5006.24242374,3107.39393908,4164.48484807,164.848484832,4305.12121169,3581.33333298,4291.7272723,2806.54545426,4898.06060557,3321.69696936,4452.96969652,4088.24242383,42.0,42.0,?
2017-07-31 19:13:58.372320,4581.24242378,2971.3939391,4293.27272684,2864.24242396,3846.12121174,280.242424214,4011.48484808,568.72727267,4204.15151473,214.303030282,4550.84848439,366.787878751,4316.96969654,3651.39393903,4417.9393935,3049.69696939,5029.93939344,3107.39393908,4186.63636322,164.848484832,4303.57575715,3581.33333298,4291.21212078,2806.54545426,4894.45454497,3321.69696936,4459.15151471,4088.24242383,42.0,42.0,?
2017-07-31 19:13:58.381930,4576.60606015,2991.9999997,4295.84848442,2864.24242396,3832.72727234,280.242424214,3983.15151475,568.72727267,4180.96969655,214.303030282,4540.54545409,366.787878751,4282.45454503,3651.39393903,4383.42424199,3049.69696939,5008.81818132,3107.39393908,4161.39393898,164.848484832,4298.42424199,3581.33333298,4283.48484806,2806.54545426,4896.51515103,3321.69696936,4447.81818137,4088.24242383,42.0,42.0,?
2017-07-31 19:13:58.387248,4566.30302985,2991.9999997,4292.75757533,2823.03030275,3826.03030265,280.242424214,3953.27272688,568.72727267,4182.5151511,214.303030282,4540.03030258,366.787878751,4255.15151473,3651.39393903,4349.9393935,3049.69696939,4982.03030253,3107.39393908,4140.27272686,164.848484832,4291.7272723,3581.33333298,4282.45454503,2806.54545426,4890.84848436,3321.69696936,4438.03030259,4088.24242383,42.0,42.0,?
2017-07-31 19:13:58.395881,4569.90909045,2991.9999997,4295.3333329,2823.03030275,3834.7878784,280.242424214,3966.66666627,568.72727267,4197.45454503,214.303030282,4541.57575712,366.787878751,4277.81818139,3651.39393903,4370.03030259,3049.69696939,4992.33333283,3107.39393908,4144.90909049,164.848484832,4294.81818139,3581.33333298,4282.45454503,2806.54545426,4890.84848436,3321.69696936,4442.66666622,4154.18181777,42.0,42.0,?
2017-07-31 19:13:58.403752,4578.66666621,2991.9999997,4299.96969654,2823.03030275,3835.30302992,255.51515149,4006.84848445,568.72727267,4198.48484806,214.303030282,4536.42424197,366.787878751,4289.66666624,3651.39393903,4391.15151471,3049.69696939,4996.45454495,3107.39393908,4140.27272686,164.848484832,4301.51515109,3581.33333298,4281.93939351,2806.54545426,4898.06060557,3321.69696936,4447.81818137,4154.18181777,42.0,42.0,?
2017-07-31 19:13:58.409971,4571.454545,2991.9999997,4292.24242381,2823.03030275,3830.66666628,255.51515149,4014.57575717,498.666666617,4203.1212117,214.303030282,4550.33333288,366.787878751,4272.66666624,3651.39393903,4372.60606017,3049.69696939,4981.51515102,3107.39393908,4135.63636322,164.848484832,4296.87878745,3581.33333298,4283.99999957,2806.54545426,4890.84848436,3321.69696936,4448.33333289,4154.18181777,42.0,42.0,?
2017-07-31 19:13:58.419702,4574.03030257,2991.9999997,4298.42424199,2823.03030275,3829.63636325,255.51515149,3985.21212081,498.666666617,4205.18181776,239.030303006,4546.72727227,366.787878751,4261.84848442,3651.39393903,4345.30302987,3049.69696939,4969.66666617,3107.39393908,4128.42424201,164.848484832,4292.24242381,3581.33333298,4283.99999957,2806.54545426,4885.18181769,3321.69696936,4446.27272683,4154.18181777,42.0,42.0,?
2017-07-31 19:13:58.435598,4563.72727227,2991.9999997,4291.7272723,2823.03030275,3828.09090871,255.51515149,3982.63636324,498.666666617,4183.03030261,239.030303006,4519.93939349,329.696969664,4277.81818139,3667.87878751,4376.72727229,3049.69696939,4995.93939344,3107.39393908,4136.15151474,164.848484832,4294.81818139,3581.33333298,4287.09090866,2806.54545426,4876.42424194,3321.69696936,4440.60606016,4154.18181777,42.0,42.0,?
2017-07-31 19:13:58.437451,4563.72727227,2991.9999997,4291.7272723,2823.03030275,3828.09090871,255.51515149,3982.63636324,498.666666617,4183.03030261,239.030303006,4519.93939349,329.696969664,4277.81818139,3667.87878751,4376.72727229,3049.69696939,4995.93939344,3107.39393908,4136.15151474,164.848484832,4294.81818139,3581.33333298,4287.09090866,2806.54545426,4876.42424194,3321.69696936,4440.60606016,4154.18181777,42.0,42.0,?
2017-07-31 19:13:58.444752,4565.27272682,2991.9999997,4294.81818139,2823.03030275,3821.39393901,255.51515149,4000.66666627,498.666666617,4191.78787837,239.030303006,4540.54545409,329.696969664,4284.51515109,3667.87878751,4377.75757532,3041.45454515,5002.63636314,3107.39393908,4139.75757534,164.848484832,4292.75757533,3581.33333298,4283.99999957,2806.54545426,4875.90909042,3321.69696936,4436.48484804,4154.18181777,42.0,42.0,?
2017-07-31 19:13:58.449907,4558.57575712,2991.9999997,4288.12121169,2823.03030275,3821.90909053,255.51515149,3977.48484809,498.666666617,4201.57575716,239.030303006,4540.03030258,329.696969664,4278.84848442,3667.87878751,4368.99999956,3041.45454515,5001.60606011,3119.75757545,4130.48484807,164.848484832,4294.30302987,3581.33333298,4279.87878745,2806.54545426,4883.63636315,3321.69696936,4433.39393895,4154.18181777,42.0,42.0,?
2017-07-31 19:13:58.456944,4558.0606056,2991.9999997,4292.75757533,2823.03030275,3820.8787875,255.51515149,3957.90909051,498.666666617,4195.90909049,239.030303006,4534.36363591,329.696969664,4254.63636321,3667.87878751,4362.30302987,3041.45454515,4993.36363586,3119.75757545,4123.27272686,206.06060604,4292.75757533,3581.33333298,4281.93939351,2806.54545426,4881.57575709,3321.69696936,4426.69696925,4154.18181777,42.0,42.0,?
2017-07-31 19:13:58.465838,4559.60606015,2991.9999997,4291.21212078,2823.03030275,3821.90909053,255.51515149,3996.54545415,498.666666617,4197.45454503,239.030303006,4542.60606015,329.696969664,4261.33333291,3667.87878751,4367.96969653,3041.45454515,4996.45454495,3119.75757545,4133.57575716,206.06060604,4293.27272684,3618.42424206,4288.63636321,2806.54545426,4878.484848,3321.69696936,4429.27272683,4154.18181777,42.0,42.0,?
2017-07-31 19:13:58.472885,4558.0606056,2991.9999997,4287.09090866,2823.03030275,3822.93939356,255.51515149,4014.57575717,498.666666617,4204.15151473,239.030303006,4546.72727227,329.696969664,4284.51515109,3667.87878751,4375.69696926,3041.45454515,5005.72727223,3119.75757545,4138.2121208,206.06060604,4298.42424199,3618.42424206,4287.60606018,2810.66666639,4881.57575709,3321.69696936,4436.48484804,4154.18181777,42.0,42.0,?
2017-07-31 19:13:58.482834,4561.1515147,2991.9999997,4292.24242381,2823.03030275,3820.36363598,255.51515149,3964.60606021,498.666666617,4197.45454503,239.030303006,4545.18181773,329.696969664,4272.15151472,3667.87878751,4360.75757532,3041.45454515,4999.54545405,3119.75757545,4125.33333292,206.06060604,4302.0303026,3618.42424206,4282.45454503,2810.66666639,4883.12121163,3342.30302997,4434.9393935,4154.18181777,42.0,42.0,?
2017-07-31 19:13:58.489348,4553.93939348,2991.9999997,4286.57575715,2823.03030275,3819.84848447,255.51515149,3948.63636324,498.666666617,4186.63636322,239.030303006,4534.36363591,329.696969664,4253.09090867,3667.87878751,4350.45454502,3041.45454515,4997.48484799,3119.75757545,4117.60606019,206.06060604,4304.60606018,3618.42424206,4282.45454503,2810.66666639,4881.57575709,3342.30302997,4429.27272683,4154.18181777,42.0,42.0,?
2017-07-31 19:13:58.499085,4557.03030257,2991.9999997,4291.7272723,2823.03030275,3820.36363598,255.51515149,3993.45454506,498.666666617,4185.09090867,239.030303006,4527.1515147,329.696969664,4262.36363594,3667.87878751,4370.54545411,3041.45454515,5010.36363586,3119.75757545,4120.18181777,206.06060604,4306.66666624,3610.18181782,4285.0303026,2810.66666639,4881.06060557,3342.30302997,4429.27272683,4154.18181777,42.0,42.0,?
2017-07-31 19:13:58.504614,4565.78787833,2991.9999997,4295.84848442,2823.03030275,3828.09090871,255.51515149,4024.36363596,498.666666617,4201.06060564,239.030303006,4551.87878742,329.696969664,4278.84848442,3667.87878751,4391.66666623,3041.45454515,5023.75757526,3119.75757545,4127.9090905,206.06060604,4312.3333329,3610.18181782,4284.51515109,2810.66666639,4884.15151466,3342.30302997,4440.60606016,4154.18181777,42.0,42.0,?
2017-07-31 19:13:58.512951,4565.27272682,2991.9999997,4291.7272723,2823.03030275,3831.1818178,255.51515149,4001.18181778,498.666666617,4212.39393897,239.030303006,4566.30302985,329.696969664,4282.96969654,3667.87878751,4377.2424238,3041.45454515,5016.03030253,3119.75757545,4126.36363595,206.06060604,4316.96969654,3610.18181782,4282.45454503,2810.66666639,4882.0909086,3342.30302997,4449.87878743,4154.18181777,42.0,42.0,?
2017-07-31 19:13:58.519897,4566.81818136,2991.9999997,4296.36363593,2823.03030275,3824.4848481,255.51515149,3973.36363597,498.666666617,4205.69696928,239.030303006,4552.90909045,329.696969664,4279.36363594,3667.87878751,4356.6363632,3041.45454515,5007.27272677,3119.75757545,4117.60606019,206.06060604,4313.36363593,3610.18181782,4282.96969654,2810.66666639,4879.51515103,3342.30302997,4443.18181774,4154.18181777,42.0,42.0,?
2017-07-31 19:13:58.529795,4560.12121167,2991.9999997,4289.66666624,2823.03030275,3830.66666628,255.51515149,3983.66666627,498.666666617,4207.75757534,239.030303006,4553.42424197,329.696969664,4276.27272685,3667.87878751,4365.39393896,3041.45454515,5012.93939344,3119.75757545,4121.72727232,206.06060604,4307.69696927,3610.18181782,4283.48484806,2810.66666639,4878.99999951,3342.30302997,4438.03030259,4154.18181777,42.0,42.0,?
2017-07-31 19:13:58.535951,4559.60606015,2991.9999997,4290.18181775,2823.03030275,3834.7878784,255.51515149,3985.21212081,498.666666617,4209.8181814,239.030303006,4557.54545409,329.696969664,4271.12121169,3667.87878751,4370.54545411,3041.45454515,5001.09090859,3119.75757545,4122.75757535,206.06060604,4312.3333329,3610.18181782,4282.45454503,2810.66666639,4879.51515103,3342.30302997,4440.60606016,4154.18181777,42.0,42.0,?
2017-07-31 19:13:58.548149,4569.90909045,2991.9999997,4294.81818139,2823.03030275,3837.36363598,255.51515149,3986.75757536,498.666666617,4212.90909049,239.030303006,4555.99999954,329.696969664,4274.21212078,3667.87878751,4375.69696926,3041.45454515,5000.06060556,3119.75757545,4121.72727232,206.06060604,4324.69696926,3610.18181782,4283.99999957,2810.66666639,4889.30302981,3342.30302997,4451.42424198,4154.18181777,42.0,42.0,?
2017-07-31 19:13:58.552049,4574.54545409,2991.9999997,4291.21212078,2823.03030275,3844.57575719,255.51515149,3992.93939354,498.666666617,4217.03030261,239.030303006,4561.1515147,329.696969664,4279.87878745,3667.87878751,4386.51515108,3041.45454515,5018.6060601,3119.75757545,4128.93939353,206.06060604,4327.78787836,3610.18181782,4284.51515109,2810.66666639,4893.93939345,3342.30302997,4461.72727228,4154.18181777,42.0,42.0,?
2017-07-31 19:13:58.559500,4574.54545409,2991.9999997,4295.3333329,2823.03030275,3840.45454507,255.51515149,3980.06060566,498.666666617,4203.63636322,239.030303006,4558.57575712,329.696969664,4278.33333291,3667.87878751,4378.27272683,3041.45454515,5016.03030253,3119.75757545,4120.69696928,206.06060604,4322.6363632,3610.18181782,4283.99999957,2810.66666639,4888.27272678,3342.30302997,4455.03030258,4154.18181777,42.0,42.0,?
2017-07-31 19:13:58.573552,4566.30302985,2991.9999997,4290.69696927,2823.03030275,3838.39393901,255.51515149,3981.09090869,498.666666617,4190.75757534,239.030303006,4548.78787833,329.696969664,4285.54545412,3667.87878751,4380.84848441,3041.45454515,5015.51515101,3119.75757545,4113.99999959,206.06060604,4325.72727229,3610.18181782,4284.51515109,2810.66666639,4886.21212072,3342.30302997,4451.42424198,4154.18181777,42.0,42.0,?
2017-07-31 19:13:58.577369,4570.93939348,2991.9999997,4291.21212078,2823.03030275,3843.54545416,255.51515149,3994.9999996,498.666666617,4188.18181776,239.030303006,4546.72727227,329.696969664,4289.66666624,3667.87878751,4396.30302986,3041.45454515,5033.03030253,3119.75757545,4117.09090868,206.06060604,4332.42424199,3610.18181782,4283.99999957,2810.66666639,4891.36363587,3342.30302997,4457.60606016,4154.18181777,42.0,42.0,?
2017-07-31 19:13:58.584691,4579.18181772,2991.9999997,4293.78787836,2823.03030275,3845.60606022,255.51515149,4000.66666627,498.666666617,4190.24242382,239.030303006,4549.81818136,329.696969664,4277.30302988,3667.87878751,4390.6363632,3041.45454515,5031.9999995,3119.75757545,4117.09090868,206.06060604,4332.42424199,3610.18181782,4281.93939351,2810.66666639,4891.87878739,3342.30302997,4459.15151471,4154.18181777,42.0,42.0,?
2017-07-31 19:13:58.590596,4567.84848439,2991.9999997,4285.54545412,2823.03030275,3840.96969659,255.51515149,3984.6969693,498.666666617,4192.8181814,239.030303006,4554.96969651,329.696969664,4266.99999957,3667.87878751,4366.42424199,3041.45454515,5001.60606011,3119.75757545,4110.39393898,206.06060604,4324.18181775,3610.18181782,4281.424242,2810.66666639,4884.15151466,3342.30302997,4454.51515107,4154.18181777,42.0,42.0,?
2017-07-31 19:13:58.598518,4566.81818136,2991.9999997,4294.30302987,2823.03030275,3834.7878784,255.51515149,3965.63636324,498.666666617,4195.90909049,239.030303006,4553.42424197,329.696969664,4267.51515109,3667.87878751,4356.12121169,3041.45454515,4992.33333283,3119.75757545,4102.66666626,206.06060604,4319.54545411,3610.18181782,4285.0303026,2810.66666639,4883.12121163,3342.30302997,4448.8484844,4154.18181777,42.0,42.0,?
2017-07-31 19:13:58.607167,4571.96969651,2991.9999997,4294.30302987,2823.03030275,3838.39393901,255.51515149,3977.48484809,498.666666617,4206.21212079,239.030303006,4556.51515106,329.696969664,4283.99999957,3667.87878751,4379.81818138,3041.45454515,5028.90909041,3119.75757545,4110.39393898,206.06060604,4324.18181775,3610.18181782,4285.0303026,2810.66666639,4889.30302981,3342.30302997,4452.96969652,4154.18181777,42.0,42.0,?
2017-07-31 19:13:58.614624,4572.99999954,2991.9999997,4290.18181775,2823.03030275,3839.42424204,255.51515149,4005.3030299,498.666666617,4208.78787837,239.030303006,4570.93939348,329.696969664,4289.15151472,3667.87878751,4386.51515108,3041.45454515,5035.09090859,3119.75757545,4109.87878747,206.06060604,4329.3333329,3610.18181782,4278.84848442,2810.66666639,4893.42424193,3342.30302997,4455.5454541,4154.18181777,42.0,42.0,?
2017-07-31 19:13:58.622407,4573.51515106,2991.9999997,4295.3333329,2823.03030275,3835.30302992,255.51515149,4005.81818142,498.666666617,4200.54545413,239.030303006,4569.90909045,329.696969664,4271.63636321,3667.87878751,4360.24242381,3041.45454515,4995.42424192,3119.75757545,4099.06060565,206.06060604,4329.84848442,3610.18181782,4280.39393897,2810.66666639,4886.21212072,3342.30302997,4451.93939349,4154.18181777,42.0,42.0,?
2017-07-31 19:13:58.630028,4566.30302985,2991.9999997,4289.66666624,2823.03030275,3838.39393901,255.51515149,3985.72727233,498.666666617,4199.5151511,239.030303006,4553.93939348,329.696969664,4273.18181775,3667.87878751,4359.72727229,3041.45454515,4992.33333283,3119.75757545,4108.84848444,206.06060604,4334.99999957,3610.18181782,4286.57575715,2810.66666639,4881.06060557,3342.30302997,4459.15151471,4154.18181777,42.0,42.0,?
2017-07-31 19:13:58.637778,4571.454545,2991.9999997,4293.78787836,2823.03030275,3837.87878749,255.51515149,3985.72727233,498.666666617,4201.57575716,239.030303006,4546.21212076,329.696969664,4286.57575715,3667.87878751,4377.75757532,3041.45454515,5014.9999995,3119.75757545,4116.06060565,206.06060604,4342.21212078,3610.18181782,4284.51515109,2810.66666639,4895.99999951,3342.30302997,4461.72727228,4154.18181777,42.0,42.0,?
2017-07-31 19:13:58.645215,4576.09090863,2991.9999997,4292.24242381,2823.03030275,3838.39393901,255.51515149,3992.42424203,498.666666617,4194.87878746,239.030303006,4548.27272682,329.696969664,4281.424242,3667.87878751,4383.9393935,3041.45454515,5027.36363586,3119.75757545,4109.87878747,206.06060604,4337.57575714,3610.18181782,4280.39393897,2810.66666639,4899.60606012,3342.30302997,4456.06060561,4154.18181777,42.0,42.0,?
2017-07-31 19:13:58.655142,4574.03030257,2991.9999997,4289.66666624,2823.03030275,3843.03030265,255.51515149,3980.06060566,498.666666617,4186.63636322,239.030303006,4548.27272682,329.696969664,4269.06060563,3667.87878751,4385.48484805,3041.45454515,5035.09090859,3119.75757545,4106.27272686,206.06060604,4333.45454502,3610.18181782,4283.99999957,2810.66666639,4893.42424193,3342.30302997,4455.5454541,4154.18181777,42.0,42.0,?
2017-07-31 19:13:58.662143,4576.60606015,2991.9999997,4295.3333329,2823.03030275,3837.87878749,255.51515149,3980.57575718,498.666666617,4194.87878746,239.030303006,4554.96969651,329.696969664,4274.7272723,3667.87878751,4385.48484805,3041.45454515,5031.9999995,3119.75757545,4106.27272686,206.06060604,4334.99999957,3610.18181782,4286.57575715,2810.66666639,4894.45454497,3342.30302997,4455.03030258,4154.18181777,42.0,42.0,?
2017-07-31 19:13:58.668863,4570.42424197,2991.9999997,4289.15151472,2823.03030275,3837.36363598,255.51515149,4002.72727233,498.666666617,4216.51515109,239.030303006,4568.87878742,329.696969664,4290.69696927,3667.87878751,4388.57575714,3041.45454515,5029.93939344,3119.75757545,4111.42424201,206.06060604,4338.09090866,3610.18181782,4285.0303026,2810.66666639,4889.81818133,3342.30302997,4454.51515107,4154.18181777,42.0,42.0,?
2017-07-31 19:13:58.677083,4572.48484803,2991.9999997,4293.78787836,2823.03030275,3841.4848481,255.51515149,4003.24242384,498.666666617,4217.54545412,239.030303006,4568.87878742,329.696969664,4282.96969654,3667.87878751,4390.6363632,3041.45454515,5034.57575707,3119.75757545,4111.93939353,206.06060604,4342.21212078,3610.18181782,4281.93939351,2810.66666639,4886.21212072,3342.30302997,4456.57575713,4154.18181777,42.0,42.0,?
2017-07-31 19:13:58.684425,4577.12121166,2991.9999997,4295.3333329,2823.03030275,3839.42424204,255.51515149,3994.48484809,498.666666617,4204.66666625,239.030303006,4563.72727227,329.696969664,4273.18181775,3667.87878751,4387.03030259,3041.45454515,5032.51515101,3119.75757545,4107.30302989,206.06060604,4341.18181775,3610.18181782,4279.36363594,2810.66666639,4895.484848,3342.30302997,4457.60606016,4154.18181777,42.0,42.0,?
2017-07-31 19:13:58.692012,4569.39393894,2991.9999997,4287.60606018,2823.03030275,3830.66666628,255.51515149,3989.84848445,498.666666617,4198.48484806,239.030303006,4555.99999954,329.696969664,4275.24242381,3667.87878751,4378.78787835,3041.45454515,5017.57575707,3119.75757545,4098.03030262,206.06060604,4334.99999957,3610.18181782,4279.87878745,2810.66666639,4895.484848,3342.30302997,4450.90909046,4154.18181777,42.0,42.0,?
2017-07-31 19:13:58.700422,4571.454545,2991.9999997,4294.81818139,2823.03030275,3829.12121174,255.51515149,3974.393939,498.666666617,4201.06060564,239.030303006,4556.51515106,329.696969664,4272.15151472,3667.87878751,4371.57575714,3041.45454515,5007.27272677,3119.75757545,4094.93939353,206.06060604,4336.0303026,3610.18181782,4285.0303026,2810.66666639,4887.75757527,3342.30302997,4447.81818137,4154.18181777,42.0,42.0,?
2017-07-31 19:13:58.708810,4573.51515106,2991.9999997,4294.30302987,2823.03030275,3839.93939356,255.51515149,3975.42424203,498.666666617,4216.51515109,239.030303006,4575.57575712,329.696969664,4271.12121169,3667.87878751,4371.06060562,3041.45454515,5009.33333283,3119.75757545,4104.72727232,206.06060604,4346.84848441,3610.18181782,4283.99999957,2810.66666639,4896.51515103,3342.30302997,4459.15151471,4154.18181777,42.0,42.0,?
2017-07-31 19:13:58.716605,4575.0606056,2991.9999997,4296.36363593,2823.03030275,3839.42424204,255.51515149,3984.18181778,498.666666617,4214.45454503,239.030303006,4576.60606015,329.696969664,4271.12121169,3667.87878751,4365.39393896,3041.45454515,5012.42424192,3119.75757545,4101.12121171,206.06060604,4348.39393896,3610.18181782,4278.33333291,2810.66666639,4901.66666618,3342.30302997,4460.69696925,4154.18181777,42.0,42.0,?
2017-07-31 19:13:58.723297,4573.51515106,2991.9999997,4292.75757533,2823.03030275,3832.72727234,255.51515149,3984.6969693,498.666666617,4201.06060564,239.030303006,4561.1515147,329.696969664,4274.7272723,3667.87878751,4371.57575714,3041.45454515,5027.87878738,3119.75757545,4094.93939353,206.06060604,4339.6363632,3610.18181782,4283.99999957,2810.66666639,4887.75757527,3342.30302997,4451.93939349,4154.18181777,42.0,42.0,?
2017-07-31 19:13:58.733060,4567.84848439,2991.9999997,4285.0303026,2823.03030275,3832.21212083,255.51515149,3981.09090869,498.666666617,4206.21212079,239.030303006,4556.51515106,329.696969664,4275.75757533,3667.87878751,4382.90909047,3041.45454515,5033.03030253,3119.75757545,4097.51515111,206.06060604,4338.60606017,3610.18181782,4287.09090866,2810.66666639,4880.54545406,3342.30302997,4453.99999955,4154.18181777,42.0,42.0,?
2017-07-31 19:13:58.738833,4574.03030257,2991.9999997,4294.30302987,2823.03030275,3828.09090871,255.51515149,3974.393939,498.666666617,4214.45454503,239.030303006,4558.0606056,329.696969664,4266.48484806,3667.87878751,4376.72727229,3041.45454515,5012.42424192,3119.75757545,4095.45454505,206.06060604,4347.87878744,3610.18181782,4282.45454503,2810.66666639,4895.99999951,3342.30302997,4457.60606016,4154.18181777,42.0,42.0,?
2017-07-31 19:13:58.746972,4572.48484803,2991.9999997,4292.75757533,2823.03030275,3830.66666628,255.51515149,3982.12121172,498.666666617,4211.87878746,239.030303006,4559.09090864,329.696969664,4265.96969654,3667.87878751,4375.18181774,3041.45454515,5028.90909041,3119.75757545,4103.18181777,206.06060604,4352.51515108,3610.18181782,4284.51515109,2810.66666639,4900.63636315,3342.30302997,4457.09090865,4154.18181777,42.0,42.0,?
2017-07-31 19:13:58.755463,4571.96969651,2991.9999997,4293.78787836,2823.03030275,3835.30302992,255.51515149,3987.78787839,498.666666617,4209.8181814,239.030303006,4562.18181773,329.696969664,4272.66666624,3667.87878751,4382.39393896,3041.45454515,5069.09090858,3119.75757545,4109.36363595,206.06060604,4347.87878744,3610.18181782,4283.99999957,2810.66666639,4890.33333284,3342.30302997,4455.5454541,4154.18181777,42.0,42.0,?
2017-07-31 19:13:58.762007,4582.27272681,2991.9999997,4298.42424199,2823.03030275,3840.96969659,255.51515149,3990.87878748,498.666666617,4220.1212117,239.030303006,4566.81818136,329.696969664,4273.69696927,3667.87878751,4384.96969653,3041.45454515,5065.99999949,3119.75757545,4102.15151474,206.06060604,4352.51515108,3610.18181782,4279.36363594,2810.66666639,4903.21212072,3342.30302997,4463.27272683,4154.18181777,42.0,42.0,?
2017-07-31 19:13:58.770002,4575.0606056,2991.9999997,4287.09090866,2823.03030275,3842.51515113,255.51515149,4001.6969693,498.666666617,4225.27272685,239.030303006,4567.33333288,329.696969664,4277.30302988,3667.87878751,4384.96969653,3041.45454515,5058.27272677,3119.75757545,4102.15151474,206.06060604,4355.60606017,3610.18181782,4283.48484806,2810.66666639,4909.3939389,3342.30302997,4469.45454501,4154.18181777,42.0,42.0,?
2017-07-31 19:13:58.778506,4565.78787833,2991.9999997,4291.7272723,2823.03030275,3830.66666628,255.51515149,3984.6969693,498.666666617,4213.424242,239.030303006,4560.63636318,329.696969664,4273.18181775,3667.87878751,4377.2424238,3041.45454515,5079.39393889,3119.75757545,4103.69696929,206.06060604,4345.81818138,3610.18181782,4287.09090866,2810.66666639,4885.18181769,3342.30302997,4457.60606016,4154.18181777,42.0,42.0,?
2017-07-31 19:13:58.785988,4564.24242379,2991.9999997,4293.78787836,2823.03030275,3830.15151477,255.51515149,3957.90909051,498.666666617,4210.84848443,239.030303006,4562.18181773,329.696969664,4262.87878745,3667.87878751,4374.66666623,3041.45454515,5096.9090904,3119.75757545,4099.06060565,206.06060604,4345.30302987,3610.18181782,4280.39393897,2810.66666639,4877.96969648,3342.30302997,4451.42424198,4154.18181777,42.0,42.0,?
2017-07-31 19:13:58.796425,4571.454545,2991.9999997,4290.18181775,2823.03030275,3835.81818143,255.51515149,3972.84848445,498.666666617,4214.96969655,239.030303006,4568.87878742,329.696969664,4263.39393897,3667.87878751,4373.12121168,3041.45454515,5081.45454495,3119.75757545,4089.27272686,206.06060604,4355.09090866,3610.18181782,4278.33333291,2810.66666639,4898.06060557,3342.30302997,4457.09090865,4154.18181777,42.0,42.0,?
2017-07-31 19:13:58.801896,4574.03030257,2991.9999997,4293.27272684,2823.03030275,3829.63636325,255.51515149,3999.63636324,498.666666617,4215.48484806,239.030303006,4570.93939348,329.696969664,4276.27272685,3667.87878751,4364.87878744,3041.45454515,5060.84848434,3119.75757545,4086.69696929,206.06060604,4355.60606017,3610.18181782,4285.0303026,2810.66666639,4902.18181769,3342.30302997,4457.09090865,4154.18181777,42.0,42.0,?
2017-07-31 19:13:58.810708,4561.66666621,2991.9999997,4288.12121169,2823.03030275,3826.54545416,255.51515149,3997.57575718,498.666666617,4217.54545412,239.030303006,4571.96969651,329.696969664,4283.48484806,3667.87878751,4372.09090865,3041.45454515,5068.06060555,3119.75757545,4094.42424201,206.06060604,4349.42424199,3610.18181782,4285.0303026,2810.66666639,4886.72727224,3342.30302997,4451.42424198,4154.18181777,42.0,42.0,?
2017-07-31 19:13:58.816995,4565.78787833,2991.9999997,4294.30302987,2823.03030275,3827.57575719,255.51515149,3980.06060566,498.666666617,4215.99999958,239.030303006,4567.33333288,329.696969664,4275.24242381,3667.87878751,4383.9393935,3041.45454515,5085.57575707,3119.75757545,4099.06060565,206.06060604,4349.42424199,3610.18181782,4281.424242,2810.66666639,4883.12121163,3342.30302997,4445.2424238,4154.18181777,42.0,42.0,?
2017-07-31 19:13:58.824927,4571.454545,2991.9999997,4294.81818139,2823.03030275,3828.60606022,255.51515149,3971.30302991,498.666666617,4221.15151473,239.030303006,4563.72727227,329.696969664,4277.30302988,3667.87878751,4384.96969653,3041.45454515,5094.33333282,3119.75757545,4106.27272686,206.06060604,4354.57575714,3610.18181782,4283.99999957,2810.66666639,4888.27272678,3342.30302997,4450.39393895,4154.18181777,42.0,42.0,?
2017-07-31 19:13:58.833750,4570.42424197,2991.9999997,4290.18181775,2823.03030275,3829.12121174,255.51515149,3976.96969657,498.666666617,4231.45454503,239.030303006,4567.33333288,329.696969664,4288.63636321,3667.87878751,4388.57575714,3041.45454515,5089.69696919,3119.75757545,4108.84848444,206.06060604,4357.66666623,3610.18181782,4282.96969654,2810.66666639,4889.30302981,3342.30302997,4458.63636319,4154.18181777,42.0,42.0,?
2017-07-31 19:13:58.842142,4575.57575712,2991.9999997,4294.30302987,2823.03030275,3829.63636325,255.51515149,3984.18181778,498.666666617,4225.78787837,239.030303006,4571.454545,329.696969664,4276.27272685,3667.87878751,4388.06060562,3041.45454515,5076.81818131,3119.75757545,4098.03030262,206.06060604,4357.15151472,3610.18181782,4279.87878745,2810.66666639,4891.87878739,3342.30302997,4457.09090865,4154.18181777,42.0,42.0,?
2017-07-31 19:13:58.848217,4569.39393894,2991.9999997,4289.15151472,2823.03030275,3830.15151477,255.51515149,3968.21212082,498.666666617,4214.45454503,239.030303006,4572.48484803,329.696969664,4258.24242382,3667.87878751,4376.72727229,3041.45454515,5067.54545404,3119.75757545,4092.87878747,206.06060604,4357.15151472,3610.18181782,4281.93939351,2810.66666639,4894.45454497,3342.30302997,4457.09090865,4154.18181777,42.0,42.0,?
2017-07-31 19:13:58.856179,4575.0606056,2991.9999997,4293.27272684,2823.03030275,3834.27272689,255.51515149,3963.57575718,498.666666617,4220.63636321,239.030303006,4574.54545409,329.696969664,4266.99999957,3667.87878751,4374.15151471,3041.45454515,5068.06060555,3119.75757545,4098.54545414,206.06060604,4367.45454502,3610.18181782,4285.54545412,2810.66666639,4902.18181769,3342.30302997,4462.75757531,4154.18181777,42.0,42.0,?
2017-07-31 19:13:58.864666,4584.33333287,2991.9999997,4294.81818139,2823.03030275,3840.96969659,255.51515149,3989.84848445,498.666666617,4237.63636321,239.030303006,4583.30302984,329.696969664,4290.18181775,3667.87878751,4392.18181774,3041.45454515,5085.06060555,3119.75757545,4107.81818141,206.06060604,4372.09090865,3610.18181782,4284.51515109,2810.66666639,4906.30302981,3342.30302997,4466.36363592,4154.18181777,42.0,42.0,?
2017-07-31 19:13:58.872570,4576.09090863,2991.9999997,4289.15151472,2823.03030275,3839.93939356,255.51515149,3997.06060566,498.666666617,4236.09090867,239.030303006,4580.21212075,329.696969664,4287.09090866,3667.87878751,4393.72727229,3041.45454515,5098.96969646,3119.75757545,4103.18181777,206.06060604,4362.30302987,3610.18181782,4279.87878745,2810.66666639,4898.57575709,3342.30302997,4462.75757531,4154.18181777,42.0,42.0,?
2017-07-31 19:13:58.882024,4574.54545409,2954.90909061,4293.27272684,2823.03030275,3832.72727234,255.51515149,3991.39393899,498.666666617,4225.78787837,239.030303006,4570.93939348,329.696969664,4271.63636321,3667.87878751,4371.06060562,3041.45454515,5088.66666616,3119.75757545,4089.27272686,206.06060604,4360.24242381,3610.18181782,4279.87878745,2810.66666639,4897.54545406,3342.30302997,4459.15151471,4154.18181777,42.0,42.0,?
2017-07-31 19:13:58.887941,4576.09090863,2954.90909061,4290.18181775,2839.51515123,3835.81818143,255.51515149,4002.21212081,498.666666617,4232.99999958,239.030303006,4583.30302984,329.696969664,4283.99999957,3667.87878751,4375.18181774,3041.45454515,5082.99999949,3119.75757545,4095.96969656,206.06060604,4372.09090865,3610.18181782,4286.57575715,2810.66666639,4903.21212072,3342.30302997,4463.27272683,4154.18181777,42.0,42.0,?
2017-07-31 19:13:58.897495,4579.69696924,2954.90909061,4294.81818139,2839.51515123,3837.36363598,255.51515149,3995.51515112,498.666666617,4238.15151473,239.030303006,4594.63636318,329.696969664,4290.18181775,3667.87878751,4396.30302986,3041.45454515,5085.06060555,3119.75757545,4106.27272686,206.06060604,4373.6363632,3610.18181782,4288.12121169,2810.66666639,4901.15151466,3342.30302997,4462.75757531,4117.09090868,42.0,42.0,?
2017-07-31 19:13:58.903983,4576.60606015,2954.90909061,4296.36363593,2839.51515123,3831.69696931,271.999999973,3971.30302991,498.666666617,4229.39393897,239.030303006,4579.69696924,329.696969664,4273.69696927,3667.87878751,4388.06060562,3041.45454515,5065.99999949,3119.75757545,4097.51515111,206.06060604,4360.24242381,3610.18181782,4280.90909048,2810.66666639,4890.84848436,3342.30302997,4458.12121168,4117.09090868,42.0,42.0,?
