Timestamp,F3 Value,F3 Quality,FC5 Value,FC5 Quality,F7 Value,F7 Quality,T7 Value,T7 Quality,P7 Value,P7 Quality,O1 Value,O1 Quality,O2 Value,O2 Quality,P8 Value,P8 Quality,T8 Value,T8 Quality,F8 Value,F8 Quality,AF4 Value,AF4 Quality,FC6 Value,FC6 Quality,F4 Value,F4 Quality,AF3 Value,AF3 Quality,X Value,Y Value,Z Value
2017-08-01 19:56:54.902994,2827.15151487,0,3320.15151482,0,2804.99999972,0,2355.27272704,0,2245.54545432,0,2860.12121184,0,2660.24242398,0,2511.87878763,0,3146.54545423,0,2485.09090884,0,3203.72727241,0,2449.5454543,0,3661.18181782,0,2581.93939368,0,42.0,42.0,?
2017-08-01 19:56:54.903344,3881.66666628,0,4946.48484799,0,3497.87878753,0,3626.15151479,0,5568.78787823,0,4168.60606019,0,3665.81818145,0,3639.54545418,0,4424.63636319,0,3618.93939358,0,3959.96969657,0,5232.90909039,0,4151.09090868,0,3810.57575719,0,42.0,42.0,?
2017-08-01 19:56:54.903480,5514.18181763,0,4946.48484799,0,3497.87878753,0,3626.15151479,0,5568.78787823,0,4168.60606019,0,3665.81818145,0,3639.54545418,0,6170.48484787,0,5358.09090856,0,5036.12121162,0,5232.90909039,0,5179.84848433,0,5599.18181762,0,42.0,42.0,?
2017-08-01 19:56:54.905206,6896.33333264,0,6382.21212057,0,5519.8484843,0,6451.75757511,0,6915.90909022,0,6997.3030296,0,6427.5454539,0,6867.99999931,0,7491.33333258,0,6837.09090841,0,6067.96969636,0,6710.87878721,0,6135.96969636,0,7105.48484777,0,42.0,42.0,?
2017-08-01 19:56:54.911096,7830.30302952,0,6642.3636357,0,5519.8484843,0,6451.75757511,0,7776.72727195,0,6997.3030296,0,6427.5454539,0,6867.99999931,0,8054.9090901,0,6837.09090841,0,6067.96969636,0,7724.69696892,0,6135.96969636,0,7105.48484777,0,42.0,42.0,?
2017-08-01 19:56:54.914596,7830.30302952,0,6642.3636357,0,6129.27272666,0,7284.24242351,0,7776.72727195,0,7838.03030225,0,7252.30302958,0,7844.21212043,0,8054.9090901,0,7771.06060528,0,6728.39393872,0,7724.69696892,0,6745.90909023,0,7969.3939386,0,42.0,42.0,?
2017-08-01 19:56:54.917636,8018.84848405,0,6507.39393874,0,6266.30302968,0,7521.21212046,0,7946.21212042,0,7964.75757496,0,7499.57575683,0,8038.93939314,0,7990.51515072,0,7969.90909011,0,6853.06060538,0,7976.09090829,0,6877.7878781,0,8029.15151435,0,42.0,42.0,?
2017-08-01 19:56:54.920589,7907.06060527,0,6511.51515086,0,6468.2424236,0,7686.06060529,0,7911.69696891,0,7900.87878709,0,7688.63636287,0,7919.93939315,0,7911.18181739,0,7922.51515072,0,7070.96969626,0,7920.45454466,0,7060.66666596,0,7908.60605982,0,42.0,42.0,?
2017-08-01 19:56:54.930032,7887.99999921,0,6303.39393876,0,6430.63636299,0,7651.03030227,0,7869.45454467,0,7867.39393861,0,7697.90909014,0,7904.48484769,0,7912.21212042,0,7905.51515072,0,7071.48484778,0,7907.57575679,0,7062.21212051,0,7919.93939315,0,42.0,42.0,?
2017-08-01 19:56:54.930358,7831.33333255,0,5813.4848479,0,6043.24242364,0,7273.4242417,0,7719.54545377,0,7739.12121135,0,7363.57575684,0,7851.93939315,0,7841.12121134,0,7792.1818174,0,6656.27272661,0,7805.06060528,0,6736.63636296,0,7856.06060527,0,42.0,42.0,?
2017-08-01 19:56:54.935960,7779.81818104,0,5830.4848479,0,6128.24242363,0,7286.81818109,0,7693.78787802,0,7710.78787802,0,7357.39393866,0,7793.21212043,0,7804.54545377,0,7743.24242347,0,6720.15151448,0,7747.36363559,0,6802.5757569,0,7799.90909013,0,42.0,42.0,?
2017-08-01 19:56:54.940193,7805.06060528,0,6108.66666606,0,6497.09090844,0,7675.24242347,0,7797.84848407,0,7802.4848477,0,7704.09090832,0,7800.42424164,0,7803.51515073,0,7799.90909013,0,7163.69696898,0,7798.8787871,0,7142.57575686,0,7803.51515073,0,42.0,42.0,?
2017-08-01 19:56:54.942911,7806.09090831,0,6159.66666605,0,6643.39393873,0,7770.03030225,0,7810.72727195,0,7810.72727195,0,7794.75757498,0,7806.60605983,0,7802.99999922,0,7812.78787801,0,7308.96969624,0,7810.72727195,0,7257.96969624,0,7799.39393861,0,42.0,42.0,?
2017-08-01 19:56:54.945626,7799.39393861,0,6403.33333269,0,6960.72727203,0,7723.15151438,0,7782.39393862,0,7785.48484771,0,7741.69696892,0,7802.99999922,0,7803.51515073,0,7797.33333255,0,7539.24242349,0,7795.78787801,0,7547.99999925,0,7799.90909013,0,42.0,42.0,?
2017-08-01 19:56:54.950233,7805.06060528,0,6643.39393873,0,7286.30302957,0,7812.27272649,0,7801.96969619,0,7805.06060528,0,7807.63636286,0,7804.03030225,0,7802.99999922,0,7803.51515073,0,7828.75757497,0,7805.06060528,0,7793.72727195,0,7799.90909013,0,42.0,42.0,?
2017-08-01 19:56:54.952838,7804.03030225,0,6475.96969632,0,7214.18181746,0,7838.03030225,0,7810.21212043,0,7812.78787801,0,7832.36363558,0,7804.54545377,0,7804.54545377,0,7808.15151437,0,7770.03030225,0,7806.60605983,0,7675.24242347,0,7799.90909013,0,42.0,42.0,?
2017-08-01 19:56:54.956261,7803.51515073,0,6337.39393876,0,7152.36363565,0,7803.51515073,0,7798.8787871,0,7801.96969619,0,7801.45454467,0,7802.99999922,0,7804.03030225,0,7802.99999922,0,7729.33333256,0,7795.78787801,0,7654.63636287,0,7799.39393861,0,42.0,42.0,?
2017-08-01 19:56:54.960469,7802.99999922,0,6399.72727209,0,7274.45454473,0,7808.15151437,0,7800.42424164,0,7803.51515073,0,7801.96969619,0,7804.54545377,0,7804.03030225,0,7804.03030225,0,7778.27272649,0,7798.36363558,0,7690.18181741,0,7799.39393861,0,42.0,42.0,?
2017-08-01 19:56:54.963572,7803.51515073,0,6396.12121148,0,7317.21212048,0,7807.63636286,0,7800.93939316,0,7805.06060528,0,7803.51515073,0,7804.54545377,0,7804.03030225,0,7802.99999922,0,7750.45454468,0,7800.93939316,0,7690.69696893,0,7799.39393861,0,42.0,42.0,?
2017-08-01 19:56:54.971812,7805.06060528,0,6414.66666603,0,7377.99999926,0,7803.51515073,0,7799.90909013,0,7804.03030225,0,7798.8787871,0,7803.51515073,0,7804.03030225,0,7802.4848477,0,7760.75757498,0,7799.90909013,0,7714.90909014,0,7799.39393861,0,42.0,42.0,?
2017-08-01 19:56:54.979047,7804.03030225,0,6522.33333268,0,7526.36363561,0,7805.06060528,0,7800.93939316,0,7804.03030225,0,7800.42424164,0,7804.54545377,0,7804.03030225,0,7803.51515073,0,7794.24242346,0,7800.42424164,0,7733.45454468,0,7799.39393861,0,42.0,42.0,?
2017-08-01 19:56:54.986777,7803.51515073,0,6472.36363572,0,7518.63636288,0,7802.4848477,0,7800.42424164,0,7804.03030225,0,7799.39393861,0,7804.54545377,0,7804.03030225,0,7803.51515073,0,7777.24242346,0,7800.42424164,0,7755.09090832,0,7798.8787871,0,42.0,42.0,?
2017-08-01 19:56:54.997211,7805.5757568,0,6324.51515088,0,7421.27272653,0,7804.03030225,0,7800.42424164,0,7804.03030225,0,7798.8787871,0,7800.93939316,0,7804.03030225,0,7804.03030225,0,7759.72727195,0,7800.42424164,0,7731.39393862,0,7798.36363558,0,42.0,42.0,?
2017-08-01 19:56:55.009797,7797.33333255,0,6593.93939328,0,7689.6666659,0,7797.33333255,0,7800.42424164,0,7804.03030225,0,7799.90909013,0,7798.8787871,0,7804.03030225,0,7804.03030225,0,7788.5757568,0,7800.42424164,0,7763.84848407,0,7799.90909013,0,42.0,42.0,?
2017-08-01 19:56:55.012944,7797.84848407,0,6620.21212055,0,7717.48484771,0,7795.78787801,0,7800.93939316,0,7804.03030225,0,7800.42424164,0,7800.93939316,0,7804.03030225,0,7804.03030225,0,7798.36363558,0,7800.42424164,0,7791.66666589,0,7800.42424164,0,42.0,42.0,?
2017-08-01 19:56:55.017673,7797.84848407,0,6620.21212055,0,7717.48484771,0,7795.78787801,0,7800.93939316,0,7804.03030225,0,7800.42424164,0,7800.93939316,0,7804.03030225,0,7804.03030225,0,7798.36363558,0,7800.42424164,0,7791.66666589,0,7800.42424164,0,42.0,42.0,?
2017-08-01 19:56:55.025999,7800.93939316,0,6479.06060541,0,7633.51515075,0,7799.90909013,0,7798.8787871,0,7804.03030225,0,7799.90909013,0,7800.42424164,0,7804.03030225,0,7804.03030225,0,7789.60605983,0,7800.42424164,0,7765.90909013,0,7800.42424164,0,42.0,42.0,?
2017-08-01 19:56:55.035124,7799.90909013,0,6432.18181754,0,7627.84848409,0,7802.4848477,0,7797.33333255,0,7804.03030225,0,7800.42424164,0,7799.90909013,0,7804.03030225,0,7804.03030225,0,7798.8787871,0,7800.42424164,0,7766.93939316,0,7800.42424164,0,42.0,42.0,?
2017-08-01 19:56:55.046067,7798.36363558,0,6402.81818118,0,7630.93939318,0,7801.45454467,0,7798.36363558,0,7804.03030225,0,7800.42424164,0,7799.39393861,0,7804.03030225,0,7804.03030225,0,7799.39393861,0,7800.42424164,0,7783.93939316,0,7800.42424164,0,42.0,42.0,?
2017-08-01 19:56:55.049610,7799.90909013,0,6268.36363574,0,7553.1515144,0,7801.45454467,0,7799.90909013,0,7804.03030225,0,7800.42424164,0,7799.90909013,0,7804.03030225,0,7804.03030225,0,7790.12121134,0,7800.42424164,0,7793.72727195,0,7800.42424164,0,42.0,42.0,?
2017-08-01 19:56:55.061122,7799.90909013,0,6181.8181812,0,7494.42424167,0,7801.96969619,0,7800.42424164,0,7804.03030225,0,7800.42424164,0,7800.93939316,0,7804.03030225,0,7804.03030225,0,7783.93939316,0,7800.42424164,0,7780.84848407,0,7800.42424164,0,42.0,42.0,?
2017-08-01 19:56:55.067324,7800.42424164,0,6313.69696907,0,7588.69696894,0,7801.96969619,0,7799.90909013,0,7804.03030225,0,7800.42424164,0,7800.42424164,0,7804.03030225,0,7804.03030225,0,7797.33333255,0,7800.42424164,0,7775.69696892,0,7800.42424164,0,42.0,42.0,?
2017-08-01 19:56:55.074141,7800.42424164,0,6544.99999935,0,7738.60605983,0,7801.96969619,0,7800.93939316,0,7804.03030225,0,7800.42424164,0,7800.42424164,0,7804.03030225,0,7804.03030225,0,7802.4848477,0,7800.42424164,0,7777.24242346,0,7800.42424164,0,42.0,42.0,?
2017-08-01 19:56:55.081343,7800.42424164,0,6612.99999934,0,7751.99999922,0,7801.96969619,0,7800.42424164,0,7804.03030225,0,7800.42424164,0,7800.42424164,0,7804.03030225,0,7804.03030225,0,7799.90909013,0,7800.42424164,0,7788.5757568,0,7800.42424164,0,42.0,42.0,?
2017-08-01 19:56:55.089593,7800.42424164,0,6560.96969631,0,7717.48484771,0,7801.96969619,0,7797.84848407,0,7804.54545377,0,7800.42424164,0,7800.42424164,0,7804.03030225,0,7804.03030225,0,7806.60605983,0,7800.42424164,0,7806.09090831,0,7800.42424164,0,42.0,42.0,?
2017-08-01 19:56:55.096951,7800.42424164,0,6494.51515087,0,7737.5757568,0,7801.96969619,0,7797.33333255,0,7804.03030225,0,7800.42424164,0,7800.42424164,0,7804.03030225,0,7804.03030225,0,7805.5757568,0,7800.42424164,0,7799.39393861,0,7800.42424164,0,42.0,42.0,?
2017-08-01 19:56:55.104726,7800.42424164,0,6421.87878724,0,7737.06060529,0,7801.96969619,0,7799.39393861,0,7803.51515073,0,7800.42424164,0,7800.42424164,0,7804.03030225,0,7804.03030225,0,7797.33333255,0,7800.42424164,0,7788.06060528,0,7800.42424164,0,42.0,42.0,?
2017-08-01 19:56:55.112601,7800.42424164,0,6448.15151451,0,7737.06060529,0,7801.96969619,0,7799.90909013,0,7805.06060528,0,7800.42424164,0,7800.42424164,0,7804.03030225,0,7804.03030225,0,7797.33333255,0,7800.42424164,0,7788.06060528,0,7800.42424164,0,42.0,42.0,?
2017-08-01 19:56:55.120088,7800.42424164,0,6558.39393874,0,7770.54545377,0,7801.96969619,0,7799.39393861,0,7802.99999922,0,7800.42424164,0,7800.42424164,0,7804.03030225,0,7804.03030225,0,7801.45454467,0,7800.42424164,0,7798.8787871,0,7800.42424164,0,42.0,42.0,?
2017-08-01 19:56:55.130622,7800.42424164,0,6649.0606054,0,7788.5757568,0,7801.96969619,0,7800.42424164,0,7797.84848407,0,7800.42424164,0,7800.42424164,0,7804.03030225,0,7804.03030225,0,7800.42424164,0,7800.42424164,0,7809.69696892,0,7800.42424164,0,42.0,42.0,?
2017-08-01 19:56:55.135640,7800.42424164,0,6724.78787812,0,7802.4848477,0,7801.45454467,0,7799.90909013,0,7798.36363558,0,7800.42424164,0,7800.42424164,0,7804.03030225,0,7804.03030225,0,7799.39393861,0,7800.42424164,0,7802.99999922,0,7800.42424164,0,42.0,42.0,?
2017-08-01 19:56:55.143628,7800.42424164,0,6682.03030236,0,7790.63636286,0,7801.96969619,0,7799.39393861,0,7800.93939316,0,7800.42424164,0,7800.42424164,0,7804.03030225,0,7803.51515073,0,7800.42424164,0,7800.42424164,0,7797.84848407,0,7800.42424164,0,42.0,42.0,?
2017-08-01 19:56:55.151576,7800.42424164,0,6438.36363572,0,7715.93939317,0,7801.96969619,0,7799.39393861,0,7799.90909013,0,7800.42424164,0,7800.42424164,0,7804.03030225,0,7804.54545377,0,7800.93939316,0,7800.42424164,0,7801.45454467,0,7800.42424164,0,42.0,42.0,?
2017-08-01 19:56:55.159236,7800.42424164,12.3636363624,6304.93939331,0,7687.09090832,0,7799.39393861,0,7799.39393861,0,7798.8787871,0,7800.42424164,0,7800.42424164,0,7804.03030225,0,7804.54545377,0,7800.42424164,0,7800.42424164,0,7800.93939316,0,7800.42424164,0,42.0,42.0,?
2017-08-01 19:56:55.168697,7800.42424164,12.3636363624,6452.27272663,4199.5151511,7756.63636286,0,7797.84848407,0,7799.39393861,0,7800.93939316,0,7800.42424164,0,7800.42424164,0,7804.03030225,0,7800.93939316,0,7800.93939316,0,7800.42424164,0,7797.84848407,0,7800.42424164,0,42.0,42.0,?
2017-08-01 19:56:55.179394,7800.42424164,12.3636363624,6641.33333267,4199.5151511,7797.33333255,0,7799.39393861,0,7799.39393861,0,7800.93939316,0,7800.42424164,0,7800.42424164,0,7804.03030225,0,7798.8787871,0,7800.93939316,0,7800.42424164,0,7798.36363558,0,7800.42424164,12.3636363624,42.0,42.0,?
2017-08-01 19:56:55.183481,7800.42424164,12.3636363624,6752.09090842,4199.5151511,7779.81818104,1821.57575739,7800.42424164,0,7799.39393861,0,7800.42424164,0,7800.42424164,0,7800.42424164,0,7804.03030225,0,7799.90909013,0,7799.39393861,0,7800.42424164,0,7802.4848477,0,7800.42424164,12.3636363624,42.0,42.0,?
2017-08-01 19:56:55.191402,7800.42424164,12.3636363624,6849.96969628,4199.5151511,7798.36363558,1821.57575739,7799.90909013,8.2424242416,7799.39393861,0,7800.42424164,0,7800.42424164,0,7800.42424164,0,7804.03030225,0,7800.42424164,0,7800.93939316,0,7800.42424164,0,7806.09090831,0,7800.42424164,12.3636363624,42.0,42.0,?
2017-08-01 19:56:55.197605,7800.42424164,12.3636363624,6823.1818175,4199.5151511,7805.5757568,1821.57575739,7799.90909013,8.2424242416,7799.39393861,8.2424242416,7800.42424164,0,7800.42424164,0,7800.42424164,0,7804.03030225,0,7800.42424164,0,7801.45454467,0,7800.42424164,0,7802.4848477,0,7800.42424164,12.3636363624,42.0,42.0,?
2017-08-01 19:56:55.206097,7800.42424164,12.3636363624,6586.72727207,4199.5151511,7755.60605983,1821.57575739,7799.90909013,8.2424242416,7799.39393861,8.2424242416,7800.42424164,8.2424242416,7800.42424164,0,7800.42424164,0,7804.03030225,0,7801.45454467,0,7795.78787801,0,7800.42424164,0,7790.12121134,0,7800.42424164,12.3636363624,42.0,42.0,?
2017-08-01 19:56:55.214120,7800.42424164,12.3636363624,6497.60605996,4199.5151511,7749.42424165,1821.57575739,7799.90909013,8.2424242416,7799.39393861,8.2424242416,7800.42424164,8.2424242416,7800.42424164,8.2424242416,7800.42424164,0,7804.03030225,0,7801.96969619,0,7793.21212043,0,7800.42424164,0,7788.06060528,0,7800.42424164,12.3636363624,42.0,42.0,?
2017-08-01 19:56:55.221788,7800.42424164,12.3636363624,6687.69696903,4199.5151511,7795.27272649,1821.57575739,7799.90909013,8.2424242416,7799.39393861,8.2424242416,7800.42424164,8.2424242416,7800.42424164,8.2424242416,7800.42424164,8.2424242416,7804.03030225,0,7801.45454467,0,7798.36363558,0,7800.42424164,0,7800.42424164,0,7800.42424164,12.3636363624,42.0,42.0,?
2017-08-01 19:56:55.231324,7800.42424164,12.3636363624,6823.69696901,4199.5151511,7810.72727195,1821.57575739,7799.90909013,8.2424242416,7799.39393861,8.2424242416,7800.42424164,8.2424242416,7800.42424164,8.2424242416,7800.42424164,8.2424242416,7804.03030225,8.2424242416,7801.96969619,0,7800.42424164,0,7800.42424164,0,7807.12121134,0,7800.42424164,12.3636363624,42.0,42.0,?
2017-08-01 19:56:55.237646,7800.42424164,12.3636363624,6782.99999932,4199.5151511,7786.51515074,1821.57575739,7799.90909013,8.2424242416,7799.39393861,8.2424242416,7800.42424164,8.2424242416,7800.42424164,8.2424242416,7800.42424164,8.2424242416,7804.03030225,8.2424242416,7801.96969619,8.2424242416,7799.39393861,0,7800.42424164,0,7801.45454467,0,7800.42424164,12.3636363624,42.0,42.0,?
2017-08-01 19:56:55.245146,7800.42424164,12.3636363624,6707.2727266,4199.5151511,7789.09090831,1821.57575739,7799.90909013,8.2424242416,7799.39393861,8.2424242416,7800.42424164,8.2424242416,7800.42424164,8.2424242416,7800.42424164,8.2424242416,7804.03030225,8.2424242416,7801.45454467,8.2424242416,7801.45454467,8.2424242416,7799.39393861,0,7798.36363558,0,7800.42424164,12.3636363624,42.0,42.0,?
2017-08-01 19:56:55.252615,7799.39393861,12.3636363624,6542.93939329,4199.5151511,7783.42424165,1821.57575739,7799.90909013,8.2424242416,7799.39393861,8.2424242416,7800.42424164,8.2424242416,7799.90909013,8.2424242416,7800.42424164,8.2424242416,7804.03030225,8.2424242416,7801.45454467,8.2424242416,7800.93939316,8.2424242416,7799.39393861,8.2424242416,7800.93939316,0,7800.42424164,12.3636363624,42.0,42.0,?
2017-08-01 19:56:55.261175,7798.36363558,12.3636363624,6323.48484785,4199.5151511,7736.03030226,1821.57575739,7799.90909013,8.2424242416,7799.39393861,8.2424242416,7800.42424164,8.2424242416,7800.42424164,8.2424242416,7799.39393861,8.2424242416,7804.03030225,8.2424242416,7801.45454467,8.2424242416,7798.36363558,8.2424242416,7800.93939316,8.2424242416,7800.42424164,8.2424242416,7800.42424164,12.3636363624,42.0,42.0,?
2017-08-01 19:56:55.268781,7798.36363558,12.3636363624,6319.87878725,4199.5151511,7725.72727195,1821.57575739,7799.90909013,8.2424242416,7799.39393861,8.2424242416,7800.42424164,8.2424242416,7800.42424164,8.2424242416,7798.36363558,8.2424242416,7804.03030225,8.2424242416,7801.45454467,8.2424242416,7800.42424164,8.2424242416,7801.96969619,8.2424242416,7802.4848477,8.2424242416,7800.42424164,12.3636363624,42.0,42.0,?
2017-08-01 19:56:55.278069,7799.39393861,12.3636363624,6404.36363572,4199.5151511,7736.54545377,1821.57575739,7799.90909013,8.2424242416,7799.39393861,8.2424242416,7800.42424164,8.2424242416,7799.39393861,8.2424242416,7798.8787871,8.2424242416,7804.03030225,8.2424242416,7801.45454467,8.2424242416,7800.93939316,8.2424242416,7801.45454467,8.2424242416,7803.51515073,8.2424242416,7800.42424164,12.3636363624,42.0,42.0,?
2017-08-01 19:56:55.285309,7800.42424164,12.3636363624,6309.06060543,4199.5151511,7691.21212044,1821.57575739,7799.90909013,8.2424242416,7799.39393861,8.2424242416,7800.42424164,8.2424242416,7797.84848407,8.2424242416,7798.8787871,8.2424242416,7804.03030225,8.2424242416,7801.45454467,8.2424242416,7798.8787871,8.2424242416,7801.45454467,8.2424242416,7790.63636286,8.2424242416,7800.42424164,12.3636363624,42.0,42.0,?
2017-08-01 19:56:55.291754,7800.42424164,12.3636363624,6188.5151509,4199.5151511,7656.18181742,1821.57575739,7799.90909013,8.2424242416,7799.39393861,8.2424242416,7800.42424164,8.2424242416,7799.39393861,8.2424242416,7798.8787871,8.2424242416,7804.03030225,8.2424242416,7801.45454467,8.2424242416,7798.8787871,8.2424242416,7801.96969619,8.2424242416,7783.42424165,8.2424242416,7799.39393861,12.3636363624,42.0,42.0,?
2017-08-01 19:56:55.301857,7800.42424164,12.3636363624,6345.636363,4199.5151511,7722.12121135,1821.57575739,7799.90909013,8.2424242416,7799.39393861,8.2424242416,7800.42424164,8.2424242416,7800.93939316,8.2424242416,7798.8787871,8.2424242416,7804.03030225,8.2424242416,7801.45454467,8.2424242416,7800.42424164,8.2424242416,7801.45454467,8.2424242416,7798.36363558,8.2424242416,7799.39393861,12.3636363624,42.0,42.0,?
2017-08-01 19:56:55.308330,7800.42424164,12.3636363624,6623.81818116,4199.5151511,7796.30302952,1821.57575739,7799.90909013,8.2424242416,7799.39393861,8.2424242416,7800.42424164,8.2424242416,7800.42424164,8.2424242416,7798.8787871,8.2424242416,7804.03030225,8.2424242416,7801.45454467,8.2424242416,7800.93939316,8.2424242416,7801.45454467,8.2424242416,7807.63636286,8.2424242416,7800.42424164,12.3636363624,42.0,42.0,?
2017-08-01 19:56:55.315700,7800.42424164,12.3636363624,6705.72727206,4199.5151511,7797.84848407,1821.57575739,7799.90909013,8.2424242416,7799.39393861,8.2424242416,7800.42424164,8.2424242416,7800.42424164,8.2424242416,7798.8787871,8.2424242416,7804.03030225,8.2424242416,7801.45454467,8.2424242416,7800.42424164,8.2424242416,7801.45454467,8.2424242416,7802.4848477,8.2424242416,7800.42424164,12.3636363624,42.0,42.0,?
2017-08-01 19:56:55.322713,7800.42424164,12.3636363624,6741.78787811,4199.5151511,7790.12121134,1821.57575739,7799.90909013,8.2424242416,7799.90909013,8.2424242416,7800.42424164,8.2424242416,7800.42424164,8.2424242416,7798.8787871,8.2424242416,7804.03030225,8.2424242416,7801.45454467,8.2424242416,7800.42424164,8.2424242416,7801.45454467,8.2424242416,7802.99999922,8.2424242416,7800.42424164,12.3636363624,42.0,42.0,?
2017-08-01 19:56:55.331298,7800.42424164,12.3636363624,6925.696969,4199.5151511,7797.84848407,1821.57575739,7799.90909013,8.2424242416,7799.39393861,8.2424242416,7800.42424164,8.2424242416,7800.42424164,8.2424242416,7798.8787871,8.2424242416,7804.03030225,8.2424242416,7801.45454467,8.2424242416,7800.42424164,8.2424242416,7801.45454467,8.2424242416,7806.09090831,8.2424242416,7800.42424164,12.3636363624,42.0,42.0,?
2017-08-01 19:56:55.339246,7800.42424164,12.3636363624,7169.87878716,4199.5151511,7800.93939316,1821.57575739,7799.90909013,8.2424242416,7797.84848407,8.2424242416,7800.42424164,8.2424242416,7800.42424164,8.2424242416,7798.8787871,8.2424242416,7804.03030225,8.2424242416,7801.45454467,8.2424242416,7800.42424164,8.2424242416,7801.45454467,8.2424242416,7802.4848477,8.2424242416,7800.42424164,12.3636363624,42.0,42.0,?
2017-08-01 19:56:55.346656,7800.42424164,12.3636363624,7321.84848412,4199.5151511,7800.93939316,1821.57575739,7799.90909013,8.2424242416,7798.8787871,8.2424242416,7800.42424164,8.2424242416,7800.42424164,8.2424242416,7798.8787871,8.2424242416,7804.03030225,8.2424242416,7801.45454467,8.2424242416,7800.42424164,8.2424242416,7801.45454467,8.2424242416,7802.99999922,8.2424242416,7800.42424164,12.3636363624,42.0,42.0,?
2017-08-01 19:56:55.355412,7800.42424164,12.3636363624,7297.12121139,4199.5151511,7800.93939316,1821.57575739,7799.90909013,8.2424242416,7800.42424164,8.2424242416,7800.42424164,8.2424242416,7800.42424164,8.2424242416,7798.8787871,8.2424242416,7804.03030225,8.2424242416,7801.45454467,8.2424242416,7800.42424164,8.2424242416,7801.45454467,8.2424242416,7804.54545377,8.2424242416,7800.42424164,12.3636363624,42.0,42.0,?
2017-08-01 19:56:55.362979,7800.42424164,12.3636363624,7222.93939322,4199.5151511,7799.90909013,1821.57575739,7799.90909013,8.2424242416,7800.42424164,8.2424242416,7800.42424164,8.2424242416,7800.42424164,8.2424242416,7798.8787871,8.2424242416,7804.03030225,8.2424242416,7801.45454467,8.2424242416,7800.42424164,8.2424242416,7801.45454467,8.2424242416,7804.03030225,8.2424242416,7800.42424164,12.3636363624,42.0,42.0,?
2017-08-01 19:56:55.369640,7800.42424164,12.3636363624,7236.33333261,4199.5151511,7800.42424164,1821.57575739,7799.90909013,8.2424242416,7800.42424164,8.2424242416,7800.42424164,8.2424242416,7800.42424164,8.2424242416,7798.8787871,8.2424242416,7804.03030225,8.2424242416,7801.45454467,8.2424242416,7800.42424164,8.2424242416,7801.45454467,8.2424242416,7804.03030225,8.2424242416,7800.42424164,12.3636363624,42.0,42.0,?
2017-08-01 19:56:55.377577,7800.42424164,12.3636363624,7195.1212114,4199.5151511,7800.93939316,1821.57575739,7799.90909013,8.2424242416,7800.42424164,8.2424242416,7800.42424164,8.2424242416,7800.42424164,8.2424242416,7798.8787871,8.2424242416,7804.03030225,8.2424242416,7801.45454467,8.2424242416,7800.42424164,8.2424242416,7801.45454467,8.2424242416,7804.03030225,8.2424242416,7800.42424164,12.3636363624,42.0,42.0,?
2017-08-01 19:56:55.387391,7800.42424164,12.3636363624,7105.48484777,4199.5151511,7800.42424164,1821.57575739,7799.90909013,8.2424242416,7800.42424164,8.2424242416,7800.42424164,8.2424242416,7800.42424164,8.2424242416,7798.8787871,8.2424242416,7804.03030225,8.2424242416,7801.45454467,8.2424242416,7800.42424164,8.2424242416,7801.45454467,8.2424242416,7804.03030225,8.2424242416,7800.42424164,12.3636363624,42.0,42.0,?
2017-08-01 19:56:55.394061,7800.42424164,12.3636363624,7204.39393867,4199.5151511,7800.42424164,1821.57575739,7799.90909013,8.2424242416,7800.42424164,8.2424242416,7800.42424164,8.2424242416,7800.42424164,8.2424242416,7798.8787871,8.2424242416,7804.03030225,8.2424242416,7801.45454467,8.2424242416,7800.42424164,8.2424242416,7801.45454467,8.2424242416,7804.03030225,8.2424242416,7800.42424164,12.3636363624,42.0,42.0,?
2017-08-01 19:56:55.402051,7800.42424164,12.3636363624,7329.57575684,4199.5151511,7800.42424164,1821.57575739,7799.39393861,8.2424242416,7800.42424164,8.2424242416,7800.42424164,8.2424242416,7800.42424164,8.2424242416,7798.8787871,8.2424242416,7804.03030225,8.2424242416,7801.45454467,8.2424242416,7800.42424164,8.2424242416,7801.45454467,8.2424242416,7804.03030225,8.2424242416,7800.42424164,12.3636363624,42.0,42.0,?
2017-08-01 19:56:55.409347,7800.42424164,12.3636363624,7252.81818109,4199.5151511,7800.42424164,1821.57575739,7799.90909013,8.2424242416,7800.42424164,8.2424242416,7800.42424164,8.2424242416,7800.42424164,8.2424242416,7798.8787871,8.2424242416,7804.03030225,8.2424242416,7801.45454467,8.2424242416,7800.42424164,8.2424242416,7801.45454467,8.2424242416,7804.03030225,8.2424242416,7800.42424164,12.3636363624,42.0,42.0,?
2017-08-01 19:56:55.416936,7800.42424164,12.3636363624,7213.15151443,4199.5151511,7800.42424164,1821.57575739,7803.51515073,8.2424242416,7800.42424164,8.2424242416,7800.42424164,8.2424242416,7800.42424164,8.2424242416,7798.8787871,8.2424242416,7804.03030225,8.2424242416,7801.45454467,8.2424242416,7800.42424164,8.2424242416,7801.45454467,8.2424242416,7804.03030225,8.2424242416,7800.42424164,12.3636363624,42.0,42.0,?
2017-08-01 19:56:55.428573,7800.42424164,12.3636363624,7348.12121139,4199.5151511,7800.42424164,1821.57575739,7806.09090831,8.2424242416,7800.42424164,8.2424242416,7800.42424164,8.2424242416,7800.42424164,8.2424242416,7798.8787871,8.2424242416,7804.03030225,8.2424242416,7801.45454467,8.2424242416,7800.42424164,8.2424242416,7801.45454467,8.2424242416,7804.03030225,8.2424242416,7800.42424164,12.3636363624,42.0,42.0,?
2017-08-01 19:56:55.433933,7800.42424164,12.3636363624,7410.96969623,4199.5151511,7800.42424164,1821.57575739,7804.54545377,8.2424242416,7800.42424164,8.2424242416,7800.42424164,8.2424242416,7800.42424164,8.2424242416,7798.8787871,8.2424242416,7804.03030225,8.2424242416,7801.45454467,8.2424242416,7800.42424164,8.2424242416,7801.45454467,8.2424242416,7804.03030225,8.2424242416,7800.42424164,12.3636363624,42.0,42.0,?
2017-08-01 19:56:55.441305,7800.42424164,12.3636363624,7325.96969624,4199.5151511,7800.42424164,1821.57575739,7804.03030225,8.2424242416,7800.42424164,8.2424242416,7800.42424164,8.2424242416,7800.42424164,8.2424242416,7798.8787871,8.2424242416,7804.03030225,8.2424242416,7801.45454467,8.2424242416,7800.42424164,8.2424242416,7801.45454467,8.2424242416,7804.03030225,8.2424242416,7800.42424164,12.3636363624,42.0,42.0,?
2017-08-01 19:56:55.450426,7800.42424164,12.3636363624,7233.75757503,4199.5151511,7800.42424164,1821.57575739,7805.06060528,8.2424242416,7800.42424164,8.2424242416,7800.42424164,8.2424242416,7800.42424164,8.2424242416,7798.8787871,8.2424242416,7804.03030225,8.2424242416,7801.45454467,8.2424242416,7800.42424164,8.2424242416,7801.45454467,8.2424242416,7804.03030225,8.2424242416,7800.42424164,12.3636363624,42.0,42.0,?
2017-08-01 19:56:55.455580,7800.42424164,12.3636363624,7200.27272655,4199.5151511,7800.42424164,1821.57575739,7804.54545377,8.2424242416,7800.42424164,8.2424242416,7800.42424164,8.2424242416,7800.42424164,8.2424242416,7798.8787871,8.2424242416,7804.03030225,8.2424242416,7801.45454467,8.2424242416,7800.42424164,8.2424242416,7801.45454467,8.2424242416,7804.03030225,8.2424242416,7800.42424164,12.3636363624,42.0,42.0,?
2017-08-01 19:56:55.463591,7800.42424164,12.3636363624,7244.06060534,4199.5151511,7800.42424164,1821.57575739,7802.99999922,8.2424242416,7800.42424164,8.2424242416,7800.42424164,8.2424242416,7800.42424164,8.2424242416,7798.8787871,8.2424242416,7804.03030225,8.2424242416,7801.45454467,8.2424242416,7800.42424164,8.2424242416,7801.45454467,8.2424242416,7804.03030225,8.2424242416,7800.42424164,12.3636363624,42.0,42.0,?
2017-08-01 19:56:55.472940,7800.42424164,12.3636363624,7295.57575685,4199.5151511,7800.42424164,1821.57575739,7805.5757568,8.2424242416,7800.42424164,8.2424242416,7800.42424164,8.2424242416,7800.42424164,8.2424242416,7798.8787871,8.2424242416,7804.03030225,8.2424242416,7801.96969619,8.2424242416,7800.42424164,8.2424242416,7801.45454467,8.2424242416,7804.03030225,8.2424242416,7800.42424164,12.3636363624,42.0,42.0,?
2017-08-01 19:56:55.480956,7800.42424164,12.3636363624,7213.66666595,4199.5151511,7800.42424164,1821.57575739,7804.03030225,8.2424242416,7800.42424164,8.2424242416,7800.42424164,8.2424242416,7800.42424164,8.2424242416,7798.8787871,8.2424242416,7804.03030225,8.2424242416,7801.96969619,8.2424242416,7800.42424164,8.2424242416,7801.45454467,8.2424242416,7804.03030225,8.2424242416,7800.42424164,12.3636363624,42.0,42.0,?
2017-08-01 19:56:55.490239,7800.42424164,12.3636363624,7103.42424171,4199.5151511,7800.42424164,1821.57575739,7795.78787801,8.2424242416,7800.42424164,8.2424242416,7800.42424164,8.2424242416,7800.42424164,8.2424242416,7799.39393861,8.2424242416,7804.03030225,8.2424242416,7801.45454467,8.2424242416,7800.42424164,8.2424242416,7801.45454467,8.2424242416,7804.03030225,8.2424242416,7800.42424164,12.3636363624,42.0,42.0,?
2017-08-01 19:56:55.496570,7800.42424164,12.3636363624,7077.15151444,4199.5151511,7800.42424164,1821.57575739,7795.27272649,8.2424242416,7800.42424164,8.2424242416,7800.42424164,8.2424242416,7800.42424164,8.2424242416,7799.39393861,8.2424242416,7804.03030225,8.2424242416,7801.45454467,8.2424242416,7800.42424164,8.2424242416,7801.45454467,8.2424242416,7804.03030225,8.2424242416,7800.42424164,12.3636363624,42.0,42.0,?
2017-08-01 19:56:55.503310,7800.42424164,12.3636363624,6995.75757506,4199.5151511,7800.42424164,1821.57575739,7804.03030225,8.2424242416,7800.42424164,8.2424242416,7800.42424164,8.2424242416,7800.42424164,8.2424242416,7799.90909013,8.2424242416,7804.03030225,8.2424242416,7802.4848477,8.2424242416,7800.42424164,8.2424242416,7801.45454467,8.2424242416,7804.03030225,8.2424242416,7800.42424164,12.3636363624,42.0,42.0,?
2017-08-01 19:56:55.511606,7800.42424164,12.3636363624,6922.0909084,4199.5151511,7800.42424164,1821.57575739,7805.5757568,8.2424242416,7800.42424164,8.2424242416,7800.42424164,8.2424242416,7800.42424164,8.2424242416,7801.45454467,8.2424242416,7804.03030225,8.2424242416,7800.93939316,8.2424242416,7800.42424164,8.2424242416,7801.45454467,8.2424242416,7804.03030225,8.2424242416,7800.42424164,12.3636363624,42.0,42.0,?
2017-08-01 19:56:55.519163,7800.42424164,12.3636363624,6974.12121142,4199.5151511,7800.42424164,1821.57575739,7799.39393861,8.2424242416,7800.42424164,8.2424242416,7800.42424164,8.2424242416,7800.42424164,8.2424242416,7800.93939316,8.2424242416,7804.03030225,8.2424242416,7797.84848407,8.2424242416,7800.42424164,8.2424242416,7801.45454467,8.2424242416,7804.03030225,8.2424242416,7800.42424164,12.3636363624,42.0,42.0,?
2017-08-01 19:56:55.530271,7800.42424164,12.3636363624,7009.66666597,4199.5151511,7800.42424164,1821.57575739,7797.84848407,8.2424242416,7800.42424164,8.2424242416,7800.42424164,8.2424242416,7800.42424164,8.2424242416,7798.8787871,8.2424242416,7804.03030225,8.2424242416,7797.84848407,8.2424242416,7800.42424164,8.2424242416,7801.45454467,8.2424242416,7804.03030225,8.2424242416,7800.42424164,12.3636363624,42.0,42.0,?
2017-08-01 19:56:55.535667,7800.42424164,12.3636363624,7014.3030296,4199.5151511,7800.42424164,1821.57575739,7799.39393861,8.2424242416,7800.42424164,8.2424242416,7800.42424164,8.2424242416,7800.42424164,8.2424242416,7799.39393861,8.2424242416,7804.03030225,8.2424242416,7800.42424164,8.2424242416,7800.42424164,8.2424242416,7801.45454467,8.2424242416,7804.03030225,8.2424242416,7800.42424164,12.3636363624,42.0,42.0,?
2017-08-01 19:56:55.548356,7800.42424164,12.3636363624,7036.45454475,4199.5151511,7800.42424164,1821.57575739,7799.39393861,8.2424242416,7800.42424164,8.2424242416,7800.42424164,8.2424242416,7800.42424164,8.2424242416,7800.93939316,8.2424242416,7804.03030225,8.2424242416,7800.93939316,8.2424242416,7800.42424164,8.2424242416,7801.45454467,8.2424242416,7804.03030225,8.2424242416,7800.42424164,12.3636363624,42.0,42.0,?
2017-08-01 19:56:55.551550,7800.42424164,12.3636363624,7036.45454475,4199.5151511,7800.42424164,1821.57575739,7799.39393861,8.2424242416,7800.42424164,8.2424242416,7800.42424164,8.2424242416,7800.42424164,8.2424242416,7800.42424164,8.2424242416,7804.03030225,8.2424242416,7799.90909013,8.2424242416,7800.42424164,8.2424242416,7801.45454467,8.2424242416,7804.03030225,8.2424242416,7800.42424164,12.3636363624,42.0,42.0,?
2017-08-01 19:56:55.560990,7800.42424164,12.3636363624,7024.6060599,4199.5151511,7800.42424164,1821.57575739,7799.39393861,8.2424242416,7800.42424164,8.2424242416,7800.42424164,8.2424242416,7800.42424164,8.2424242416,7800.42424164,8.2424242416,7804.03030225,8.2424242416,7800.42424164,8.2424242416,7800.42424164,8.2424242416,7801.45454467,8.2424242416,7804.03030225,8.2424242416,7800.42424164,12.3636363624,42.0,42.0,?
2017-08-01 19:56:55.568136,7800.42424164,12.3636363624,7099.81818111,4199.5151511,7800.42424164,1821.57575739,7799.90909013,8.2424242416,7800.42424164,8.2424242416,7800.42424164,8.2424242416,7800.42424164,8.2424242416,7800.42424164,8.2424242416,7804.03030225,8.2424242416,7800.42424164,8.2424242416,7800.42424164,8.2424242416,7801.45454467,8.2424242416,7804.03030225,8.2424242416,7800.42424164,12.3636363624,42.0,42.0,?
2017-08-01 19:56:55.574370,7800.42424164,12.3636363624,7197.18181746,4199.5151511,7800.42424164,1821.57575739,7799.90909013,8.2424242416,7800.42424164,8.2424242416,7800.42424164,8.2424242416,7800.42424164,8.2424242416,7800.42424164,8.2424242416,7804.54545377,8.2424242416,7800.42424164,8.2424242416,7800.42424164,8.2424242416,7801.45454467,8.2424242416,7804.03030225,8.2424242416,7800.42424164,12.3636363624,42.0,42.0,?
2017-08-01 19:56:55.582735,7800.42424164,12.3636363624,7220.36363564,4199.5151511,7800.42424164,1821.57575739,7799.39393861,8.2424242416,7800.42424164,8.2424242416,7800.42424164,8.2424242416,7800.42424164,8.2424242416,7800.42424164,8.2424242416,7804.03030225,8.2424242416,7800.42424164,8.2424242416,7800.42424164,8.2424242416,7801.45454467,8.2424242416,7804.03030225,8.2424242416,7800.42424164,12.3636363624,42.0,42.0,?
2017-08-01 19:56:55.589503,7800.42424164,12.3636363624,7115.78787808,4199.5151511,7800.42424164,1821.57575739,7800.42424164,8.2424242416,7800.42424164,8.2424242416,7800.42424164,8.2424242416,7800.42424164,8.2424242416,7800.42424164,8.2424242416,7804.03030225,8.2424242416,7800.42424164,8.2424242416,7800.42424164,8.2424242416,7801.45454467,8.2424242416,7804.03030225,8.2424242416,7800.42424164,12.3636363624,42.0,42.0,?
2017-08-01 19:56:55.598934,7800.42424164,12.3636363624,6944.75757506,4199.5151511,7800.42424164,1821.57575739,7799.90909013,8.2424242416,7800.42424164,8.2424242416,7800.42424164,8.2424242416,7800.42424164,8.2424242416,7800.42424164,8.2424242416,7804.54545377,8.2424242416,7800.42424164,8.2424242416,7800.42424164,8.2424242416,7801.45454467,8.2424242416,7804.03030225,8.2424242416,7800.42424164,12.3636363624,42.0,42.0,?
2017-08-01 19:56:55.605399,7800.42424164,12.3636363624,6818.54545386,4199.5151511,7800.42424164,1821.57575739,7797.33333255,8.2424242416,7800.42424164,8.2424242416,7800.42424164,8.2424242416,7800.42424164,8.2424242416,7800.42424164,8.2424242416,7801.45454467,8.2424242416,7800.42424164,8.2424242416,7800.42424164,8.2424242416,7801.45454467,8.2424242416,7804.03030225,8.2424242416,7800.42424164,12.3636363624,42.0,42.0,?
2017-08-01 19:56:55.614424,7800.42424164,12.3636363624,6859.24242356,4199.5151511,7800.42424164,1821.57575739,7796.81818104,8.2424242416,7800.42424164,8.2424242416,7800.42424164,8.2424242416,7800.42424164,8.2424242416,7800.42424164,8.2424242416,7797.33333255,8.2424242416,7800.42424164,8.2424242416,7800.42424164,8.2424242416,7801.45454467,8.2424242416,7804.03030225,8.2424242416,7800.42424164,12.3636363624,42.0,42.0,?
2017-08-01 19:56:55.620735,7800.42424164,12.3636363624,7130.2121205,4199.5151511,7800.42424164,1821.57575739,7799.39393861,8.2424242416,7800.42424164,8.2424242416,7800.42424164,8.2424242416,7800.42424164,8.2424242416,7800.42424164,8.2424242416,7797.84848407,8.2424242416,7800.42424164,8.2424242416,7800.93939316,8.2424242416,7801.45454467,8.2424242416,7804.03030225,8.2424242416,7800.42424164,12.3636363624,42.0,42.0,?
2017-08-01 19:56:55.630407,7800.42424164,12.3636363624,7350.69696896,4199.5151511,7800.42424164,1821.57575739,7799.90909013,8.2424242416,7800.42424164,8.2424242416,7800.42424164,8.2424242416,7800.42424164,8.2424242416,7800.42424164,8.2424242416,7802.4848477,8.2424242416,7800.42424164,8.2424242416,7798.8787871,8.2424242416,7801.45454467,8.2424242416,7804.03030225,8.2424242416,7800.42424164,12.3636363624,42.0,42.0,?
2017-08-01 19:56:55.637143,7800.42424164,12.3636363624,7308.45454472,4199.5151511,7800.42424164,1821.57575739,7799.39393861,8.2424242416,7800.42424164,8.2424242416,7800.42424164,8.2424242416,7800.42424164,8.2424242416,7800.42424164,8.2424242416,7805.06060528,8.2424242416,7800.42424164,8.2424242416,7796.81818104,8.2424242416,7801.45454467,8.2424242416,7804.03030225,8.2424242416,7800.42424164,12.3636363624,42.0,42.0,?
2017-08-01 19:56:55.645799,7800.42424164,12.3636363624,7330.60605987,4199.5151511,7800.42424164,1821.57575739,7800.42424164,8.2424242416,7800.42424164,8.2424242416,7800.42424164,8.2424242416,7800.42424164,8.2424242416,7800.42424164,8.2424242416,7805.06060528,8.2424242416,7800.42424164,8.2424242416,7799.90909013,8.2424242416,7801.45454467,8.2424242416,7804.03030225,8.2424242416,7800.42424164,12.3636363624,42.0,42.0,?
2017-08-01 19:56:55.652490,7800.42424164,12.3636363624,7483.60605986,4199.5151511,7800.42424164,1821.57575739,7799.39393861,8.2424242416,7800.42424164,8.2424242416,7800.42424164,8.2424242416,7800.42424164,8.2424242416,7800.42424164,8.2424242416,7804.03030225,8.2424242416,7800.42424164,8.2424242416,7801.45454467,8.2424242416,7801.45454467,8.2424242416,7804.03030225,8.2424242416,7800.42424164,12.3636363624,42.0,42.0,?
2017-08-01 19:56:55.661799,7800.42424164,8.2424242416,7444.45454471,4199.5151511,7800.42424164,1821.57575739,7797.84848407,8.2424242416,7800.42424164,8.2424242416,7800.42424164,8.2424242416,7800.42424164,8.2424242416,7800.42424164,8.2424242416,7804.03030225,8.2424242416,7800.42424164,8.2424242416,7799.39393861,8.2424242416,7801.45454467,8.2424242416,7804.03030225,8.2424242416,7800.42424164,12.3636363624,42.0,42.0,?
2017-08-01 19:56:55.667729,7800.42424164,8.2424242416,7418.69696896,601.696969637,7800.42424164,1821.57575739,7797.84848407,8.2424242416,7800.42424164,8.2424242416,7800.42424164,8.2424242416,7800.42424164,8.2424242416,7800.42424164,8.2424242416,7804.54545377,8.2424242416,7800.42424164,8.2424242416,7799.39393861,8.2424242416,7801.45454467,8.2424242416,7804.03030225,8.2424242416,7800.42424164,12.3636363624,42.0,42.0,?
2017-08-01 19:56:55.677233,7800.42424164,8.2424242416,7605.18181742,601.696969637,7800.42424164,1821.57575739,7799.90909013,8.2424242416,7800.42424164,8.2424242416,7800.42424164,8.2424242416,7800.42424164,8.2424242416,7800.42424164,8.2424242416,7804.03030225,8.2424242416,7800.42424164,8.2424242416,7800.93939316,8.2424242416,7801.45454467,8.2424242416,7804.03030225,8.2424242416,7800.42424164,8.2424242416,42.0,42.0,?
2017-08-01 19:56:55.683376,7800.42424164,8.2424242416,7698.93939317,601.696969637,7800.42424164,8.2424242416,7800.93939316,8.2424242416,7800.42424164,8.2424242416,7800.42424164,8.2424242416,7800.42424164,8.2424242416,7800.42424164,8.2424242416,7804.03030225,8.2424242416,7800.42424164,8.2424242416,7800.42424164,8.2424242416,7801.45454467,8.2424242416,7804.03030225,8.2424242416,7800.42424164,8.2424242416,42.0,42.0,?
2017-08-01 19:56:55.690726,7800.42424164,8.2424242416,7624.757575,601.696969637,7800.42424164,8.2424242416,7800.42424164,8.2424242416,7798.8787871,8.2424242416,7800.42424164,8.2424242416,7800.42424164,8.2424242416,7800.42424164,8.2424242416,7804.03030225,8.2424242416,7800.42424164,8.2424242416,7800.42424164,8.2424242416,7801.45454467,8.2424242416,7804.03030225,8.2424242416,7800.42424164,8.2424242416,42.0,42.0,?
2017-08-01 19:56:55.700626,7800.42424164,8.2424242416,7580.96969621,601.696969637,7800.42424164,8.2424242416,7800.42424164,8.2424242416,7798.36363558,8.2424242416,7800.42424164,8.2424242416,7800.42424164,8.2424242416,7800.42424164,8.2424242416,7804.03030225,8.2424242416,7800.42424164,8.2424242416,7800.42424164,8.2424242416,7801.45454467,8.2424242416,7804.03030225,8.2424242416,7800.42424164,8.2424242416,42.0,42.0,?
2017-08-01 19:56:55.707369,7800.42424164,8.2424242416,7530.48484773,601.696969637,7800.42424164,8.2424242416,7800.42424164,8.2424242416,7799.90909013,8.2424242416,7800.42424164,8.2424242416,7800.42424164,8.2424242416,7800.42424164,8.2424242416,7804.03030225,8.2424242416,7800.42424164,8.2424242416,7800.42424164,8.2424242416,7801.45454467,8.2424242416,7804.03030225,8.2424242416,7800.42424164,8.2424242416,42.0,42.0,?
2017-08-01 19:56:55.715657,7800.42424164,8.2424242416,7381.09090835,601.696969637,7800.42424164,8.2424242416,7800.42424164,8.2424242416,7800.93939316,8.2424242416,7800.42424164,8.2424242416,7800.42424164,8.2424242416,7800.42424164,8.2424242416,7804.03030225,8.2424242416,7800.42424164,8.2424242416,7800.42424164,8.2424242416,7801.45454467,8.2424242416,7804.03030225,8.2424242416,7800.42424164,8.2424242416,42.0,42.0,?
2017-08-01 19:56:55.722111,7800.42424164,8.2424242416,7256.93939321,601.696969637,7800.42424164,8.2424242416,7800.42424164,8.2424242416,7800.42424164,8.2424242416,7800.42424164,8.2424242416,7800.42424164,8.2424242416,7800.42424164,8.2424242416,7804.03030225,8.2424242416,7800.42424164,8.2424242416,7800.42424164,8.2424242416,7801.45454467,8.2424242416,7804.03030225,8.2424242416,7800.42424164,8.2424242416,42.0,42.0,?
2017-08-01 19:56:55.730027,7800.42424164,8.2424242416,7261.57575685,601.696969637,7800.42424164,8.2424242416,7800.42424164,8.2424242416,7800.42424164,8.2424242416,7800.42424164,8.2424242416,7800.42424164,8.2424242416,7800.42424164,8.2424242416,7804.03030225,8.2424242416,7800.42424164,8.2424242416,7800.42424164,8.2424242416,7801.45454467,8.2424242416,7804.03030225,8.2424242416,7800.42424164,8.2424242416,42.0,42.0,?
2017-08-01 19:56:55.739451,7800.42424164,8.2424242416,7281.15151442,601.696969637,7800.42424164,8.2424242416,7800.42424164,8.2424242416,7800.42424164,8.2424242416,7800.42424164,8.2424242416,7800.42424164,8.2424242416,7800.42424164,8.2424242416,7804.03030225,8.2424242416,7800.42424164,8.2424242416,7800.42424164,8.2424242416,7801.45454467,8.2424242416,7804.03030225,8.2424242416,7800.42424164,8.2424242416,42.0,42.0,?
2017-08-01 19:56:55.746206,7800.42424164,8.2424242416,7227.57575685,601.696969637,7800.42424164,8.2424242416,7800.42424164,8.2424242416,7800.42424164,8.2424242416,7800.42424164,8.2424242416,7800.42424164,8.2424242416,7800.42424164,8.2424242416,7804.03030225,8.2424242416,7800.42424164,8.2424242416,7800.42424164,8.2424242416,7801.45454467,8.2424242416,7804.03030225,8.2424242416,7800.42424164,8.2424242416,42.0,42.0,?
2017-08-01 19:56:55.755245,7800.42424164,8.2424242416,7261.57575685,601.696969637,7800.42424164,8.2424242416,7800.42424164,8.2424242416,7800.42424164,8.2424242416,7800.42424164,8.2424242416,7800.42424164,8.2424242416,7800.42424164,8.2424242416,7804.03030225,8.2424242416,7800.42424164,8.2424242416,7800.42424164,8.2424242416,7801.45454467,8.2424242416,7804.03030225,8.2424242416,7800.42424164,8.2424242416,42.0,42.0,?
2017-08-01 19:56:55.761329,7800.42424164,8.2424242416,7362.03030229,601.696969637,7800.42424164,8.2424242416,7800.42424164,8.2424242416,7800.42424164,8.2424242416,7800.42424164,8.2424242416,7800.42424164,8.2424242416,7800.42424164,8.2424242416,7804.03030225,8.2424242416,7800.42424164,8.2424242416,7800.42424164,8.2424242416,7801.45454467,8.2424242416,7804.03030225,8.2424242416,7800.42424164,8.2424242416,42.0,42.0,?
2017-08-01 19:56:55.770960,7800.42424164,8.2424242416,7345.54545381,601.696969637,7800.42424164,8.2424242416,7800.42424164,8.2424242416,7800.42424164,8.2424242416,7800.42424164,8.2424242416,7800.42424164,8.2424242416,7800.42424164,8.2424242416,7804.03030225,8.2424242416,7800.42424164,8.2424242416,7800.42424164,8.2424242416,7801.96969619,8.2424242416,7804.03030225,8.2424242416,7800.42424164,8.2424242416,42.0,42.0,?
2017-08-01 19:56:55.778223,7800.42424164,8.2424242416,7320.30302957,601.696969637,7800.42424164,8.2424242416,7800.42424164,8.2424242416,7800.42424164,8.2424242416,7800.42424164,8.2424242416,7800.42424164,8.2424242416,7800.42424164,8.2424242416,7804.03030225,8.2424242416,7800.42424164,8.2424242416,7800.42424164,8.2424242416,7801.96969619,8.2424242416,7804.03030225,8.2424242416,7800.42424164,8.2424242416,42.0,42.0,?
2017-08-01 19:56:55.785088,7800.42424164,8.2424242416,7366.15151441,601.696969637,7800.42424164,8.2424242416,7800.42424164,8.2424242416,7800.42424164,8.2424242416,7800.42424164,8.2424242416,7800.42424164,8.2424242416,7800.42424164,8.2424242416,7804.03030225,8.2424242416,7800.42424164,8.2424242416,7800.42424164,8.2424242416,7801.45454467,8.2424242416,7804.03030225,8.2424242416,7800.42424164,8.2424242416,42.0,42.0,?
2017-08-01 19:56:55.798017,7800.93939316,8.2424242416,7317.727272,601.696969637,7800.42424164,8.2424242416,7800.42424164,8.2424242416,7800.42424164,8.2424242416,7800.42424164,8.2424242416,7800.42424164,8.2424242416,7800.42424164,8.2424242416,7804.03030225,8.2424242416,7800.42424164,8.2424242416,7800.42424164,8.2424242416,7801.96969619,8.2424242416,7804.03030225,8.2424242416,7800.42424164,8.2424242416,42.0,42.0,?
2017-08-01 19:56:55.802737,7798.8787871,8.2424242416,7204.90909019,601.696969637,7800.42424164,8.2424242416,7800.42424164,8.2424242416,7800.42424164,8.2424242416,7799.90909013,8.2424242416,7800.42424164,8.2424242416,7800.42424164,8.2424242416,7804.03030225,8.2424242416,7800.42424164,8.2424242416,7800.42424164,8.2424242416,7801.96969619,8.2424242416,7804.03030225,8.2424242416,7800.42424164,8.2424242416,42.0,42.0,?
2017-08-01 19:56:55.808663,7796.81818104,8.2424242416,7178.1212114,601.696969637,7800.42424164,8.2424242416,7800.42424164,8.2424242416,7800.42424164,8.2424242416,7800.42424164,8.2424242416,7800.42424164,8.2424242416,7800.42424164,8.2424242416,7804.03030225,8.2424242416,7800.42424164,8.2424242416,7800.42424164,8.2424242416,7799.90909013,8.2424242416,7804.03030225,8.2424242416,7800.42424164,8.2424242416,42.0,42.0,?
2017-08-01 19:56:55.817652,7799.39393861,8.2424242416,7205.4242417,601.696969637,7800.42424164,8.2424242416,7800.93939316,8.2424242416,7800.42424164,8.2424242416,7800.93939316,8.2424242416,7800.42424164,8.2424242416,7800.42424164,8.2424242416,7804.03030225,8.2424242416,7800.42424164,8.2424242416,7800.42424164,8.2424242416,7799.39393861,8.2424242416,7804.03030225,8.2424242416,7800.42424164,8.2424242416,42.0,42.0,?
2017-08-01 19:56:55.824323,7801.45454467,8.2424242416,7220.36363564,601.696969637,7800.42424164,8.2424242416,7799.90909013,8.2424242416,7800.42424164,8.2424242416,7798.8787871,8.2424242416,7800.42424164,8.2424242416,7800.42424164,8.2424242416,7804.03030225,8.2424242416,7800.42424164,8.2424242416,7800.42424164,8.2424242416,7800.42424164,8.2424242416,7804.03030225,8.2424242416,7800.42424164,8.2424242416,42.0,42.0,?
2017-08-01 19:56:55.831622,7799.39393861,8.2424242416,7154.93939322,601.696969637,7800.42424164,8.2424242416,7798.8787871,8.2424242416,7800.42424164,8.2424242416,7796.81818104,8.2424242416,7800.42424164,8.2424242416,7800.42424164,8.2424242416,7804.03030225,8.2424242416,7800.42424164,8.2424242416,7800.42424164,8.2424242416,7800.93939316,8.2424242416,7804.03030225,8.2424242416,7800.42424164,8.2424242416,42.0,42.0,?
2017-08-01 19:56:55.841127,7798.8787871,8.2424242416,6980.30302961,601.696969637,7800.42424164,8.2424242416,7799.90909013,8.2424242416,7800.42424164,8.2424242416,7800.42424164,8.2424242416,7800.42424164,8.2424242416,7800.93939316,8.2424242416,7804.03030225,8.2424242416,7800.42424164,8.2424242416,7800.42424164,8.2424242416,7800.42424164,8.2424242416,7804.03030225,8.2424242416,7800.42424164,8.2424242416,42.0,42.0,?
2017-08-01 19:56:55.847884,7800.93939316,8.2424242416,6952.9999993,601.696969637,7800.93939316,8.2424242416,7801.96969619,8.2424242416,7800.42424164,8.2424242416,7806.09090831,8.2424242416,7800.42424164,8.2424242416,7800.42424164,8.2424242416,7804.03030225,8.2424242416,7800.42424164,8.2424242416,7800.42424164,8.2424242416,7800.42424164,8.2424242416,7804.03030225,8.2424242416,7800.42424164,8.2424242416,42.0,42.0,?
2017-08-01 19:56:55.856359,7800.93939316,8.2424242416,7138.96969626,601.696969637,7801.45454467,8.2424242416,7801.96969619,8.2424242416,7800.42424164,8.2424242416,7804.54545377,8.2424242416,7800.42424164,8.2424242416,7799.39393861,8.2424242416,7804.03030225,8.2424242416,7800.93939316,8.2424242416,7800.42424164,8.2424242416,7800.42424164,8.2424242416,7804.03030225,8.2424242416,7800.42424164,8.2424242416,42.0,42.0,?
2017-08-01 19:56:55.862687,7800.42424164,8.2424242416,7119.9090902,601.696969637,7799.39393861,8.2424242416,7800.93939316,8.2424242416,7800.42424164,8.2424242416,7797.84848407,8.2424242416,7800.42424164,8.2424242416,7799.90909013,8.2424242416,7804.03030225,8.2424242416,7798.8787871,8.2424242416,7800.42424164,8.2424242416,7800.42424164,8.2424242416,7804.03030225,8.2424242416,7800.42424164,8.2424242416,42.0,42.0,?
2017-08-01 19:56:55.870620,7800.42424164,8.2424242416,6924.15151446,601.696969637,7801.96969619,8.2424242416,7801.96969619,8.2424242416,7800.93939316,8.2424242416,7797.84848407,8.2424242416,7800.42424164,8.2424242416,7799.90909013,8.2424242416,7804.03030225,8.2424242416,7797.84848407,8.2424242416,7800.42424164,8.2424242416,7800.42424164,8.2424242416,7804.03030225,8.2424242416,7800.42424164,8.2424242416,42.0,42.0,?
2017-08-01 19:56:55.879340,7800.42424164,8.2424242416,6899.93939325,601.696969637,7802.4848477,8.2424242416,7801.96969619,8.2424242416,7799.90909013,8.2424242416,7802.4848477,8.2424242416,7800.42424164,8.2424242416,7799.39393861,8.2424242416,7804.03030225,8.2424242416,7799.90909013,8.2424242416,7800.42424164,8.2424242416,7800.42424164,8.2424242416,7804.03030225,8.2424242416,7800.42424164,8.2424242416,42.0,42.0,?
2017-08-01 19:56:55.886717,7800.42424164,8.2424242416,6842.24242356,601.696969637,7785.48484771,8.2424242416,7799.39393861,8.2424242416,7797.84848407,8.2424242416,7804.54545377,8.2424242416,7800.42424164,8.2424242416,7799.39393861,8.2424242416,7804.03030225,8.2424242416,7801.96969619,8.2424242416,7800.42424164,8.2424242416,7800.42424164,8.2424242416,7804.03030225,8.2424242416,7800.42424164,8.2424242416,42.0,42.0,?
2017-08-01 19:56:55.896847,7800.42424164,8.2424242416,6662.45454479,601.696969637,7780.84848407,8.2424242416,7798.36363558,8.2424242416,7798.36363558,8.2424242416,7804.03030225,8.2424242416,7800.42424164,8.2424242416,7799.39393861,8.2424242416,7804.03030225,8.2424242416,7801.96969619,8.2424242416,7800.42424164,8.2424242416,7800.42424164,8.2424242416,7804.03030225,8.2424242416,7800.42424164,8.2424242416,42.0,42.0,?
2017-08-01 19:56:55.902709,7800.42424164,8.2424242416,6620.72727207,601.696969637,7791.15151437,8.2424242416,7799.39393861,8.2424242416,7800.42424164,8.2424242416,7804.03030225,8.2424242416,7800.42424164,8.2424242416,7799.39393861,8.2424242416,7804.03030225,8.2424242416,7801.45454467,8.2424242416,7800.42424164,8.2424242416,7800.42424164,8.2424242416,7804.03030225,8.2424242416,7800.42424164,8.2424242416,42.0,42.0,?
2017-08-01 19:56:55.912593,7800.42424164,8.2424242416,6645.45454479,601.696969637,7782.90909013,8.2424242416,7799.39393861,8.2424242416,7800.93939316,8.2424242416,7804.54545377,8.2424242416,7800.42424164,8.2424242416,7799.39393861,8.2424242416,7804.03030225,8.2424242416,7801.96969619,8.2424242416,7800.42424164,8.2424242416,7800.42424164,8.2424242416,7804.03030225,8.2424242416,7800.42424164,8.2424242416,42.0,42.0,?
2017-08-01 19:56:55.917576,7800.42424164,8.2424242416,6719.63636296,601.696969637,7777.24242346,8.2424242416,7799.39393861,8.2424242416,7800.42424164,8.2424242416,7804.03030225,8.2424242416,7800.42424164,8.2424242416,7799.39393861,8.2424242416,7804.03030225,8.2424242416,7801.96969619,8.2424242416,7800.42424164,8.2424242416,7800.42424164,8.2424242416,7804.03030225,8.2424242416,7800.42424164,8.2424242416,42.0,42.0,?
2017-08-01 19:56:55.925678,7800.42424164,8.2424242416,6956.0909084,601.696969637,7796.81818104,8.2424242416,7800.42424164,8.2424242416,7800.42424164,8.2424242416,7804.03030225,8.2424242416,7800.42424164,8.2424242416,7799.39393861,8.2424242416,7804.03030225,8.2424242416,7801.96969619,8.2424242416,7800.42424164,8.2424242416,7800.42424164,8.2424242416,7804.03030225,8.2424242416,7800.42424164,8.2424242416,42.0,42.0,?
2017-08-01 19:56:55.932594,7800.42424164,8.2424242416,7015.33333263,601.696969637,7801.96969619,8.2424242416,7800.93939316,8.2424242416,7800.42424164,8.2424242416,7804.03030225,8.2424242416,7800.42424164,8.2424242416,7799.39393861,8.2424242416,7804.03030225,8.2424242416,7801.96969619,8.2424242416,7800.93939316,8.2424242416,7800.93939316,8.2424242416,7804.03030225,8.2424242416,7800.42424164,8.2424242416,42.0,42.0,?
2017-08-01 19:56:55.940711,7800.42424164,8.2424242416,6811.84848417,601.696969637,7787.54545377,8.2424242416,7800.93939316,8.2424242416,7800.42424164,8.2424242416,7804.03030225,8.2424242416,7800.42424164,8.2424242416,7799.39393861,8.2424242416,7804.03030225,8.2424242416,7801.45454467,8.2424242416,7800.42424164,8.2424242416,7798.36363558,8.2424242416,7804.03030225,8.2424242416,7800.42424164,8.2424242416,42.0,42.0,?
2017-08-01 19:56:55.949237,7798.8787871,8.2424242416,6773.72727205,601.696969637,7789.60605983,8.2424242416,7800.42424164,8.2424242416,7800.42424164,8.2424242416,7804.03030225,8.2424242416,7800.42424164,8.2424242416,7799.39393861,8.2424242416,7804.03030225,8.2424242416,7801.96969619,8.2424242416,7798.36363558,8.2424242416,7797.33333255,8.2424242416,7804.03030225,8.2424242416,7800.42424164,8.2424242416,42.0,42.0,?
2017-08-01 19:56:55.956630,7798.36363558,8.2424242416,6883.96969628,601.696969637,7795.27272649,8.2424242416,7799.90909013,8.2424242416,7800.42424164,8.2424242416,7804.03030225,8.2424242416,7800.42424164,8.2424242416,7799.39393861,8.2424242416,7804.03030225,8.2424242416,7801.45454467,8.2424242416,7798.36363558,8.2424242416,7798.8787871,8.2424242416,7804.03030225,8.2424242416,7800.42424164,8.2424242416,42.0,42.0,?
2017-08-01 19:56:55.966093,7799.90909013,8.2424242416,6864.39393871,601.696969637,7790.63636286,8.2424242416,7801.45454467,8.2424242416,7800.42424164,8.2424242416,7804.03030225,8.2424242416,7800.42424164,8.2424242416,7799.39393861,8.2424242416,7804.03030225,8.2424242416,7798.8787871,8.2424242416,7799.90909013,8.2424242416,7800.93939316,8.2424242416,7804.03030225,8.2424242416,7800.42424164,8.2424242416,42.0,42.0,?
2017-08-01 19:56:55.972665,7800.93939316,8.2424242416,6758.2727266,601.696969637,7778.27272649,8.2424242416,7798.36363558,8.2424242416,7800.42424164,8.2424242416,7804.54545377,8.2424242416,7800.42424164,8.2424242416,7799.39393861,8.2424242416,7804.03030225,8.2424242416,7797.84848407,8.2424242416,7799.90909013,8.2424242416,7800.42424164,8.2424242416,7804.03030225,8.2424242416,7800.42424164,8.2424242416,42.0,42.0,?
2017-08-01 19:56:55.981665,7800.42424164,8.2424242416,6648.03030237,601.696969637,7751.99999922,8.2424242416,7792.1818174,8.2424242416,7800.42424164,8.2424242416,7804.03030225,8.2424242416,7800.42424164,8.2424242416,7799.39393861,8.2424242416,7804.03030225,8.2424242416,7800.42424164,8.2424242416,7798.36363558,8.2424242416,7800.42424164,8.2424242416,7804.03030225,8.2424242416,7800.42424164,8.2424242416,42.0,42.0,?
2017-08-01 19:56:55.987744,7800.42424164,8.2424242416,6620.21212055,601.696969637,7745.81818104,8.2424242416,7792.69696892,8.2424242416,7800.42424164,8.2424242416,7802.99999922,8.2424242416,7800.42424164,8.2424242416,7798.8787871,8.2424242416,7804.03030225,8.2424242416,7800.93939316,8.2424242416,7798.8787871,8.2424242416,7800.42424164,8.2424242416,7804.54545377,8.2424242416,7800.42424164,8.2424242416,42.0,42.0,?
2017-08-01 19:56:55.995633,7800.42424164,8.2424242416,6766.51515084,601.696969637,7777.75757498,8.2424242416,7800.42424164,8.2424242416,7800.42424164,8.2424242416,7805.5757568,8.2424242416,7800.42424164,8.2424242416,7798.8787871,8.2424242416,7804.03030225,8.2424242416,7799.90909013,8.2424242416,7799.90909013,8.2424242416,7800.42424164,8.2424242416,7803.51515073,8.2424242416,7800.42424164,8.2424242416,42.0,42.0,?
2017-08-01 19:56:56.004551,7800.42424164,8.2424242416,6950.93939324,601.696969637,7804.54545377,8.2424242416,7804.03030225,8.2424242416,7800.42424164,8.2424242416,7803.51515073,8.2424242416,7800.42424164,8.2424242416,7800.42424164,8.2424242416,7804.03030225,8.2424242416,7800.93939316,8.2424242416,7799.39393861,8.2424242416,7800.42424164,8.2424242416,7804.03030225,8.2424242416,7800.42424164,8.2424242416,42.0,42.0,?
2017-08-01 19:56:56.013686,7800.42424164,8.2424242416,6935.48484779,601.696969637,7784.45454468,8.2424242416,7796.81818104,8.2424242416,7800.42424164,8.2424242416,7795.78787801,8.2424242416,7800.42424164,8.2424242416,7800.93939316,8.2424242416,7804.03030225,8.2424242416,7799.39393861,8.2424242416,7799.90909013,8.2424242416,7800.42424164,8.2424242416,7805.06060528,8.2424242416,7800.42424164,8.2424242416,42.0,42.0,?
2017-08-01 19:56:56.020390,7800.42424164,8.2424242416,6697.48484782,601.696969637,7745.30302953,8.2424242416,7788.5757568,8.2424242416,7800.42424164,8.2424242416,7795.78787801,8.2424242416,7800.42424164,8.2424242416,7799.39393861,8.2424242416,7804.03030225,8.2424242416,7796.81818104,8.2424242416,7799.39393861,8.2424242416,7800.42424164,8.2424242416,7801.96969619,8.2424242416,7800.42424164,8.2424242416,42.0,42.0,?
2017-08-01 19:56:56.031273,7800.42424164,8.2424242416,6586.21212055,601.696969637,7743.75757498,8.2424242416,7791.15151437,8.2424242416,7800.42424164,8.2424242416,7802.99999922,8.2424242416,7800.42424164,8.2424242416,7799.39393861,8.2424242416,7804.03030225,8.2424242416,7799.39393861,8.2424242416,7798.8787871,8.2424242416,7800.42424164,8.2424242416,7798.8787871,8.2424242416,7800.42424164,8.2424242416,42.0,42.0,?
2017-08-01 19:56:56.035271,7800.42424164,8.2424242416,6812.36363568,601.696969637,7781.36363559,8.2424242416,7799.39393861,8.2424242416,7800.42424164,8.2424242416,7804.54545377,8.2424242416,7800.42424164,8.2424242416,7801.45454467,8.2424242416,7804.03030225,8.2424242416,7801.45454467,8.2424242416,7798.8787871,8.2424242416,7800.42424164,8.2424242416,7799.39393861,8.2424242416,7800.42424164,8.2424242416,42.0,42.0,?
2017-08-01 19:56:56.044008,7800.42424164,8.2424242416,7079.2121205,601.696969637,7806.09090831,8.2424242416,7801.96969619,8.2424242416,7800.42424164,8.2424242416,7802.4848477,8.2424242416,7800.42424164,8.2424242416,7801.45454467,8.2424242416,7804.03030225,8.2424242416,7799.39393861,8.2424242416,7799.39393861,8.2424242416,7800.42424164,8.2424242416,7800.93939316,8.2424242416,7800.42424164,8.2424242416,42.0,42.0,?
2017-08-01 19:56:56.051472,7800.42424164,8.2424242416,7046.24242354,601.696969637,7793.21212043,8.2424242416,7798.36363558,8.2424242416,7800.42424164,8.2424242416,7803.51515073,8.2424242416,7800.42424164,8.2424242416,7799.39393861,8.2424242416,7804.03030225,8.2424242416,7798.8787871,8.2424242416,7799.90909013,8.2424242416,7800.42424164,8.2424242416,7799.39393861,8.2424242416,7800.42424164,8.2424242416,42.0,42.0,?
2017-08-01 19:56:56.059449,7800.42424164,8.2424242416,6918.48484779,601.696969637,7783.42424165,8.2424242416,7796.30302952,8.2424242416,7800.42424164,8.2424242416,7803.51515073,8.2424242416,7800.42424164,8.2424242416,7799.39393861,8.2424242416,7804.03030225,8.2424242416,7800.93939316,8.2424242416,7799.90909013,8.2424242416,7800.42424164,8.2424242416,7798.8787871,8.2424242416,7800.42424164,8.2424242416,42.0,42.0,?
2017-08-01 19:56:56.066591,7800.42424164,8.2424242416,6988.54545385,601.696969637,7799.39393861,8.2424242416,7801.45454467,8.2424242416,7800.42424164,8.2424242416,7802.99999922,8.2424242416,7800.42424164,8.2424242416,7800.93939316,8.2424242416,7804.03030225,8.2424242416,7800.93939316,8.2424242416,7800.93939316,8.2424242416,7800.42424164,8.2424242416,7799.39393861,8.2424242416,7800.42424164,8.2424242416,42.0,42.0,?
2017-08-01 19:56:56.074548,7800.42424164,8.2424242416,6965.87878718,601.696969637,7795.78787801,8.2424242416,7800.42424164,8.2424242416,7800.42424164,8.2424242416,7802.99999922,8.2424242416,7800.42424164,8.2424242416,7800.93939316,8.2424242416,7804.03030225,8.2424242416,7800.42424164,8.2424242416,7800.93939316,8.2424242416,7800.42424164,8.2424242416,7799.39393861,8.2424242416,7800.42424164,8.2424242416,42.0,42.0,?
2017-08-01 19:56:56.082818,7800.42424164,8.2424242416,6759.30302963,601.696969637,7761.2727265,8.2424242416,7792.1818174,8.2424242416,7800.42424164,8.2424242416,7802.99999922,8.2424242416,7800.42424164,8.2424242416,7799.90909013,8.2424242416,7804.03030225,8.2424242416,7800.42424164,8.2424242416,7798.36363558,8.2424242416,7800.42424164,8.2424242416,7799.90909013,8.2424242416,7800.42424164,8.2424242416,42.0,42.0,?
2017-08-01 19:56:56.090711,7800.42424164,8.2424242416,6778.8787872,601.696969637,7763.33333256,8.2424242416,7794.24242346,8.2424242416,7800.42424164,8.2424242416,7802.99999922,8.2424242416,7800.42424164,8.2424242416,7799.39393861,8.2424242416,7804.03030225,8.2424242416,7800.42424164,8.2424242416,7797.33333255,8.2424242416,7800.42424164,8.2424242416,7799.39393861,8.2424242416,7800.42424164,8.2424242416,42.0,42.0,?
2017-08-01 19:56:56.102021,7800.42424164,8.2424242416,6991.12121142,601.696969637,7796.81818104,8.2424242416,7802.4848477,8.2424242416,7800.42424164,8.2424242416,7802.99999922,8.2424242416,7800.42424164,8.2424242416,7799.39393861,8.2424242416,7804.03030225,8.2424242416,7800.42424164,8.2424242416,7799.90909013,8.2424242416,7800.42424164,8.2424242416,7799.90909013,8.2424242416,7800.42424164,8.2424242416,42.0,42.0,?
2017-08-01 19:56:56.107410,7800.42424164,8.2424242416,7016.87878718,601.696969637,7795.27272649,8.2424242416,7801.96969619,8.2424242416,7800.93939316,8.2424242416,7802.99999922,8.2424242416,7800.42424164,8.2424242416,7800.42424164,8.2424242416,7804.03030225,8.2424242416,7800.42424164,8.2424242416,7800.42424164,8.2424242416,7800.42424164,8.2424242416,7799.90909013,8.2424242416,7800.42424164,8.2424242416,42.0,42.0,?
2017-08-01 19:56:56.112757,7800.42424164,8.2424242416,6960.72727203,601.696969637,7784.96969619,8.2424242416,7799.90909013,8.2424242416,7800.42424164,8.2424242416,7802.99999922,8.2424242416,7800.42424164,8.2424242416,7800.93939316,8.2424242416,7804.03030225,8.2424242416,7800.42424164,8.2424242416,7797.84848407,8.2424242416,7800.42424164,8.2424242416,7799.90909013,8.2424242416,7800.42424164,8.2424242416,42.0,42.0,?
2017-08-01 19:56:56.123079,7800.42424164,8.2424242416,7042.63636293,601.696969637,7800.42424164,8.2424242416,7800.93939316,8.2424242416,7799.39393861,8.2424242416,7802.99999922,8.2424242416,7800.42424164,8.2424242416,7799.90909013,8.2424242416,7804.03030225,8.2424242416,7800.42424164,8.2424242416,7797.84848407,8.2424242416,7800.42424164,8.2424242416,7799.90909013,8.2424242416,7800.42424164,8.2424242416,42.0,42.0,?
2017-08-01 19:56:56.129116,7800.42424164,8.2424242416,7073.03030232,601.696969637,7798.8787871,8.2424242416,7798.8787871,8.2424242416,7799.90909013,8.2424242416,7802.99999922,8.2424242416,7800.42424164,8.2424242416,7798.8787871,8.2424242416,7804.03030225,8.2424242416,7800.42424164,8.2424242416,7800.42424164,8.2424242416,7800.42424164,8.2424242416,7799.90909013,8.2424242416,7800.42424164,8.2424242416,42.0,42.0,?
2017-08-01 19:56:56.136886,7800.42424164,8.2424242416,6995.75757506,601.696969637,7795.78787801,8.2424242416,7804.54545377,8.2424242416,7799.90909013,8.2424242416,7802.99999922,8.2424242416,7800.42424164,8.2424242416,7798.8787871,8.2424242416,7804.03030225,8.2424242416,7800.42424164,8.2424242416,7800.93939316,8.2424242416,7800.42424164,8.2424242416,7799.90909013,8.2424242416,7800.42424164,8.2424242416,42.0,42.0,?
2017-08-01 19:56:56.146764,7800.42424164,8.2424242416,6910.24242355,601.696969637,7798.36363558,8.2424242416,7805.06060528,8.2424242416,7799.90909013,8.2424242416,7803.51515073,8.2424242416,7801.96969619,8.2424242416,7800.42424164,8.2424242416,7804.03030225,8.2424242416,7800.93939316,8.2424242416,7801.96969619,8.2424242416,7800.93939316,8.2424242416,7800.93939316,8.2424242416,7800.42424164,8.2424242416,42.0,42.0,?
2017-08-01 19:56:56.152666,7800.42424164,8.2424242416,6793.81818114,601.696969637,7775.1818174,8.2424242416,7788.06060528,8.2424242416,7801.96969619,8.2424242416,7804.03030225,8.2424242416,7805.5757568,8.2424242416,7801.96969619,8.2424242416,7804.54545377,8.2424242416,7801.96969619,8.2424242416,7807.12121134,8.2424242416,7802.99999922,8.2424242416,7802.4848477,8.2424242416,7800.93939316,8.2424242416,42.0,42.0,?
2017-08-01 19:56:56.161372,7801.45454467,8.2424242416,6701.09090842,601.696969637,7739.12121135,8.2424242416,7780.33333256,8.2424242416,7804.03030225,8.2424242416,7805.5757568,8.2424242416,7804.54545377,8.2424242416,7802.99999922,8.2424242416,7804.54545377,8.2424242416,7804.54545377,8.2424242416,7797.84848407,8.2424242416,7804.03030225,8.2424242416,7795.78787801,8.2424242416,7801.45454467,8.2424242416,42.0,42.0,?
2017-08-01 19:56:56.168728,7801.96969619,4.1212121208,6712.93939327,601.696969637,7728.81818105,8.2424242416,7786.51515074,8.2424242416,7801.96969619,8.2424242416,7806.09090831,8.2424242416,7805.06060528,8.2424242416,7803.51515073,8.2424242416,7804.03030225,8.2424242416,7803.51515073,8.2424242416,7798.36363558,8.2424242416,7804.03030225,8.2424242416,7801.96969619,8.2424242416,7801.96969619,8.2424242416,42.0,42.0,?
2017-08-01 19:56:56.177467,7802.4848477,4.1212121208,6724.2727266,1026.18181808,7728.30302953,8.2424242416,7774.15151437,8.2424242416,7806.09090831,8.2424242416,7806.09090831,8.2424242416,7813.81818104,8.2424242416,7804.54545377,8.2424242416,7806.60605983,8.2424242416,7805.06060528,8.2424242416,7801.96969619,8.2424242416,7805.06060528,8.2424242416,7802.4848477,8.2424242416,7802.4848477,8.2424242416,42.0,42.0,?
2017-08-01 19:56:56.183721,7802.4848477,4.1212121208,6553.24242359,1026.18181808,7624.24242348,8.2424242416,7690.18181741,8.2424242416,7794.75757498,8.2424242416,7802.4848477,8.2424242416,7788.06060528,8.2424242416,7805.06060528,8.2424242416,7805.5757568,8.2424242416,7808.15151437,8.2424242416,7743.24242347,8.2424242416,7802.99999922,8.2424242416,7754.5757568,8.2424242416,7804.54545377,8.2424242416,42.0,42.0,?
2017-08-01 19:56:56.191388,7796.81818104,4.1212121208,6311.63636301,1026.18181808,7436.72727198,8.2424242416,7516.57575682,8.2424242416,7727.2727265,8.2424242416,7779.81818104,8.2424242416,7705.12121135,8.2424242416,7781.36363559,8.2424242416,7793.21212043,8.2424242416,7771.06060528,8.2424242416,7706.6666659,8.2424242416,7756.63636286,8.2424242416,7761.78787801,8.2424242416,7793.21212043,8.2424242416,42.0,42.0,?
2017-08-01 19:56:56.199370,7788.5757568,4.1212121208,6241.57575695,1026.18181808,7340.90909018,8.2424242416,7392.9393932,12.3636363624,7676.27272651,8.2424242416,7755.60605983,8.2424242416,7658.24242348,8.2424242416,7748.39393862,8.2424242416,7791.15151437,8.2424242416,7724.18181741,8.2424242416,7708.72727196,8.2424242416,7708.72727196,8.2424242416,7785.99999922,8.2424242416,7779.30302953,8.2424242416,42.0,42.0,?
2017-08-01 19:56:56.209575,7770.03030225,4.1212121208,6220.45454483,1026.18181808,7275.48484776,8.2424242416,7288.87878715,12.3636363624,7635.57575681,8.2424242416,7722.12121135,8.2424242416,7616.51515075,8.2424242416,7712.84848408,8.2424242416,7790.12121134,8.2424242416,7689.6666659,8.2424242416,7630.93939318,8.2424242416,7684.51515075,8.2424242416,7724.18181741,8.2424242416,7764.36363559,8.2424242416,42.0,42.0,?
2017-08-01 19:56:56.215189,7738.09090832,4.1212121208,6127.72727211,1026.18181808,7150.30302959,8.2424242416,7087.45454475,12.3636363624,7538.72727197,8.2424242416,7669.06060529,12.3636363624,7498.5454538,8.2424242416,7654.63636287,8.2424242416,7761.78787801,8.2424242416,7622.18181742,8.2424242416,7573.24242349,8.2424242416,7613.93939318,8.2424242416,7691.21212044,8.2424242416,7722.12121135,8.2424242416,42.0,42.0,?
2017-08-01 19:56:56.225789,7730.87878711,4.1212121208,6162.24242363,1026.18181808,7138.96969626,8.2424242416,7047.78787808,12.3636363624,7521.72727198,8.2424242416,7663.90909014,12.3636363624,7469.18181743,4.1212121208,7640.72727196,8.2424242416,7751.99999922,8.2424242416,7590.24242348,8.2424242416,7622.69696893,8.2424242416,7577.87878712,8.2424242416,7721.60605983,8.2424242416,7706.15151438,8.2424242416,42.0,42.0,?
2017-08-01 19:56:56.232260,7758.18181741,4.1212121208,6299.78787816,1026.18181808,7252.30302958,8.2424242416,7228.60605988,12.3636363624,7620.12121136,8.2424242416,7714.90909014,12.3636363624,7578.90909015,4.1212121208,7695.84848408,0.0,7782.39393862,8.2424242416,7649.99999924,8.2424242416,7656.18181742,8.2424242416,7645.3636356,8.2424242416,7733.45454468,8.2424242416,7748.39393862,8.2424242416,42.0,42.0,?
2017-08-01 19:56:56.238279,7792.1818174,4.1212121208,6730.9696963,1026.18181808,7582.51515076,8.2424242416,7598.99999924,12.3636363624,7741.69696892,8.2424242416,7777.24242346,12.3636363624,7730.87878711,4.1212121208,7768.48484771,0.0,7791.66666589,0.0,7764.8787871,4.1212121208,7779.30302953,8.2424242416,7751.99999922,8.2424242416,7817.42424164,8.2424242416,7781.8787871,8.2424242416,42.0,42.0,?
2017-08-01 19:56:56.245867,7792.1818174,4.1212121208,6730.9696963,1026.18181808,7582.51515076,8.2424242416,7598.99999924,12.3636363624,7741.69696892,8.2424242416,7777.24242346,12.3636363624,7730.87878711,4.1212121208,7768.48484771,0.0,7791.66666589,0.0,7764.8787871,4.1212121208,7779.30302953,8.2424242416,7751.99999922,8.2424242416,7817.42424164,8.2424242416,7781.8787871,8.2424242416,42.0,42.0,?
2017-08-01 19:56:56.255599,7798.8787871,4.1212121208,6914.36363567,1026.18181808,7738.09090832,8.2424242416,7781.36363559,12.3636363624,7804.54545377,8.2424242416,7803.51515073,12.3636363624,7804.54545377,4.1212121208,7800.42424164,0.0,7799.90909013,0.0,7801.45454467,4.1212121208,7814.33333255,0.0,7797.84848407,8.2424242416,7805.06060528,8.2424242416,7796.30302952,8.2424242416,42.0,42.0,?
2017-08-01 19:56:56.262679,7802.99999922,4.1212121208,6823.69696901,1026.18181808,7707.18181741,8.2424242416,7766.42424165,12.3636363624,7822.57575679,8.2424242416,7811.24242346,12.3636363624,7823.60605982,4.1212121208,7814.33333255,0.0,7810.72727195,0.0,7817.42424164,4.1212121208,7780.33333256,0.0,7824.12121134,12.3636363624,7781.36363559,8.2424242416,7810.21212043,8.2424242416,42.0,42.0,?
2017-08-01 19:56:56.271103,7801.96969619,4.1212121208,6755.69696902,1026.18181808,7668.03030226,8.2424242416,7703.06060529,12.3636363624,7796.30302952,8.2424242416,7800.93939316,12.3636363624,7798.36363558,4.1212121208,7801.45454467,0.0,7802.99999922,0.0,7801.45454467,4.1212121208,7795.27272649,0.0,7799.90909013,12.3636363624,7812.27272649,12.3636363624,7800.93939316,8.2424242416,42.0,42.0,?
2017-08-01 19:56:56.282759,7797.84848407,4.1212121208,6666.06060539,1026.18181808,7590.24242348,8.2424242416,7620.63636287,12.3636363624,7758.18181741,8.2424242416,7791.15151437,12.3636363624,7748.39393862,4.1212121208,7788.06060528,0.0,7796.30302952,0.0,7774.66666589,0.0,7779.30302953,0.0,7762.81818104,12.3636363624,7802.4848477,12.3636363624,7797.33333255,8.2424242416,42.0,42.0,?
2017-08-01 19:56:56.296580,7793.21212043,4.1212121208,6459.99999935,1026.18181808,7424.87878714,8.2424242416,7457.8484841,12.3636363624,7725.72727195,8.2424242416,7777.75757498,12.3636363624,7698.93939317,4.1212121208,7779.81818104,0.0,7797.84848407,0.0,7753.54545377,0.0,7715.93939317,8.2424242416,7747.8787871,12.3636363624,7761.78787801,12.3636363624,7795.78787801,8.2424242416,42.0,42.0,?
2017-08-01 19:56:56.300787,7794.24242346,4.1212121208,6435.27272663,1026.18181808,7390.36363562,8.2424242416,7422.81818108,12.3636363624,7722.63636286,8.2424242416,7774.66666589,12.3636363624,7698.42424165,4.1212121208,7770.03030225,0.0,7800.42424164,0.0,7744.2727265,0.0,7732.42424165,8.2424242416,7749.42424165,12.3636363624,7764.8787871,12.3636363624,7789.09090831,8.2424242416,42.0,42.0,?
2017-08-01 19:56:56.303954,7794.75757498,4.1212121208,6508.42424177,1026.18181808,7426.42424168,8.2424242416,7459.90909016,12.3636363624,7716.9696962,8.2424242416,7778.78787801,12.3636363624,7698.93939317,4.1212121208,7768.99999922,0.0,7802.99999922,0.0,7743.24242347,0.0,7736.03030226,8.2424242416,7744.78787801,12.3636363624,7764.8787871,12.3636363624,7792.1818174,8.2424242416,42.0,42.0,?
2017-08-01 19:56:56.313849,7793.21212043,4.1212121208,6442.48484784,1026.18181808,7362.54545381,8.2424242416,7375.42424169,12.3636363624,7685.54545378,8.2424242416,7771.06060528,12.3636363624,7662.87878711,4.1212121208,7763.84848407,0.0,7795.78787801,0.0,7730.87878711,0.0,7683.99999923,8.2424242416,7731.39393862,12.3636363624,7764.8787871,12.3636363624,7792.1818174,8.2424242416,42.0,42.0,?
2017-08-01 19:56:56.317111,7783.42424165,4.1212121208,6393.54545391,1026.18181808,7307.42424169,8.2424242416,7288.36363563,12.3636363624,7654.12121136,8.2424242416,7743.24242347,12.3636363624,7631.96969621,4.1212121208,7730.36363559,0.0,7784.96969619,0.0,7688.12121135,0.0,7680.39393863,8.2424242416,7697.39393862,12.3636363624,7767.45454468,12.3636363624,7771.06060528,8.2424242416,42.0,42.0,?
2017-08-01 19:56:56.324091,7753.54545377,4.1212121208,6363.66666603,1026.18181808,7253.84848412,8.2424242416,7212.1212114,12.3636363624,7612.39393863,8.2424242416,7703.57575681,12.3636363624,7573.24242349,4.1212121208,7688.63636287,0.0,7784.96969619,0.0,7640.21212045,0.0,7631.45454469,8.2424242416,7629.90909015,12.3636363624,7703.06060529,12.3636363624,7740.66666589,8.2424242416,42.0,42.0,?
2017-08-01 19:56:56.331879,7725.72727195,4.1212121208,6293.60605998,1026.18181808,7171.93939322,8.2424242416,7106.5151508,12.3636363624,7563.96969621,8.2424242416,7675.75757499,12.3636363624,7495.45454471,4.1212121208,7657.72727196,0.0,7760.24242347,0.0,7610.33333257,0.0,7567.57575682,8.2424242416,7574.78787803,12.3636363624,7694.30302953,12.3636363624,7711.81818105,8.2424242416,42.0,42.0,?
2017-08-01 19:56:56.341864,7696.36363559,4.1212121208,6286.39393877,1026.18181808,7142.57575686,8.2424242416,7053.45454475,12.3636363624,7533.06060531,8.2424242416,7652.0606053,12.3636363624,7456.30302956,4.1212121208,7627.33333257,0.0,7717.48484771,0.0,7579.42424167,0.0,7549.54545379,8.2424242416,7548.51515076,12.3636363624,7705.12121135,12.3636363624,7674.72727196,8.2424242416,42.0,42.0,?
2017-08-01 19:56:56.347708,7675.75757499,4.1212121208,6297.7272721,1026.18181808,7126.60605989,8.2424242416,7013.78787809,12.3636363624,7496.48484774,8.2424242416,7628.87878712,12.3636363624,7419.72727199,4.1212121208,7600.03030227,0.0,7712.33333256,0.0,7556.24242349,0.0,7521.21212046,8.2424242416,7542.33333258,12.3636363624,7661.33333257,12.3636363624,7652.0606053,8.2424242416,42.0,42.0,?
2017-08-01 19:56:56.355961,7683.99999923,4.1212121208,6271.45454483,1026.18181808,7078.69696899,8.2424242416,6942.696969,12.3636363624,7434.66666592,8.2424242416,7614.45454469,12.3636363624,7362.54545381,4.1212121208,7558.30302955,0.0,7703.57575681,0.0,7527.90909016,0.0,7536.1515144,8.2424242416,7525.33333258,12.3636363624,7675.24242347,12.3636363624,7645.3636356,8.2424242416,42.0,42.0,?
2017-08-01 19:56:56.363983,7618.57575681,4.1212121208,6191.09090847,1026.18181808,6980.81818112,8.2424242416,6819.06060538,12.3636363624,7308.45454472,8.2424242416,7542.84848409,12.3636363624,7251.78787806,4.1212121208,7456.30302956,0.0,7652.57575681,0.0,7403.75757502,0.0,7460.93939319,8.2424242416,7391.39393865,12.3636363624,7609.30302954,12.3636363624,7587.66666591,8.2424242416,42.0,42.0,?
2017-08-01 19:56:56.371473,7469.69696895,4.1212121208,6060.24242364,1026.18181808,6835.54545386,8.2424242416,6624.84848419,12.3636363624,7112.69696899,8.2424242416,7382.6363629,12.3636363624,7077.15151444,4.1212121208,7285.78787806,0.0,7581.48484773,0.0,7171.42424171,0.0,7273.93939321,8.2424242416,7127.63636292,12.3636363624,7500.09090834,12.3636363624,7437.75757501,8.2424242416,42.0,42.0,?
2017-08-01 19:56:56.379223,7470.21212047,4.1212121208,6067.96969636,1026.18181808,6822.15151447,8.2424242416,6591.3636357,12.3636363624,7079.2121205,8.2424242416,7360.99999926,12.3636363624,7039.54545384,4.1212121208,7232.21212049,0.0,7591.27272651,0.0,7117.33333262,0.0,7278.06060533,8.2424242416,7039.54545384,12.3636363624,7548.51515076,12.3636363624,7382.6363629,8.2424242416,42.0,42.0,?
2017-08-01 19:56:56.389069,7631.45454469,4.1212121208,6257.54545392,1026.18181808,6981.33333264,8.2424242416,6795.36363568,12.3636363624,7282.69696897,8.2424242416,7543.36363561,12.3636363624,7217.27272655,4.1212121208,7394.99999926,0.0,7685.54545378,0.0,7337.30302957,0.0,7453.21212047,8.2424242416,7267.75757503,12.3636363624,7661.33333257,12.3636363624,7538.72727197,8.2424242416,42.0,42.0,?
2017-08-01 19:56:56.395658,7643.81818105,4.1212121208,6309.57575694,1026.18181808,7020.48484778,8.2424242416,6845.33333265,12.3636363624,7331.12121139,8.2424242416,7574.27272652,12.3636363624,7270.84848412,4.1212121208,7451.15151441,0.0,7670.09090832,0.0,7404.27272653,0.0,7472.78787804,8.2424242416,7366.15151441,12.3636363624,7683.99999923,12.3636363624,7600.54545379,8.2424242416,42.0,42.0,?
2017-08-01 19:56:56.408925,7559.33333258,4.1212121208,6221.99999938,1026.18181808,6933.42424173,8.2424242416,6728.90909024,12.3636363624,7207.99999928,8.2424242416,7470.72727198,12.3636363624,7166.27272656,4.1212121208,7354.30302957,0.0,7605.18181742,0.0,7277.0303023,0.0,7387.78787805,8.2424242416,7234.78787806,12.3636363624,7635.57575681,12.3636363624,7510.39393864,8.2424242416,42.0,42.0,?
2017-08-01 19:56:56.411857,7620.63636287,4.1212121208,6280.21212058,1026.18181808,6982.87878718,8.2424242416,6803.60605993,12.3636363624,7275.99999927,8.2424242416,7538.72727197,12.3636363624,7221.90909019,4.1212121208,7423.84848411,0.0,7673.69696893,0.0,7337.81818108,0.0,7443.42424168,8.2424242416,7266.727272,12.3636363624,7623.21212045,12.3636363624,7553.66666591,8.2424242416,42.0,42.0,?
2017-08-01 19:56:56.418135,7696.87878711,4.1212121208,6385.81818118,1026.18181808,7079.72727202,8.2424242416,6945.78787809,12.3636363624,7421.27272653,8.2424242416,7643.81818105,12.3636363624,7341.93939321,4.1212121208,7556.24242349,0.0,7737.06060529,0.0,7489.78787804,0.0,7524.81818107,8.2424242416,7426.9393932,12.3636363624,7654.12121136,12.3636363624,7663.90909014,8.2424242416,42.0,42.0,?
2017-08-01 19:56:56.428734,7665.9696962,4.1212121208,6365.21212058,1026.18181808,7060.66666596,8.2424242416,6924.66666597,12.3636363624,7411.99999926,8.2424242416,7610.84848409,12.3636363624,7325.45454472,4.1212121208,7528.42424167,0.0,7679.87878711,0.0,7484.63636289,0.0,7502.1515144,8.2424242416,7457.8484841,12.3636363624,7691.72727196,12.3636363624,7653.09090833,8.2424242416,42.0,42.0,?
2017-08-01 19:56:56.434209,7643.30302954,4.1212121208,6320.39393876,1026.18181808,7014.3030296,8.2424242416,6853.57575689,12.3636363624,7349.66666593,8.2424242416,7570.66666591,12.3636363624,7270.84848412,4.1212121208,7458.87878713,0.0,7655.6666659,0.0,7417.15151441,0.0,7473.30302956,8.2424242416,7394.48484775,12.3636363624,7688.12121135,12.3636363624,7602.60605985,8.2424242416,42.0,42.0,?
2017-08-01 19:56:56.445153,7671.12121135,4.1212121208,6352.3333327,1026.18181808,7036.96969627,8.2424242416,6887.06060537,12.3636363624,7374.90909017,8.2424242416,7606.72727197,12.3636363624,7294.0303023,4.1212121208,7494.93939319,0.0,7710.78787802,0.0,7432.09090835,0.0,7493.90909016,8.2424242416,7382.12121138,12.3636363624,7630.93939318,12.3636363624,7617.54545378,8.2424242416,42.0,42.0,?
2017-08-01 19:56:56.450759,7629.90909015,4.1212121208,6329.66666603,1026.18181808,7014.3030296,8.2424242416,6875.21212052,12.3636363624,7357.39393866,8.2424242416,7570.15151439,12.3636363624,7273.93939321,4.1212121208,7486.18181743,0.0,7668.03030226,0.0,7398.09090835,0.0,7471.75757501,8.2424242416,7329.06060533,12.3636363624,7639.18181742,12.3636363624,7587.66666591,8.2424242416,42.0,42.0,?
2017-08-01 19:56:56.461646,7452.18181744,4.1212121208,6154.5151509,1026.18181808,6837.60605992,8.2424242416,6640.30302964,12.3636363624,7125.06060535,8.2424242416,7357.90909017,12.3636363624,7075.09090838,4.1212121208,7266.727272,0.0,7499.57575683,0.0,7161.12121141,0.0,7313.09090836,8.2424242416,7115.27272656,12.3636363624,7619.09090833,12.3636363624,7396.54545381,8.2424242416,42.0,42.0,?
2017-08-01 19:56:56.466248,7147.72727201,4.1212121208,5910.33333274,1026.18181808,6566.12121146,8.2424242416,6253.93939331,12.3636363624,6731.48484781,8.2424242416,7020.48484778,12.3636363624,6743.84848417,4.1212121208,6883.96969628,0.0,7253.84848412,0.0,6792.78787811,0.0,7031.81818111,8.2424242416,6773.72727205,12.3636363624,7379.54545381,12.3636363624,7059.12121142,8.2424242416,42.0,42.0,?
2017-08-01 19:56:56.475946,6856.66666598,4.1212121208,5749.09090852,1026.18181808,6364.18181755,8.2424242416,5971.12121152,12.3636363624,6427.5454539,8.2424242416,6738.18181751,12.3636363624,6470.81818117,4.1212121208,6540.36363571,0.0,6965.87878718,0.0,6488.8484842,0.0,6809.27272659,8.2424242416,6473.90909026,12.3636363624,7216.75757504,12.3636363624,6734.06060539,8.2424242416,42.0,42.0,?
2017-08-01 19:56:56.482630,6799.99999932,4.1212121208,5784.63636306,1026.18181808,6366.24242361,8.2424242416,5971.12121152,12.3636363624,6418.27272663,8.2424242416,6717.5757569,12.3636363624,6445.06060542,4.1212121208,6484.72727208,0.0,6892.21212052,0.0,6429.09090845,0.0,6802.5757569,8.2424242416,6408.99999936,12.3636363624,7288.87878715,12.3636363624,6663.99999933,8.2424242416,42.0,42.0,?
2017-08-01 19:56:56.491313,6991.12121142,4.1212121208,5969.06060546,1026.18181808,6524.39393874,8.2424242416,6165.84848423,12.3636363624,6622.27272661,8.2424242416,6925.18181749,12.3636363624,6626.39393873,4.1212121208,6703.666666,0.0,7124.54545383,0.0,6616.60605994,0.0,6956.60605991,8.2424242416,6563.03030237,12.3636363624,7363.06060532,12.3636363624,6863.87878719,8.2424242416,42.0,42.0,?
2017-08-01 19:56:56.496641,7205.4242417,4.1212121208,6132.36363575,1026.18181808,6670.69696903,8.2424242416,6356.96969633,12.3636363624,6816.4848478,8.2424242416,7125.57575686,12.3636363624,6807.21212053,4.1212121208,6912.81818113,0.0,7317.21212048,0.0,6846.87878719,0.0,7119.39393868,8.2424242416,6775.78787811,12.3636363624,7430.03030229,12.3636363624,7089.51515081,8.2424242416,42.0,42.0,?
2017-08-01 19:56:56.511431,7297.12121139,4.1212121208,6185.42424181,1026.18181808,6723.24242357,8.2424242416,6454.33333269,12.3636363624,6913.84848416,8.2424242416,7190.99999928,12.3636363624,6869.54545386,4.1212121208,6985.96969627,0.0,7358.42424169,0.0,6948.87878718,0.0,7185.84848413,8.2424242416,6937.03030234,12.3636363624,7510.39393864,12.3636363624,7183.78787807,8.2424242416,42.0,42.0,?
2017-08-01 19:56:56.512397,7297.12121139,4.1212121208,6185.42424181,1026.18181808,6723.24242357,8.2424242416,6454.33333269,12.3636363624,6913.84848416,8.2424242416,7201.8181811,12.3636363624,6877.27272658,4.1212121208,6985.96969627,0.0,7358.42424169,0.0,6948.87878718,0.0,7185.84848413,8.2424242416,6937.03030234,12.3636363624,7539.24242349,12.3636363624,7216.24242352,8.2424242416,42.0,42.0,?
2017-08-01 19:56:56.527840,7306.90909018,4.1212121208,6183.36363575,1026.18181808,6723.75757509,8.2424242416,6463.60605996,12.3636363624,6921.06060537,8.2424242416,7207.99999928,12.3636363624,6880.87878719,4.1212121208,7016.87878718,0.0,7404.27272653,0.0,6945.78787809,0.0,7180.69696898,8.2424242416,6903.03030234,12.3636363624,7504.72727198,12.3636363624,7222.4242417,8.2424242416,42.0,42.0,?
2017-08-01 19:56:56.533206,7291.45454473,4.1212121208,6170.99999938,1026.18181808,6713.9696963,8.2424242416,6444.03030239,12.3636363624,6913.84848416,8.2424242416,7203.36363564,12.3636363624,6877.7878781,4.1212121208,7014.3030296,0.0,7392.42424169,0.0,6925.18181749,0.0,7177.60605989,8.2424242416,6895.81818113,12.3636363624,7494.93939319,12.3636363624,7189.45454474,8.2424242416,42.0,42.0,?
2017-08-01 19:56:56.546777,7291.45454473,4.1212121208,6170.99999938,1026.18181808,6713.9696963,8.2424242416,6444.03030239,12.3636363624,6913.84848416,8.2424242416,7203.36363564,12.3636363624,6877.7878781,4.1212121208,7014.3030296,0.0,7392.42424169,0.0,6925.18181749,0.0,7177.60605989,8.2424242416,6895.81818113,12.3636363624,7494.93939319,12.3636363624,7189.45454474,8.2424242416,42.0,42.0,?
2017-08-01 19:56:56.548332,7329.57575684,4.1212121208,6210.66666605,1026.18181808,6741.78787811,8.2424242416,6492.96969632,12.3636363624,6961.24242355,8.2424242416,7243.03030231,12.3636363624,6907.66666598,4.1212121208,7046.24242354,0.0,7423.84848411,0.0,6988.03030233,0.0,7198.21212049,8.2424242416,6943.72727203,12.3636363624,7523.27272652,12.3636363624,7244.06060534,8.2424242416,42.0,42.0,?
2017-08-01 19:56:56.554075,7341.93939321,4.1212121208,6216.84848423,1026.18181808,6747.96969629,8.2424242416,6517.69696905,12.3636363624,6978.24242354,8.2424242416,7259.51515079,12.3636363624,6917.45454476,4.1212121208,7062.72727202,0.0,7444.96969623,0.0,6995.24242354,0.0,7203.87878716,8.2424242416,6944.24242355,12.3636363624,7524.81818107,12.3636363624,7264.66666594,8.2424242416,42.0,42.0,?
2017-08-01 19:56:56.559466,7308.96969624,4.1212121208,6191.09090847,1026.18181808,6726.33333266,8.2424242416,6472.36363572,12.3636363624,6941.15151446,8.2424242416,7226.03030231,12.3636363624,6896.84848416,4.1212121208,7037.9999993,0.0,7414.06060532,0.0,6952.9999993,0.0,7187.39393868,8.2424242416,6916.42424173,12.3636363624,7474.8484841,12.3636363624,7223.45454473,8.2424242416,42.0,42.0,?
2017-08-01 19:56:56.568335,7271.36363564,4.1212121208,6168.42424181,1026.18181808,6695.93939327,8.2424242416,6413.636363,12.3636363624,6892.21212052,8.2424242416,7176.57575686,12.3636363624,6857.69696901,4.1212121208,6993.18181748,0.0,7368.21212048,0.0,6921.57575688,0.0,7160.09090837,8.2424242416,6887.06060537,12.3636363624,7454.75757501,12.3636363624,7190.99999928,8.2424242416,42.0,42.0,?
2017-08-01 19:56:56.575522,7243.03030231,4.1212121208,6150.39393878,1026.18181808,6668.63636297,8.2424242416,6379.636363,12.3636363624,6849.45454477,8.2424242416,7137.93939323,12.3636363624,6820.09090841,4.1212121208,6950.42424173,0.0,7345.0303023,0.0,6881.39393871,0.0,7135.36363565,8.2424242416,6863.36363568,12.3636363624,7493.39393864,12.3636363624,7172.45454474,8.2424242416,42.0,42.0,?
2017-08-01 19:56:56.581609,7250.24242352,4.1212121208,6162.75757514,1026.18181808,6678.42424176,8.2424242416,6397.66666603,12.3636363624,6853.57575689,8.2424242416,7154.42424171,12.3636363624,6830.39393871,4.1212121208,6962.27272658,0.0,7376.96969623,0.0,6868.51515083,0.0,7139.99999929,8.2424242416,6852.03030235,12.3636363624,7518.12121137,12.3636363624,7164.72727201,8.2424242416,42.0,42.0,?
2017-08-01 19:56:56.591301,7268.27272655,4.1212121208,6183.36363575,1026.18181808,6698.51515085,8.2424242416,6434.2424236,12.3636363624,6888.0909084,8.2424242416,7187.90909019,12.3636363624,6857.69696901,4.1212121208,7003.48484778,0.0,7403.2424235,0.0,6899.93939325,0.0,7147.2121205,8.2424242416,6853.06060538,12.3636363624,7480.51515077,12.3636363624,7179.15151443,8.2424242416,42.0,42.0,?
2017-08-01 19:56:56.597691,7150.8181811,4.1212121208,6096.81818121,1026.18181808,6609.90909025,8.2424242416,6332.24242361,12.3636363624,6788.15151447,8.2424242416,7070.96969626,12.3636363624,6752.60605993,4.1212121208,6882.93939325,0.0,7258.99999927,0.0,6801.03030235,0.0,7057.06060535,8.2424242416,6775.78787811,12.3636363624,7416.63636289,12.3636363624,7073.54545384,8.2424242416,42.0,42.0,?
2017-08-01 19:56:56.608428,7077.66666596,4.1212121208,6059.72727212,1026.18181808,6563.54545389,8.2424242416,6257.0303024,12.3636363624,6716.54545387,8.2424242416,6994.21212051,12.3636363624,6679.45454479,4.1212121208,6768.5757569,0.0,7157.5151508,0.0,6716.03030236,0.0,7020.48484778,8.2424242416,6731.48484781,12.3636363624,7433.12121138,12.3636363624,6993.18181748,8.2424242416,42.0,42.0,?
2017-08-01 19:56:56.614485,7340.39393866,4.1212121208,6294.63636301,1026.18181808,6786.09090841,8.2424242416,6529.54545389,12.3636363624,7003.9999993,8.2424242416,7281.15151442,12.3636363624,6931.36363567,4.1212121208,7061.69696899,0.0,7442.39393865,0.0,6989.06060536,0.0,7225.51515079,8.2424242416,6964.84848415,12.3636363624,7461.96969622,12.3636363624,7274.45454473,8.2424242416,42.0,42.0,?
2017-08-01 19:56:56.623300,7685.03030226,4.1212121208,6592.90909025,1026.18181808,7092.09090838,8.2424242416,6951.45454476,12.3636363624,7424.36363562,8.2424242416,7649.99999924,12.3636363624,7312.06060533,4.1212121208,7522.75757501,0.0,7776.21212043,0.0,7414.57575683,0.0,7511.42424167,8.2424242416,7343.48484775,12.3636363624,7571.69696894,12.3636363624,7665.45454469,8.2424242416,42.0,42.0,?
2017-08-01 19:56:56.629410,7754.5757568,4.1212121208,6652.15151449,1026.18181808,7180.69696898,8.2424242416,7105.48484777,12.3636363624,7553.1515144,8.2424242416,7709.75757499,12.3636363624,7450.12121138,4.1212121208,7649.48484772,0.0,7761.78787801,0.0,7577.87878712,0.0,7621.6666659,8.2424242416,7543.36363561,12.3636363624,7730.36363559,12.3636363624,7743.24242347,8.2424242416,42.0,42.0,?
2017-08-01 19:56:56.643768,7634.03030227,4.1212121208,6499.1515145,1026.18181808,7052.93939323,8.2424242416,6954.03030233,12.3636363624,7404.27272653,8.2424242416,7578.90909015,12.3636363624,7323.90909018,4.1212121208,7500.60605986,0.0,7657.72727196,0.0,7458.87878713,0.0,7513.99999925,8.2424242416,7458.36363562,12.3636363624,7687.60605984,12.3636363624,7612.90909015,8.2424242416,42.0,42.0,?
2017-08-01 19:56:56.647825,7515.03030228,4.1212121208,6324.51515088,1026.18181808,6882.42424174,8.2424242416,6718.09090842,12.3636363624,7201.30302958,8.2424242416,7447.03030229,12.3636363624,7122.48484777,4.1212121208,7332.66666593,0.0,7638.15151439,0.0,7235.30302958,0.0,7344.51515078,8.2424242416,7225.51515079,12.3636363624,7564.48484773,12.3636363624,7491.33333258,8.2424242416,42.0,42.0,?
2017-08-01 19:56:56.653007,7512.96969622,4.1212121208,6313.69696907,1026.18181808,6861.30302962,8.2424242416,6674.81818115,12.3636363624,7165.75757504,8.2424242416,7429.51515077,12.3636363624,7082.81818111,4.1212121208,7300.727272,0.0,7638.15151439,0.0,7157.5151508,0.0,7325.45454472,8.2424242416,7133.30302959,12.3636363624,7598.48484772,12.3636363624,7479.48484774,8.2424242416,42.0,42.0,?
2017-08-01 19:56:56.660715,7537.18181743,4.1212121208,6357.48484785,1026.18181808,6900.45454476,8.2424242416,6731.48484781,12.3636363624,7206.45454473,8.2424242416,7457.33333259,12.3636363624,7132.27272656,4.1212121208,7335.75757502,0.0,7623.21212045,0.0,7205.93939322,0.0,7360.99999926,8.2424242416,7173.48484777,12.3636363624,7588.18181742,12.3636363624,7507.30302955,8.2424242416,42.0,42.0,?
2017-08-01 19:56:56.668751,7341.93939321,2757.09090882,6198.8181812,1026.18181808,6737.15151448,8.2424242416,6518.21212056,12.3636363624,6986.48484779,8.2424242416,7262.09090836,12.3636363624,6941.15151446,4.1212121208,7126.09090838,0.0,7457.33333259,0.0,7020.9999993,0.0,7191.5151508,8.2424242416,7009.66666597,12.3636363624,7423.33333259,12.3636363624,7303.30302957,8.2424242416,42.0,42.0,?
2017-08-01 19:56:56.676503,7254.36363564,2757.09090882,6144.72727211,1487.75757561,6665.03030236,8.2424242416,6397.66666603,12.3636363624,6869.54545386,8.2424242416,7161.12121141,12.3636363624,6826.27272659,4.1212121208,6978.24242354,0.0,7379.54545381,0.0,6901.48484779,0.0,7122.48484777,8.2424242416,6913.33333264,12.3636363624,7453.72727198,12.3636363624,7178.1212114,8.2424242416,42.0,42.0,?
2017-08-01 19:56:56.685938,7443.93939319,2757.09090882,6322.45454482,1487.75757561,6827.81818114,8.2424242416,6603.21212055,12.3636363624,7088.48484778,8.2424242416,7349.66666593,12.3636363624,7016.36363566,4.1212121208,7176.06060534,0.0,7537.18181743,0.0,7102.39393868,0.0,7287.84848412,8.2424242416,7089.51515081,12.3636363624,7591.27272651,12.3636363624,7367.18181745,3408.2424239,42.0,42.0,?
2017-08-01 19:56:56.693897,7370.78787805,2757.09090882,6261.15151453,1487.75757561,6766.51515084,4170.66666625,6535.72727207,12.3636363624,7025.63636293,8.2424242416,7278.06060533,12.3636363624,6966.3939387,4.1212121208,7148.24242353,0.0,7485.1515144,0.0,7034.39393869,0.0,7221.90909019,8.2424242416,6995.75757506,12.3636363624,7510.39393864,12.3636363624,7320.81818109,3408.2424239,42.0,42.0,?
2017-08-01 19:56:56.701474,7160.60605989,2757.09090882,6107.12121151,1487.75757561,6606.81818116,4170.66666625,6311.63636301,1467.151515,6783.51515084,8.2424242416,7065.81818111,12.3636363624,6757.24242357,4.1212121208,6908.18181749,0.0,7301.24242351,0.0,6790.21212053,0.0,7060.15151445,8.2424242416,6775.78787811,12.3636363624,7423.33333259,12.3636363624,7109.09090838,3408.2424239,42.0,42.0,?
2017-08-01 19:56:56.713201,7319.78787806,2757.09090882,6260.63636301,1487.75757561,6745.90909023,4170.66666625,6490.39393874,1467.151515,6951.45454476,618.18181812,7239.93939322,12.3636363624,6908.18181749,4.1212121208,7048.3030296,0.0,7447.03030229,0.0,6968.45454476,0.0,7206.96969625,8.2424242416,6966.3939387,12.3636363624,7518.63636288,12.3636363624,7266.21212049,3408.2424239,42.0,42.0,?
2017-08-01 19:56:56.719855,7444.96969623,2757.09090882,6341.51515088,1487.75757561,6828.33333265,4170.66666625,6632.57575691,1467.151515,7095.69696899,618.18181812,7366.15151441,28.8484848456,7037.48484778,4.1212121208,7214.69696898,0.0,7587.66666591,0.0,7131.24242353,0.0,7304.3333326,8.2424242416,7094.66666596,12.3636363624,7574.27272652,12.3636363624,7390.87878714,3408.2424239,42.0,42.0,?
2017-08-01 19:56:56.723303,7209.03030231,2757.09090882,6143.18181757,1487.75757561,6633.09090843,4170.66666625,6374.48484785,1467.151515,6836.57575689,618.18181812,7112.69696899,28.8484848456,6808.75757508,4150.06060565,6978.24242354,0.0,7372.84848411,0.0,6869.03030234,0.0,7100.84848414,8.2424242416,6832.45454477,12.3636363624,7452.18181744,12.3636363624,7145.66666595,3408.2424239,42.0,42.0,?
2017-08-01 19:56:56.731690,7060.15151445,2757.09090882,6065.39393879,1487.75757561,6538.30302965,4170.66666625,6219.93939332,1467.151515,6683.06060539,618.18181812,6971.03030233,28.8484848456,6669.15151448,4150.06060565,6786.60605993,3742.06060569,7203.87878716,0.0,6693.36363569,0.0,6988.03030233,8.2424242416,6695.42424175,12.3636363624,7375.9393932,12.3636363624,6994.21212051,3408.2424239,42.0,42.0,?
2017-08-01 19:56:56.739232,7200.27272655,2757.09090882,6205.51515089,1487.75757561,6660.39393873,4170.66666625,6375.51515088,1467.151515,6853.57575689,618.18181812,7131.24242353,28.8484848456,6808.75757508,4150.06060565,6918.99999931,3742.06060569,7331.6363629,2633.45454519,6858.21212053,0.0,7117.84848414,8.2424242416,6848.93939325,12.3636363624,7464.5454538,12.3636363624,7129.69696898,3408.2424239,42.0,42.0,?
2017-08-01 19:56:56.746868,7436.72727198,2757.09090882,6385.30302966,1487.75757561,6841.72727204,4170.66666625,6629.48484782,1467.151515,7111.66666596,618.18181812,7372.3333326,28.8484848456,7030.78787808,4150.06060565,7193.06060534,3742.06060569,7559.84848409,2633.45454519,7115.78787808,622.303030241,7315.15151442,8.2424242416,7070.96969626,12.3636363624,7607.757575,12.3636363624,7377.99999926,3408.2424239,42.0,42.0,?
2017-08-01 19:56:56.757532,7572.21212045,2757.09090882,6466.69696905,1487.75757561,6934.96969628,4170.66666625,6775.2727266,1467.151515,7251.27272655,618.18181812,7502.1515144,28.8484848456,7158.03030231,4150.06060565,7371.30302957,3742.06060569,7672.15151438,2633.45454519,7256.93939321,622.303030241,7409.42424168,3622.54545418,7213.66666595,12.3636363624,7645.87878711,12.3636363624,7544.39393864,3408.2424239,42.0,42.0,?
2017-08-01 19:56:56.769226,7467.12121137,2757.09090882,6355.42424179,1487.75757561,6831.42424174,4170.66666625,6652.15151449,1467.151515,7132.27272656,618.18181812,7386.2424235,28.8484848456,7051.39393869,4150.06060565,7253.84848412,3742.06060569,7568.09090833,2633.45454519,7161.12121141,622.303030241,7301.24242351,3622.54545418,7134.84848414,337.939393906,7553.66666591,12.3636363624,7434.66666592,3408.2424239,42.0,42.0,?
2017-08-01 19:56:56.773028,7371.30302957,2757.09090882,6281.24242361,1487.75757561,6756.72727205,4170.66666625,6531.09090844,1467.151515,7015.84848415,618.18181812,7283.21212048,28.8484848456,6946.81818112,4150.06060565,7113.72727202,3742.06060569,7487.72727198,2633.45454519,7053.96969626,622.303030241,7223.45454473,3622.54545418,7030.27272657,337.939393906,7501.63636289,1228.121212,7315.66666594,3408.2424239,42.0,42.0,?
2017-08-01 19:56:56.783653,7490.81818107,2757.09090882,6382.21212057,1487.75757561,6852.03030235,4170.66666625,6675.84848418,1467.151515,7162.15151444,618.18181812,7411.48484774,28.8484848456,7080.24242353,4150.06060565,7285.27272654,3742.06060569,7611.3636356,2633.45454519,7155.45454474,614.060605999,7320.30302957,3622.54545418,7131.24242353,337.939393906,7554.18181743,1228.121212,7464.03030228,3408.2424239,42.0,42.0,?
2017-08-01 19:56:56.796289,7490.81818107,2757.09090882,6382.21212057,1487.75757561,6852.03030235,4170.66666625,6675.84848418,1467.151515,7162.15151444,618.18181812,7411.48484774,28.8484848456,7080.24242353,4150.06060565,7285.27272654,3742.06060569,7611.3636356,2633.45454519,7155.45454474,614.060605999,7320.30302957,3622.54545418,7131.24242353,337.939393906,7554.18181743,1228.121212,7464.03030228,3408.2424239,42.0,42.0,?
2017-08-01 19:56:56.812650,7351.21212048,2757.09090882,6259.09090847,1487.75757561,6731.48484781,4170.66666625,6521.30302965,1467.151515,7001.42424172,618.18181812,7262.09090836,28.8484848456,6934.96969628,4150.06060565,7129.69696898,3742.06060569,7488.75757501,2633.45454519,7011.21212051,614.060605999,7209.03030231,3622.54545418,6993.18181748,333.818181785,7545.42424167,1228.121212,7311.54545381,3408.2424239,42.0,42.0,?
2017-08-01 19:56:56.813622,7209.03030231,2757.09090882,6203.45454483,1487.75757561,6669.666666,4170.66666625,6416.72727209,1467.151515,6830.39393871,618.18181812,7165.24242353,28.8484848456,6841.72727204,4150.06060565,7008.63636294,3742.06060569,7400.15151441,2633.45454519,6908.69696901,614.060605999,7140.5151508,3622.54545418,6891.18181749,333.818181785,7485.66666592,1228.121212,7213.15151443,3408.2424239,42.0,42.0,?
2017-08-01 19:56:56.819875,7117.33333262,2757.09090882,6121.54545393,1487.75757561,6566.63636298,4170.66666625,6280.7272721,1467.151515,6752.09090842,618.18181812,7027.18181748,28.8484848456,6717.06060539,4150.06060565,6854.60605992,3742.06060569,7274.45454473,2633.45454519,6765.48484781,614.060605999,7027.69696899,3622.54545418,6757.75757508,333.818181785,7387.27272653,1228.121212,7049.33333263,3408.2424239,42.0,42.0,?
2017-08-01 19:56:56.820064,7117.33333262,2757.09090882,6121.54545393,1487.75757561,6566.63636298,4170.66666625,6280.7272721,1467.151515,6752.09090842,618.18181812,7027.18181748,28.8484848456,6717.06060539,4150.06060565,6854.60605992,3742.06060569,7274.45454473,2633.45454519,6765.48484781,614.060605999,7027.69696899,3622.54545418,6757.75757508,333.818181785,7387.27272653,1228.121212,7049.33333263,3408.2424239,42.0,42.0,?
2017-08-01 19:56:56.828819,7128.66666595,2757.09090882,6158.12121151,1487.75757561,6589.81818116,4170.66666625,6290.51515089,1467.151515,6760.33333266,618.18181812,7044.18181748,28.8484848456,6731.99999933,4150.06060565,6864.90909022,3742.06060569,7292.99999927,2633.45454519,6780.93939326,614.060605999,7051.9090902,3622.54545418,6758.2727266,333.818181785,7426.42424168,1228.121212,7057.06060535,3408.2424239,42.0,42.0,?
2017-08-01 19:56:56.834263,7153.39393868,2757.09090882,6196.75757514,1487.75757561,6609.90909025,4170.66666625,6330.18181755,1467.151515,6805.66666599,618.18181812,7076.63636293,28.8484848456,6757.75757508,4150.06060565,6898.90909022,3742.06060569,7324.93939321,2633.45454519,6797.42424174,614.060605999,7071.99999929,3622.54545418,6776.30302963,333.818181785,7418.18181744,1228.121212,7087.96969626,3408.2424239,42.0,42.0,?
2017-08-01 19:56:56.841889,7153.39393868,2757.09090882,6196.75757514,1487.75757561,6609.90909025,4170.66666625,6330.18181755,1467.151515,6805.66666599,618.18181812,7076.63636293,28.8484848456,6757.75757508,4150.06060565,6898.90909022,3742.06060569,7324.93939321,2633.45454519,6797.42424174,614.060605999,7071.99999929,3622.54545418,6776.30302963,333.818181785,7418.18181744,1228.121212,7087.96969626,3408.2424239,42.0,42.0,?
2017-08-01 19:56:56.848613,7153.39393868,2757.09090882,6196.75757514,1487.75757561,6609.90909025,4170.66666625,6330.18181755,1467.151515,6805.66666599,618.18181812,7076.63636293,28.8484848456,6757.75757508,4150.06060565,6898.90909022,3742.06060569,7324.93939321,2633.45454519,6797.42424174,614.060605999,7071.99999929,3622.54545418,6776.30302963,333.818181785,7418.18181744,1228.121212,7087.96969626,3408.2424239,42.0,42.0,?
2017-08-01 19:56:56.857685,7158.03030231,2757.09090882,6208.09090847,1487.75757561,6615.57575691,4170.66666625,6327.60605997,1467.151515,6804.12121144,618.18181812,7073.54545384,28.8484848456,6757.24242357,4150.06060565,6894.7878781,3742.06060569,7321.84848412,2633.45454519,6830.39393871,614.060605999,7073.54545384,3622.54545418,6781.96969629,333.818181785,7420.2424235,1228.121212,7095.18181747,3408.2424239,42.0,42.0,?
2017-08-01 19:56:56.870298,7156.48484777,2757.09090882,6210.66666605,1487.75757561,6602.69696904,4170.66666625,6345.12121149,1467.151515,6801.03030235,618.18181812,7086.93939323,28.8484848456,6763.93939326,4150.06060565,6906.12121143,3742.06060569,7324.93939321,2633.45454519,6818.54545386,614.060605999,7091.57575687,3622.54545418,6785.06060538,333.818181785,7443.93939319,1228.121212,7121.96969626,3408.2424239,42.0,42.0,?
2017-08-01 19:56:56.877879,6997.81818112,2757.09090882,6093.2121206,1487.75757561,6602.69696904,4170.66666625,6325.54545391,1467.151515,6640.30302964,618.18181812,7069.42424172,28.8484848456,6751.5757569,4150.06060565,6898.90909022,3742.06060569,7324.93939321,2633.45454519,6781.96969629,614.060605999,7081.78787808,3622.54545418,6638.75757509,333.818181785,7455.78787804,1228.121212,7099.30302959,3408.2424239,42.0,42.0,?
2017-08-01 19:56:56.885241,6925.18181749,2757.09090882,6071.57575697,1487.75757561,6482.66666602,4170.66666625,6162.75757514,1467.151515,6583.63636298,618.18181812,6912.30302961,28.8484848456,6618.15151449,4150.06060565,6746.42424175,3742.06060569,7104.96969626,2633.45454519,6638.24242358,614.060605999,6946.30302961,3622.54545418,6562.51515086,333.818181785,7360.99999926,1228.121212,6927.75757506,3408.2424239,42.0,42.0,?
2017-08-01 19:56:56.887803,6925.18181749,2757.09090882,6071.57575697,1487.75757561,6449.18181754,4170.66666625,6111.24242363,1467.151515,6583.63636298,618.18181812,6863.87878719,28.8484848456,6567.66666601,4150.06060565,6667.60605994,3742.06060569,7104.96969626,2633.45454519,6572.30302965,614.060605999,6899.93939325,3622.54545418,6562.51515086,333.818181785,7297.12121139,1228.121212,6857.69696901,3408.2424239,42.0,42.0,?
2017-08-01 19:56:56.894956,7159.57575686,2757.09090882,6267.84848422,1487.75757561,6635.15151449,4170.66666625,6367.78787815,1467.151515,6828.84848417,618.18181812,7115.27272656,28.8484848456,6793.30302962,4150.06060565,6909.72727204,3742.06060569,7340.39393866,2633.45454519,6807.21212053,614.060605999,7099.30302959,3622.54545418,6784.03030235,333.818181785,7436.21212047,1228.121212,7101.87878717,3408.2424239,42.0,42.0,?
2017-08-01 19:56:56.902688,7260.0303023,2757.09090882,6311.63636301,1487.75757561,6677.90909024,4170.66666625,6446.09090845,1467.151515,6905.0909084,618.18181812,7190.48484777,28.8484848456,6879.33333265,4150.06060565,7033.36363566,3742.06060569,7449.09090835,2633.45454519,6910.75757507,614.060605999,7146.18181747,3622.54545418,6887.06060537,333.818181785,7483.09090834,1228.121212,7205.93939322,3408.2424239,42.0,42.0,?
2017-08-01 19:56:56.913411,6946.81818112,2757.09090882,6065.39393879,1487.75757561,6433.72727208,4170.66666625,6120.5151509,1467.151515,6586.72727207,618.18181812,6865.42424174,28.8484848456,6585.18181752,4150.06060565,6722.72727205,3742.06060569,7153.39393868,2633.45454519,6590.33333267,614.060605999,6884.99999931,3622.54545418,6574.36363571,333.818181785,7299.18181745,1228.121212,6891.18181749,3408.2424239,42.0,42.0,?
2017-08-01 19:56:56.921866,6773.21212053,2757.09090882,5978.84848425,1487.75757561,6338.42424179,4170.66666625,5976.78787819,1467.151515,6444.5454539,618.18181812,6717.06060539,28.8484848456,6431.15151451,4150.06060565,6526.4545448,3742.06060569,6975.66666597,2633.45454519,6408.48484784,614.060605999,6785.06060538,3622.54545418,6394.06060542,333.818181785,7231.69696897,1228.121212,6710.87878721,3408.2424239,42.0,42.0,?
2017-08-01 19:56:56.926684,6858.72727204,2757.09090882,6067.45454485,1487.75757561,6409.51515087,4170.66666625,6066.42424182,1467.151515,6527.99999935,618.18181812,6803.09090841,28.8484848456,6508.93939329,4150.06060565,6597.03030237,3742.06060569,7048.81818111,2633.45454519,6492.45454481,614.060605999,6865.93939325,3622.54545418,6479.57575693,333.818181785,7282.69696897,1228.121212,6779.39393872,3408.2424239,42.0,42.0,?
2017-08-01 19:56:56.935301,6767.03030235,2757.09090882,6005.63636304,1487.75757561,6330.18181755,4170.66666625,5952.06060547,1467.151515,6413.636363,618.18181812,6692.84848418,28.8484848456,6419.81818118,4150.06060565,6502.24242359,3742.06060569,6951.45454476,2633.45454519,6404.87878724,614.060605999,6789.69696902,3622.54545418,6400.2424236,333.818181785,7220.36363564,1228.121212,6679.9696963,3408.2424239,42.0,42.0,?
2017-08-01 19:56:56.942205,6580.03030237,2757.09090882,5897.96969638,1487.75757561,6205.51515089,4170.66666625,5770.72727215,1467.151515,6233.33333271,618.18181812,6514.09090844,28.8484848456,6250.84848422,4150.06060565,6305.45454482,3742.06060569,6744.8787872,2633.45454519,6224.06060544,614.060605999,6653.69696903,3622.54545418,6237.45454483,333.818181785,7109.6060599,1228.121212,6499.66666602,3408.2424239,42.0,42.0,?
2017-08-01 19:56:56.949664,6587.24242358,2757.09090882,5929.90909032,1487.75757561,6224.06060544,4170.66666625,5803.69696912,1467.151515,6252.90909028,618.18181812,6539.33333268,28.8484848456,6259.60605998,4150.06060565,6303.90909028,3742.06060569,6751.5757569,2633.45454519,6220.45454483,614.060605999,6651.12121146,3622.54545418,6221.48484786,333.818181785,7100.84848414,1228.121212,6497.09090844,3408.2424239,42.0,42.0,?
2017-08-01 19:56:56.959377,6680.48484782,2757.09090882,6006.66666607,1487.75757561,6291.0303024,4170.66666625,5907.75757517,1467.151515,6349.75757512,618.18181812,6637.21212055,28.8484848456,6350.78787815,4150.06060565,6408.48484784,3742.06060569,6877.27272658,2633.45454519,6295.66666604,614.060605999,6713.45454478,3622.54545418,6266.30302968,333.818181785,7154.42424171,1228.121212,6580.03030237,3408.2424239,42.0,42.0,?
2017-08-01 19:56:56.966148,6668.63636297,2757.09090882,6006.15151455,1487.75757561,6281.24242361,4170.66666625,5885.60606002,1467.151515,6337.90909028,618.18181812,6619.18181752,28.8484848456,6344.09090846,4150.06060565,6405.39393875,3742.06060569,6870.57575689,2633.45454519,6294.12121149,614.060605999,6720.66666599,3622.54545418,6272.48484786,333.818181785,7158.03030231,1228.121212,6582.09090843,3408.2424239,42.0,42.0,?
2017-08-01 19:56:56.974987,6608.87878722,2757.09090882,5973.6969691,1487.75757561,6238.48484786,4170.66666625,5819.15151457,1467.151515,6274.54545392,618.18181812,6555.81818116,28.8484848456,6283.30302967,4150.06060565,6334.30302967,3742.06060569,6784.03030235,2633.45454519,6251.36363574,614.060605999,6685.63636297,3622.54545418,6260.63636301,333.818181785,7129.18181747,1228.121212,6538.81818116,3408.2424239,42.0,42.0,?
2017-08-01 19:56:56.981454,6577.96969631,2757.09090882,5960.30302971,1487.75757561,6215.8181812,4170.66666625,5798.03030245,1467.151515,6246.21212059,618.18181812,6526.4545448,28.8484848456,6249.30302968,4150.06060565,6299.27272664,3742.06060569,6763.93939326,2633.45454519,6206.03030241,614.060605999,6654.21212055,3622.54545418,6215.30302968,333.818181785,7100.33333262,1228.121212,6510.99999935,3408.2424239,42.0,42.0,?
2017-08-01 19:56:56.990335,6476.99999935,2757.09090882,5908.27272668,1487.75757561,6149.87878726,4170.66666625,5712.51515094,1467.151515,6153.99999938,618.18181812,6494.51515087,28.8484848456,6222.51515089,4150.06060565,6272.99999937,3742.06060569,6648.03030237,2633.45454519,6109.69696909,614.060605999,6630.51515085,3622.54545418,6118.45454484,333.818181785,7069.42424172,1228.121212,6467.21212057,3408.2424239,42.0,42.0,?
2017-08-01 19:56:56.997640,6476.99999935,2757.09090882,5908.27272668,1487.75757561,6149.87878726,4170.66666625,5712.51515094,1467.151515,6153.99999938,618.18181812,6434.75757511,28.8484848456,6166.87878726,4150.06060565,6198.8181812,3742.06060569,6648.03030237,2633.45454519,6109.69696909,614.060605999,6579.51515086,3622.54545418,6118.45454484,333.818181785,7023.06060536,1228.121212,6386.33333269,3408.2424239,42.0,42.0,?
2017-08-01 19:56:57.005647,6446.60605996,2757.09090882,5902.0909085,1487.75757561,6130.30302969,4170.66666625,5690.36363579,1467.151515,6122.57575696,618.18181812,6414.66666603,28.8484848456,6140.09090848,4150.06060565,6159.66666605,3742.06060569,6627.42424176,2633.45454519,6046.84848424,614.060605999,6549.63636298,3622.54545418,6082.9090903,333.818181785,7002.96969627,1228.121212,6353.36363573,3408.2424239,42.0,42.0,?
2017-08-01 19:56:57.013813,6560.96969631,2757.09090882,6002.54545395,1487.75757561,6217.87878726,4170.66666625,5799.06060548,1467.151515,6230.75757513,618.18181812,6522.33333268,28.8484848456,6242.09090847,4150.06060565,6282.27272664,3742.06060569,6781.96969629,2633.45454519,6156.57575696,614.060605999,6642.87878721,3622.54545418,6152.96969635,333.818181785,7081.27272656,1228.121212,6469.27272663,3408.2424239,42.0,42.0,?
2017-08-01 19:56:57.020118,6742.81818114,2757.09090882,6126.18181757,1487.75757561,6346.66666603,4170.66666625,5963.3939388,1467.151515,6406.42424178,618.18181812,6689.24242357,28.8484848456,6402.81818118,4150.06060565,6478.5454539,3742.06060569,6968.96969627,2633.45454519,6384.78787815,614.060605999,6788.15151447,3622.54545418,6322.45454482,333.818181785,7197.18181746,1228.121212,6652.15151449,3408.2424239,42.0,42.0,?
2017-08-01 19:56:57.031532,6811.33333265,2757.09090882,6147.30302969,1487.75757561,6383.75757512,4170.66666625,6022.12121152,1467.151515,6474.93939329,618.18181812,6752.60605993,28.8484848456,6457.42424178,4150.06060565,6547.06060541,3742.06060569,7007.09090839,2633.45454519,6455.36363572,614.060605999,6833.4848478,3622.54545418,6427.03030239,333.818181785,7237.36363564,1228.121212,6740.75757508,3408.2424239,42.0,42.0,?
2017-08-01 19:56:57.036347,6787.12121144,2757.09090882,6117.42424181,1487.75757561,6357.99999936,4170.66666625,5994.81818122,1467.151515,6452.27272663,618.18181812,6724.78787812,28.8484848456,6427.03030239,4150.06060565,6504.81818117,3742.06060569,6954.03030233,2633.45454519,6409.51515087,614.060605999,6803.09090841,3622.54545418,6438.87878723,333.818181785,7211.60605988,1228.121212,6741.78787811,3408.2424239,42.0,42.0,?
2017-08-01 19:56:57.045632,6836.57575689,2757.09090882,6155.54545393,1487.75757561,6396.636363,4170.66666625,6042.72727212,1467.151515,6502.24242359,618.18181812,6769.60605993,28.8484848456,6469.27272663,4150.06060565,6549.63636298,3742.06060569,7009.15151445,2633.45454519,6473.90909026,614.060605999,6833.99999932,3622.54545418,6476.99999935,333.818181785,7239.93939322,1228.121212,6785.5757569,3408.2424239,42.0,42.0,?
2017-08-01 19:56:57.052435,6900.96969628,2757.09090882,6191.60605999,1487.75757561,6437.8484842,4170.66666625,6108.66666606,1467.151515,6563.54545389,618.18181812,6830.90909023,28.8484848456,6529.03030238,4150.06060565,6635.15151449,3742.06060569,7097.75757505,2633.45454519,6537.27272662,614.060605999,6878.30302962,3622.54545418,6526.4545448,333.818181785,7288.36363563,1228.121212,6832.96969629,3408.2424239,42.0,42.0,?
2017-08-01 19:56:57.058810,6824.72727204,2757.09090882,6123.60605999,1487.75757561,6376.03030239,4170.66666625,6034.48484788,1467.151515,6487.81818117,618.18181812,6754.66666599,28.8484848456,6456.39393875,4150.06060565,6566.63636298,3742.06060569,7027.18181748,2633.45454519,6440.9393933,614.060605999,6814.42424174,3622.54545418,6464.63636299,333.818181785,7232.727272,1228.121212,6763.93939326,3408.2424239,42.0,42.0,?
2017-08-01 19:56:57.068580,6740.75757508,2757.09090882,6070.03030242,1487.75757561,6320.90909028,4170.66666625,5943.30302971,1467.151515,6408.48484784,618.18181812,6673.78787812,28.8484848456,6380.66666603,4150.06060565,6475.96969632,3742.06060569,6949.90909021,2633.45454519,6356.45454482,614.060605999,6751.5757569,3622.54545418,6357.99999936,333.818181785,7169.36363565,1228.121212,6686.666666,3408.2424239,42.0,42.0,?
2017-08-01 19:56:57.075025,6757.75757508,2757.09090882,6088.57575697,1487.75757561,6333.27272664,4170.66666625,5951.03030244,1467.151515,6408.99999936,618.18181812,6683.06060539,28.8484848456,6400.2424236,4150.06060565,6493.48484784,3742.06060569,6973.09090839,2633.45454519,6365.21212058,614.060605999,6763.93939326,3622.54545418,6330.69696906,333.818181785,7180.69696898,1228.121212,6685.63636297,3408.2424239,42.0,42.0,?
2017-08-01 19:56:57.083091,6775.78787811,2757.09090882,6095.27272666,1487.75757561,6338.42424179,4170.66666625,5969.06060546,1467.151515,6407.96969633,618.18181812,6689.75757509,28.8484848456,6412.09090845,4150.06060565,6498.12121147,3742.06060569,6958.66666597,2633.45454519,6385.30302966,614.060605999,6775.2727266,3622.54545418,6381.69696906,333.818181785,7195.1212114,1228.121212,6686.15151448,3408.2424239,42.0,42.0,?
2017-08-01 19:56:57.092574,6730.9696963,2757.09090882,6066.42424182,1487.75757561,6305.96969634,4170.66666625,5927.84848426,1467.151515,6369.3333327,618.18181812,6646.99999934,28.8484848456,6369.3333327,4150.06060565,6441.45454481,3742.06060569,6906.63636295,2633.45454519,6354.90909027,614.060605999,6743.84848417,3622.54545418,6380.15151451,333.818181785,7168.33333262,1228.121212,6642.87878721,3408.2424239,42.0,42.0,?
2017-08-01 19:56:57.099159,6675.33333267,2757.09090882,6041.18181758,1487.75757561,6277.12121149,4170.66666625,5884.06060547,1467.151515,6333.27272664,618.18181812,6609.90909025,28.8484848456,6331.72727209,4150.06060565,6410.5454539,3742.06060569,6916.93939325,2633.45454519,6282.78787816,614.060605999,6701.09090842,3622.54545418,6282.78787816,333.818181785,7132.78787807,1228.121212,6592.90909025,3408.2424239,42.0,42.0,?
2017-08-01 19:56:57.107744,6730.9696963,2757.09090882,6092.69696909,1487.75757561,6331.72727209,4170.66666625,5967.51515092,1467.151515,6410.5454539,618.18181812,6686.666666,28.8484848456,6393.54545391,4150.06060565,6485.24242359,3742.06060569,6985.96969627,2633.45454519,6342.54545391,614.060605999,6750.03030236,3622.54545418,6312.15151452,333.818181785,7172.45454474,1228.121212,6660.39393873,3408.2424239,42.0,42.0,?
2017-08-01 19:56:57.114494,6873.66666598,2757.09090882,6191.09090847,1487.75757561,6430.63636299,4170.66666625,6107.12121151,1467.151515,6559.93939328,618.18181812,6826.78787811,28.8484848456,6513.57575692,4150.06060565,6608.87878722,3742.06060569,7052.93939323,2633.45454519,6531.09090844,614.060605999,6870.57575689,3622.54545418,6517.18181753,333.818181785,7266.727272,1228.121212,6822.15151447,3408.2424239,42.0,42.0,?
2017-08-01 19:56:57.123255,6881.39393871,2757.09090882,6180.27272665,1487.75757561,6411.06060542,4170.66666625,6065.39393879,1467.151515,6539.84848419,618.18181812,6804.63636296,28.8484848456,6505.33333268,4150.06060565,6604.24242358,3742.06060569,7032.84848415,2633.45454519,6533.66666601,614.060605999,6856.66666598,3622.54545418,6551.69696904,333.818181785,7251.27272655,1228.121212,6810.81818114,3408.2424239,42.0,42.0,?
2017-08-01 19:56:57.131431,6743.84848417,2757.09090882,6075.69696909,1487.75757561,6300.81818119,4170.66666625,5912.3939388,1467.151515,6373.96969633,618.18181812,6647.51515085,28.8484848456,6370.36363573,4150.06060565,6480.60605996,3742.06060569,6956.60605991,2633.45454519,6339.45454482,614.060605999,6724.78787812,3622.54545418,6344.60605997,333.818181785,7148.24242353,1228.121212,6633.60605994,3408.2424239,42.0,42.0,?
2017-08-01 19:56:57.137810,6647.51515085,2757.09090882,6017.48484788,1487.75757561,6240.54545392,4170.66666625,5849.54545396,1467.151515,6285.36363574,618.18181812,6564.0606054,28.8484848456,6282.78787816,4150.06060565,6396.636363,3742.06060569,6898.90909022,2633.45454519,6233.33333271,614.060605999,6659.3636357,3622.54545418,6217.36363574,333.818181785,7096.72727202,1228.121212,6547.06060541,3408.2424239,42.0,42.0,?
2017-08-01 19:56:57.146695,6524.90909026,2757.09090882,5944.33333274,1487.75757561,6155.03030241,4170.66666625,5743.93939336,1467.151515,6179.75757514,618.18181812,6455.87878723,28.8484848456,6180.27272665,4150.06060565,6264.75757513,3742.06060569,6740.75757508,2633.45454519,6141.12121151,614.060605999,6581.0606054,3622.54545418,6150.90909029,333.818181785,7023.06060536,1228.121212,6452.78787814,3408.2424239,42.0,42.0,?
2017-08-01 19:56:57.152990,6338.42424179,2757.09090882,5829.45454487,1487.75757561,6025.21212061,4170.66666625,5562.60606005,1467.151515,6005.12121152,618.18181812,6277.63636301,28.8484848456,6015.42424182,4150.06060565,6057.66666606,3742.06060569,6518.72727208,2633.45454519,5964.93939334,614.060605999,6438.36363572,3622.54545418,5987.60606001,333.818181785,6897.36363567,1228.121212,6248.78787816,3408.2424239,42.0,42.0,?
2017-08-01 19:56:57.160625,6344.60605997,2757.09090882,5869.63636305,1487.75757561,6047.36363576,4170.66666625,5584.7575752,1467.151515,6020.06060546,618.18181812,6296.69696907,28.8484848456,6027.27272667,4150.06060565,6062.81818121,3742.06060569,6540.87878722,2633.45454519,5964.93939334,614.060605999,6453.30302966,3622.54545418,5957.21212062,333.818181785,6904.06060537,1228.121212,6244.66666604,3408.2424239,42.0,42.0,?
2017-08-01 19:56:57.169600,6595.99999934,2757.09090882,6075.69696909,1487.75757561,6236.93939332,4170.66666625,5822.24242366,1467.151515,6261.15151453,618.18181812,6540.36363571,28.8484848456,6258.57575695,4150.06060565,6319.87878725,3742.06060569,6807.21212053,2633.45454519,6203.45454483,614.060605999,6654.21212055,3622.54545418,6181.30302968,333.818181785,7072.51515081,1228.121212,6515.12121147,3408.2424239,42.0,42.0,?
2017-08-01 19:56:57.176576,6778.36363569,2023.51515131,6178.72727211,1487.75757561,6348.21212058,4170.66666625,5976.78787819,1467.151515,6426.51515087,618.18181812,6698.51515085,28.8484848456,6411.06060542,4150.06060565,6503.27272662,3742.06060569,6989.57575688,2633.45454519,6381.18181754,614.060605999,6770.63636296,3622.54545418,6354.39393876,333.818181785,7178.63636292,1228.121212,6679.9696963,3408.2424239,42.0,42.0,?
2017-08-01 19:56:57.186169,6684.60605994,2023.51515131,6068.99999939,1574.30303015,6258.57575695,4170.66666625,5896.42424183,1467.151515,6339.45454482,618.18181812,6605.27272661,28.8484848456,6317.30302967,4150.06060565,6423.42424178,3742.06060569,6905.0909084,2633.45454519,6298.24242361,614.060605999,6682.03030236,3622.54545418,6280.21212058,333.818181785,7107.03030232,1228.121212,6560.4545448,3408.2424239,42.0,42.0,?
2017-08-01 19:56:57.192580,6564.0606054,2023.51515131,5999.45454485,1574.30303015,6181.30302968,4170.66666625,5799.06060548,1467.151515,6241.57575695,618.18181812,6506.87878723,28.8484848456,6219.93939332,4150.06060565,6305.96969634,3742.06060569,6775.2727266,2633.45454519,6187.99999938,614.060605999,6606.81818116,3622.54545418,6205.51515089,333.818181785,7036.96969627,1228.121212,6473.90909026,2369.69696946,42.0,42.0,?
2017-08-01 19:56:57.201260,6691.30302963,2023.51515131,6126.18181757,1574.30303015,6291.0303024,1397.09090895,5908.27272668,1467.151515,6364.18181755,618.18181812,6632.57575691,28.8484848456,6338.93939331,4150.06060565,6418.78787815,3742.06060569,6882.42424174,2633.45454519,6315.75757513,614.060605999,6711.39393872,3622.54545418,6331.21212058,333.818181785,7119.9090902,1228.121212,6640.30302964,2369.69696946,42.0,42.0,?
2017-08-01 19:56:57.208640,6842.24242356,2023.51515131,6219.93939332,1574.30303015,6388.90909027,1397.09090895,6036.03030243,3437.09090875,6490.39393874,618.18181812,6763.93939326,28.8484848456,6462.57575693,4150.06060565,6572.81818116,3742.06060569,7041.09090839,2633.45454519,6471.33333269,614.060605999,6814.42424174,3622.54545418,6449.18181754,333.818181785,7213.66666595,1228.121212,6781.45454478,2369.69696946,42.0,42.0,?
2017-08-01 19:56:57.216439,6828.33333265,2023.51515131,6181.30302968,1574.30303015,6363.66666603,1397.09090895,6034.48484788,3437.09090875,6478.5454539,3160.96969665,6747.96969629,28.8484848456,6445.57575693,4150.06060565,6569.72727207,3742.06060569,7030.78787808,2633.45454519,6463.09090844,614.060605999,6802.5757569,3622.54545418,6452.27272663,333.818181785,7205.93939322,1228.121212,6760.33333266,2369.69696946,42.0,42.0,?
