Timestamp,F3 Value,F3 Quality,FC5 Value,FC5 Quality,F7 Value,F7 Quality,T7 Value,T7 Quality,P7 Value,P7 Quality,O1 Value,O1 Quality,O2 Value,O2 Quality,P8 Value,P8 Quality,T8 Value,T8 Quality,F8 Value,F8 Quality,AF4 Value,AF4 Quality,FC6 Value,FC6 Quality,F4 Value,F4 Quality,AF3 Value,AF3 Quality,X Value,Y Value,Z Value
2017-08-01 19:57:30.045518,4388.57575714,0,4131.5151511,0,3800.78787841,0,3767.81818144,0,4150.57575716,0,4320.57575714,0,4068.66666626,0,4022.81818142,0,4876.93939345,0,4062.99999959,0,4310.27272684,0,4063.51515111,0,4747.12121165,0,4293.27272684,0,42.0,42.0,?
2017-08-01 19:57:30.048263,5098.96969646,0,4271.63636321,0,4477.69696925,0,4380.3333329,3647.27272691,4785.75757528,0,4945.96969648,0,4751.24242377,0,4803.27272679,0,5431.75757521,0,4731.66666619,0,4916.0909086,0,4711.06060559,0,5295.24242371,0,4911.96969648,0,42.0,42.0,?
2017-08-01 19:57:30.051407,4725.99999953,0,3855.39393901,0,4061.96969656,0,3917.21212082,3647.27272691,4360.75757532,3276.36363604,4541.06060561,0,4325.72727229,0,4405.06060562,0,5091.24242373,0,4305.63636321,0,4529.21212076,0,4306.66666624,0,4989.24242374,0,4530.7575753,0,42.0,42.0,?
2017-08-01 19:57:30.054739,5167.48484797,0,4310.78787836,0,4503.454545,0,4483.87878743,3647.27272691,4897.03030254,3276.36363604,5071.66666616,3169.2121209,4774.93939346,0,4844.484848,0,5499.75757521,0,4833.15151467,0,4956.78787829,0,4785.75757528,0,5311.7272722,0,5038.18181768,0,42.0,42.0,?
2017-08-01 19:57:30.064510,6827.30302962,0,6033.45454485,0,6283.81818119,0,6590.84848419,3647.27272691,6790.72727205,3276.36363604,6854.09090841,3169.2121209,6667.60605994,2344.96969674,6687.69696903,0,6959.18181749,0,6748.48484781,0,6677.39393873,0,6693.87878721,0,6716.54545387,0,6815.96969629,0,42.0,42.0,?
2017-08-01 19:57:30.064681,7746.84848407,0,6573.84848419,0,6988.03030233,0,7539.757575,3647.27272691,7695.33333256,3276.36363604,7708.72727196,3169.2121209,7625.27272651,2344.96969674,7740.66666589,2110.06060585,7768.99999922,0,7730.87878711,0,7470.72727198,0,7729.33333256,0,7483.60605986,0,7776.72727195,0,42.0,42.0,?
2017-08-01 19:57:30.068098,7486.18181743,0,5803.69696912,0,6365.72727209,0,6962.27272658,3647.27272691,7283.21212048,3276.36363604,7346.06060533,3169.2121209,7175.03030231,2344.96969674,7443.42424168,2110.06060585,7625.78787803,1747.39393922,7369.75757502,0,6981.84848415,0,7381.60605987,0,7181.72727201,0,7507.30302955,0,42.0,42.0,?
2017-08-01 19:57:30.071355,7592.30302954,0,5923.72727213,0,6561.48484783,0,7182.75757504,3647.27272691,7491.8484841,3276.36363604,7532.03030228,3169.2121209,7332.66666593,2344.96969674,7540.27272652,2110.06060585,7696.36363559,1747.39393922,7525.8484841,2987.87878758,7156.48484777,0,7512.4545447,0,7317.727272,0,7609.81818106,0,42.0,42.0,?
2017-08-01 19:57:30.081009,7968.36363557,0,6286.90909028,0,7002.96969627,0,7686.57575681,3647.27272691,7946.72727193,3276.36363604,7947.24242345,3169.2121209,7800.42424164,2344.96969674,7966.30302951,2110.06060585,7922.51515072,1747.39393922,7963.72727193,2987.87878758,7583.54545379,1693.81818165,7958.06060526,0,7676.78787802,0,7965.27272648,0,42.0,42.0,?
2017-08-01 19:57:30.082423,7583.54545379,0,5478.63636309,0,6267.84848422,0,6873.15151446,3647.27272691,7315.15151442,3276.36363604,7392.9393932,3169.2121209,7155.45454474,2344.96969674,7526.87878713,2110.06060585,7704.09090832,1747.39393922,7435.18181744,2987.87878758,6907.15151446,1693.81818165,7429.51515077,2336.72727249,7147.2121205,0,7560.36363561,0,42.0,42.0,?
2017-08-01 19:57:30.086552,7006.57575688,0,4793.48484801,0,5579.60606005,0,6001.51515092,3647.27272691,6551.69696904,3276.36363604,6691.30302963,3169.2121209,6388.90909027,2344.96969674,6876.24242355,2110.06060585,7428.48484774,1747.39393922,6726.33333266,2987.87878758,6187.99999938,1693.81818165,6697.48484782,2336.72727249,6527.99999935,366.787878751,6972.57575688,0,42.0,42.0,?
2017-08-01 19:57:30.089576,6449.18181754,0,4542.09090864,0,5273.60606008,0,5498.72727218,3647.27272691,5987.09090849,3276.36363604,6123.09090848,3169.2121209,5901.57575699,2344.96969674,6284.84848422,2110.06060585,6981.84848415,1747.39393922,6131.33333272,2991.9999997,5801.63636306,1693.81818165,6090.12121151,2336.72727249,6170.48484787,366.787878751,6383.75757512,0,42.0,42.0,?
2017-08-01 19:57:30.092639,6221.99999938,0,4449.36363592,0,5123.18181767,0,5289.06060553,3647.27272691,5773.30302973,3276.36363604,5930.93939335,3169.2121209,5685.21212064,2344.96969674,5971.12121152,2110.06060585,6616.09090843,1747.39393922,5896.93939335,2991.9999997,5648.63636307,1685.57575741,5844.90909032,2336.72727249,6037.57575697,366.787878751,6131.33333272,0,42.0,42.0,?
2017-08-01 19:57:30.096072,6929.81818113,0,5182.42424191,0,5812.45454487,0,6142.66666605,3647.27272691,6634.63636297,3276.36363604,6764.96969629,3169.2121209,6454.33333269,2344.96969674,6700.06060539,2110.06060585,7105.48484777,1747.39393922,6716.54545387,2991.9999997,6365.21212058,1685.57575741,6682.54545388,2324.36363613,6621.24242358,366.787878751,6877.7878781,0,42.0,42.0,?
2017-08-01 19:57:30.099227,7698.42424165,0,5819.66666608,0,6459.48484784,0,7020.48484778,3647.27272691,7560.87878712,3276.36363604,7629.90909015,3169.2121209,7282.18181745,2344.96969674,7619.60605984,2110.06060585,7778.78787801,1747.39393922,7614.96969621,2991.9999997,7072.51515081,1685.57575741,7602.09090833,2324.36363613,7259.51515079,366.787878751,7698.42424165,0,42.0,42.0,?
2017-08-01 19:57:30.102310,7751.48484771,0,5740.33333276,0,6451.2424236,0,7099.81818111,3647.27272691,7589.72727197,3276.36363604,7660.30302954,3169.2121209,7355.84848411,2344.96969674,7726.24242347,2110.06060585,7818.45454467,1747.39393922,7664.93939317,2991.9999997,7093.63636293,1685.57575741,7626.30302954,2324.36363613,7330.09090836,366.787878751,7750.96969619,0,42.0,42.0,?
2017-08-01 19:57:30.106559,7714.90909014,0,5885.60606002,0,6667.09090842,0,7328.0303023,3647.27272691,7583.03030227,3276.36363604,7645.87878711,3169.2121209,7496.48484774,2344.96969674,7675.24242347,2110.06060585,7733.9696962,1747.39393922,7653.09090833,2991.9999997,7248.69696897,1685.57575741,7605.69696894,2324.36363613,7346.06060533,366.787878751,7709.24242347,0,42.0,42.0,?
2017-08-01 19:57:30.113729,7881.81818103,0,6149.36363575,0,6982.87878718,0,7703.57575681,3647.27272691,7862.75757497,3276.36363604,7877.69696891,3169.2121209,7807.12121134,2344.96969674,7879.24242345,2110.06060585,7852.45454467,1747.39393922,7895.21212042,2991.9999997,7589.72727197,1685.57575741,7891.60605982,2324.36363613,7576.84848409,366.787878751,7885.42424164,0,42.0,42.0,?
2017-08-01 19:57:30.123541,7855.03030224,0,6004.60606001,0,6893.75757507,0,7620.63636287,3647.27272691,7850.39393861,3276.36363604,7853.4848477,3169.2121209,7745.30302953,2344.96969674,7870.99999921,2110.06060585,7845.75757497,1747.39393922,7863.787878,2991.9999997,7522.24242349,1685.57575741,7879.24242345,2324.36363613,7559.33333258,366.787878751,7855.54545376,0,42.0,42.0,?
2017-08-01 19:57:30.130076,7804.54545377,0,6185.93939332,0,7122.99999929,0,7704.09090832,3647.27272691,7810.72727195,3276.36363604,7811.75757498,3169.2121209,7763.33333256,2344.96969674,7811.24242346,2110.06060585,7804.54545377,1747.39393922,7811.24242346,2991.9999997,7547.48484773,1685.57575741,7806.60605983,2324.36363613,7539.757575,366.787878751,7809.69696892,0,42.0,42.0,?
2017-08-01 19:57:30.137678,7819.99999922,0,6518.72727208,0,7500.09090834,0,7897.27272648,3647.27272691,7842.66666588,3276.36363604,7833.39393861,3169.2121209,7879.24242345,2344.96969674,7827.21212043,2110.06060585,7806.09090831,1747.39393922,7834.42424164,2991.9999997,7821.54545376,1685.57575741,7834.93939316,2324.36363613,7792.69696892,366.787878751,7824.63636285,0,42.0,42.0,?
2017-08-01 19:57:30.150235,7797.33333255,0,6339.96969634,0,7374.39393866,0,7747.8787871,3647.27272691,7774.66666589,3276.36363604,7781.36363559,3169.2121209,7768.99999922,2344.96969674,7789.09090831,2110.06060585,7799.39393861,1747.39393922,7788.5757568,2991.9999997,7804.03030225,1685.57575741,7788.5757568,2324.36363613,7834.42424164,366.787878751,7790.63636286,0,42.0,42.0,?
2017-08-01 19:57:30.159561,7805.5757568,0,6198.8181812,0,7278.57575685,0,7750.96969619,3647.27272691,7817.42424164,3276.36363604,7818.96969619,3169.2121209,7790.63636286,2344.96969674,7811.24242346,2110.06060585,7805.06060528,1747.39393922,7815.36363558,2991.9999997,7720.5757568,1685.57575741,7812.27272649,2324.36363613,7719.54545377,366.787878751,7802.99999922,0,42.0,42.0,?
2017-08-01 19:57:30.161383,7520.18181743,0,5160.78787827,0,6276.60605998,0,6722.72727205,3647.27272691,7131.75757504,3276.36363604,7239.4242417,3169.2121209,7036.45454475,2344.96969674,7426.42424168,2110.06060585,7715.42424165,1747.39393922,7339.36363563,2991.9999997,6868.51515083,1685.57575741,7325.96969624,2324.36363613,7202.33333261,366.787878751,7483.60605986,0,42.0,42.0,?
2017-08-01 19:57:30.168620,7520.18181743,0,5160.78787827,0,6276.60605998,0,6722.72727205,3647.27272691,7131.75757504,3276.36363604,7239.4242417,3169.2121209,7036.45454475,2344.96969674,7426.42424168,2110.06060585,7715.42424165,1747.39393922,7339.36363563,2991.9999997,6868.51515083,1685.57575741,7325.96969624,2324.36363613,7202.33333261,366.787878751,7483.60605986,0,42.0,42.0,?
2017-08-01 19:57:30.184681,7391.90909017,0,4775.45454498,0,5826.8787873,0,6268.36363574,3647.27272691,6877.27272658,3276.36363604,7037.48484778,3169.2121209,6694.39393872,2344.96969674,7229.1212114,2110.06060585,7691.21212044,1747.39393922,7124.03030232,2991.9999997,6513.06060541,1685.57575741,7080.24242353,2324.36363613,6910.24242355,366.787878751,7314.12121139,0,42.0,42.0,?
2017-08-01 19:57:30.187769,7549.54545379,0,5553.84848429,0,6537.27272662,0,7016.87878718,3647.27272691,7337.81818108,3276.36363604,7417.15151441,3169.2121209,7215.72727201,2344.96969674,7472.78787804,2110.06060585,7734.48484771,1747.39393922,7428.48484774,2991.9999997,7051.39393869,1685.57575741,7390.87878714,2324.36363613,7135.87878717,366.787878751,7514.51515076,0,42.0,42.0,?
2017-08-01 19:57:30.192661,7775.69696892,0,6210.66666605,0,7200.27272655,0,7727.2727265,3647.27272691,7796.30302952,3276.36363604,7796.30302952,3169.2121209,7757.66666589,2344.96969674,7790.12121134,2110.06060585,7793.72727195,1747.39393922,7789.60605983,2991.9999997,7622.18181742,1685.57575741,7785.99999922,2324.36363613,7550.06060531,366.787878751,7790.63636286,0,42.0,42.0,?
2017-08-01 19:57:30.201523,7824.63636285,0,6157.60605999,0,7195.63636292,0,7720.06060529,3647.27272691,7813.81818104,3276.36363604,7814.84848407,3169.2121209,7785.48484771,2344.96969674,7827.21212043,2110.06060585,7809.1818174,1747.39393922,7823.09090831,2991.9999997,7699.9696962,1685.57575741,7828.24242346,2324.36363613,7722.63636286,366.787878751,7824.63636285,0,42.0,42.0,?
2017-08-01 19:57:30.208238,7791.15151437,0,6175.63636302,0,7249.727272,0,7713.36363559,3647.27272691,7774.15151437,3276.36363604,7778.78787801,3169.2121209,7762.81818104,2344.96969674,7780.84848407,2110.06060585,7797.84848407,1747.39393922,7777.75757498,2991.9999997,7725.21212044,1685.57575741,7772.60605983,2324.36363613,7727.2727265,366.787878751,7781.36363559,0,42.0,42.0,?
2017-08-01 19:57:30.217379,7800.93939316,0,6110.72727212,0,7215.21212049,0,7707.69696893,3647.27272691,7797.84848407,3276.36363604,7802.99999922,3169.2121209,7771.5757568,2344.96969674,7807.63636286,2110.06060585,7799.39393861,1747.39393922,7806.09090831,2991.9999997,7642.78787802,1685.57575741,7801.96969619,2324.36363613,7608.78787803,366.787878751,7807.63636286,0,42.0,42.0,?
2017-08-01 19:57:30.223968,7818.96969619,0,5882.51515093,0,7006.06060536,0,7582.51515076,3647.27272691,7793.21212043,3276.36363604,7806.60605983,3169.2121209,7725.21212044,2344.96969674,7822.57575679,2110.06060585,7807.12121134,1747.39393922,7819.4848477,2991.9999997,7494.42424167,1685.57575741,7819.99999922,2324.36363613,7539.24242349,366.787878751,7821.54545376,0,42.0,42.0,?
2017-08-01 19:57:30.231939,7803.51515073,0,5949.48484789,0,7075.09090838,0,7626.81818106,3647.27272691,7787.54545377,3276.36363604,7796.30302952,3169.2121209,7744.78787801,2344.96969674,7802.99999922,2110.06060585,7801.96969619,1747.39393922,7804.03030225,2991.9999997,7571.69696894,1685.57575741,7801.96969619,2324.36363613,7632.99999924,366.787878751,7800.42424164,0,42.0,42.0,?
2017-08-01 19:57:30.239296,7779.30302953,0,5971.63636304,0,7107.54545383,0,7630.42424166,3647.27272691,7741.69696892,3276.36363604,7758.69696892,3169.2121209,7708.72727196,2344.96969674,7783.42424165,2110.06060585,7796.81818104,1747.39393922,7772.09090831,2991.9999997,7598.48484772,1685.57575741,7770.03030225,2324.36363613,7636.60605984,366.787878751,7785.48484771,0,42.0,42.0,?
2017-08-01 19:57:30.246843,7768.99999922,0,5852.12121154,0,6998.33333263,0,7542.84848409,3647.27272691,7706.15151438,3276.36363604,7734.48484771,3169.2121209,7640.72727196,2344.96969674,7773.12121134,2110.06060585,7794.24242346,1747.39393922,7749.93939316,2991.9999997,7503.18181743,1685.57575741,7750.45454468,2324.36363613,7545.93939318,366.787878751,7777.75757498,0,42.0,42.0,?
2017-08-01 19:57:30.256554,7794.24242346,0,6048.9090903,0,7193.57575686,0,7673.69696893,3647.27272691,7779.81818104,3276.36363604,7787.54545377,3169.2121209,7746.84848407,2344.96969674,7796.30302952,2110.06060585,7797.84848407,1747.39393922,7791.15151437,2991.9999997,7610.33333257,1685.57575741,7791.66666589,2324.36363613,7619.09090833,366.787878751,7795.27272649,0,42.0,42.0,?
2017-08-01 19:57:30.263633,7804.54545377,0,6115.36363575,0,7266.727272,0,7713.36363559,3647.27272691,7802.4848477,3276.36363604,7802.99999922,3169.2121209,7788.5757568,2344.96969674,7804.03030225,2110.06060585,7801.96969619,1747.39393922,7810.21212043,2991.9999997,7664.93939317,1685.57575741,7807.63636286,2324.36363613,7671.12121135,366.787878751,7801.96969619,0,42.0,42.0,?
2017-08-01 19:57:30.271458,7790.63636286,0,5760.42424185,0,6932.90909022,0,7525.8484841,3647.27272691,7726.24242347,3276.36363604,7754.06060529,3169.2121209,7661.84848408,2344.96969674,7780.84848407,2110.06060585,7795.78787801,1747.39393922,7770.54545377,2991.9999997,7536.66666591,1685.57575741,7767.45454468,2324.36363613,7639.18181742,366.787878751,7789.60605983,0,42.0,42.0,?
2017-08-01 19:57:30.280549,7794.24242346,0,5865.51515093,0,7022.03030233,0,7575.30302955,3647.27272691,7733.45454468,3276.36363604,7761.2727265,3169.2121209,7670.09090832,2344.96969674,7782.39393862,2110.06060585,7797.84848407,1747.39393922,7768.99999922,2991.9999997,7600.54545379,1685.57575741,7767.45454468,2324.36363613,7699.45454468,366.787878751,7793.21212043,0,42.0,42.0,?
2017-08-01 19:57:30.285967,7812.27272649,0,6357.99999936,0,7497.51515077,0,7814.33333255,3647.27272691,7825.15151437,3276.36363604,7819.99999922,3169.2121209,7816.39393861,2344.96969674,7817.93939316,2110.06060585,7808.66666589,1747.39393922,7818.96969619,2991.9999997,7764.36363559,1685.57575741,7817.42424164,2324.36363613,7732.42424165,366.787878751,7816.90909013,0,42.0,42.0,?
2017-08-01 19:57:30.293996,7791.66666589,0,6448.15151451,0,7622.69696893,0,7821.54545376,3647.27272691,7810.72727195,3276.36363604,7801.45454467,3169.2121209,7818.45454467,2344.96969674,7805.06060528,2110.06060585,7800.42424164,1747.39393922,7805.5757568,2991.9999997,7761.2727265,1685.57575741,7804.54545377,2324.36363613,7723.66666589,366.787878751,7797.84848407,0,42.0,42.0,?
2017-08-01 19:57:30.302285,7799.39393861,0,6525.42424177,0,7678.84848408,0,7785.48484771,3647.27272691,7783.42424165,3276.36363604,7791.66666589,3169.2121209,7783.93939316,2344.96969674,7786.51515074,2110.06060585,7802.4848477,1747.39393922,7790.12121134,2991.9999997,7808.66666589,1685.57575741,7791.15151437,2324.36363613,7848.33333255,366.787878751,7791.66666589,0,42.0,42.0,?
2017-08-01 19:57:30.310171,7859.15151437,0,6705.21212054,0,7821.54545376,0,7927.15151436,3647.27272691,7892.63636285,3276.36363604,7885.93939315,3169.2121209,7897.27272648,2344.96969674,7863.27272649,2110.06060585,7831.84848407,1747.39393922,7879.24242345,2991.9999997,7917.36363557,1685.57575741,7880.27272648,2324.36363613,7893.66666588,366.787878751,7860.69696891,0,42.0,42.0,?
2017-08-01 19:57:30.319912,7701.51515075,0,6078.78787818,0,7298.15151442,0,7568.09090833,3647.27272691,7658.24242348,3276.36363604,7665.9696962,3169.2121209,7659.27272651,2344.96969674,7731.90909014,2110.06060585,7760.24242347,1747.39393922,7700.99999923,2991.9999997,7529.4545447,1685.57575741,7704.60605984,2324.36363613,7522.75757501,366.787878751,7712.84848408,0,42.0,42.0,?
2017-08-01 19:57:30.325501,7447.5454538,0,5048.48484798,0,6361.09090845,0,6727.87878721,3647.27272691,7115.27272656,3276.36363604,7221.39393867,3169.2121209,7059.63636293,2344.96969674,7387.27272653,2110.06060585,7633.51515075,1747.39393922,7287.3333326,2991.9999997,6899.93939325,1685.57575741,7289.39393866,2324.36363613,7191.5151508,366.787878751,7408.90909017,0,42.0,42.0,?
2017-08-01 19:57:30.334123,7533.57575682,0,4958.84848435,0,6179.75757514,0,6546.03030238,3647.27272691,7102.39393868,3276.36363604,7268.78787806,3169.2121209,6958.66666597,2344.96969674,7419.21212047,2110.06060585,7703.06060529,1747.39393922,7322.87878715,2991.9999997,6833.99999932,1685.57575741,7289.39393866,2324.36363613,7214.18181746,366.787878751,7473.30302956,0,42.0,42.0,?
2017-08-01 19:57:30.340827,7626.30302954,0,5237.03030251,0,6342.54545391,0,6693.36363569,3647.27272691,7245.60605988,3276.36363604,7406.84848411,3169.2121209,7079.72727202,2344.96969674,7541.30302955,2110.06060585,7759.72727195,1747.39393922,7445.48484774,2991.9999997,6910.24242355,1685.57575741,7382.6363629,2324.36363613,7172.96969625,366.787878751,7575.30302955,0,42.0,42.0,?
2017-08-01 19:57:30.349130,7399.6363629,0,5092.27272676,0,6163.27272666,0,6469.78787814,3647.27272691,6990.09090839,3276.36363604,7142.57575686,3169.2121209,6874.18181749,2344.96969674,7280.12121139,2110.06060585,7574.78787803,1747.39393922,7151.84848413,2991.9999997,6740.75757508,1685.57575741,7120.42424171,2324.36363613,7062.72727202,366.787878751,7316.18181745,0,42.0,42.0,?
2017-08-01 19:57:30.357026,7338.84848411,0,5144.8181813,0,6166.87878726,0,6480.60605996,3647.27272691,6963.30302961,3276.36363604,7100.33333262,3169.2121209,6860.7878781,2344.96969674,7189.45454474,2110.06060585,7506.27272652,1747.39393922,7095.18181747,2991.9999997,6769.09090841,1685.57575741,7083.33333263,2324.36363613,7110.12121141,366.787878751,7260.0303023,0,42.0,42.0,?
2017-08-01 19:57:30.365357,7537.18181743,0,5451.8484843,0,6426.51515087,0,6793.81818114,3647.27272691,7229.1212114,3276.36363604,7365.12121138,3169.2121209,7113.2121205,2344.96969674,7417.66666592,2110.06060585,7641.75757499,1747.39393922,7384.18181744,2991.9999997,6981.84848415,1685.57575741,7348.12121139,2324.36363613,7234.78787806,366.787878751,7490.81818107,0,42.0,42.0,?
2017-08-01 19:57:30.371629,7566.03030227,0,5461.63636309,0,6425.48484784,0,6758.78787811,3647.27272691,7208.51515079,3276.36363604,7365.12121138,3169.2121209,7103.93939323,2344.96969674,7441.87878713,2110.06060585,7684.51515075,1747.39393922,7386.75757502,2991.9999997,6984.93939324,1685.57575741,7351.72727199,2324.36363613,7267.75757503,366.787878751,7498.5454538,0,42.0,42.0,?
2017-08-01 19:57:30.379656,7537.18181743,0,5391.57575704,0,6349.24242361,0,6741.78787811,3647.27272691,7219.84848413,3276.36363604,7345.0303023,3169.2121209,7097.24242353,2344.96969674,7429.51515077,2110.06060585,7692.24242347,1747.39393922,7340.90909018,2991.9999997,6987.51515082,1685.57575741,7326.99999927,2324.36363613,7244.06060534,366.787878751,7476.39393865,0,42.0,42.0,?
2017-08-01 19:57:30.389484,7682.45454469,0,5852.63636305,0,6801.03030235,0,7206.96969625,3647.27272691,7547.99999925,3276.36363604,7599.51515076,3169.2121209,7417.66666592,2344.96969674,7658.75757499,2110.06060585,7783.42424165,1747.39393922,7599.51515076,2991.9999997,7251.78787806,1685.57575741,7583.03030227,2324.36363613,7303.30302957,366.787878751,7681.93939317,0,42.0,42.0,?
2017-08-01 19:57:30.397397,7810.21212043,0,6442.48484784,0,7405.30302956,0,7679.87878711,3647.27272691,7766.93939316,3276.36363604,7784.45454468,3169.2121209,7723.66666589,2344.96969674,7802.99999922,2110.06060585,7816.39393861,1747.39393922,7789.60605983,2991.9999997,7608.27272651,1685.57575741,7777.75757498,2324.36363613,7596.42424166,366.787878751,7812.27272649,0,42.0,42.0,?
2017-08-01 19:57:30.403636,7818.96969619,0,6336.87878725,0,7363.57575684,0,7738.60605983,3647.27272691,7785.99999922,3276.36363604,7802.4848477,3169.2121209,7789.60605983,2344.96969674,7796.30302952,2110.06060585,7796.81818104,1747.39393922,7797.33333255,2991.9999997,7741.18181741,1685.57575741,7804.03030225,2324.36363613,7807.12121134,366.787878751,7805.5757568,0,42.0,42.0,?
2017-08-01 19:57:30.412315,7798.8787871,0,5904.15151456,0,6996.27272657,0,7586.12121136,3647.27272691,7767.45454468,3276.36363604,7786.51515074,3169.2121209,7719.03030226,2344.96969674,7799.39393861,2110.06060585,7808.66666589,1747.39393922,7787.03030225,2991.9999997,7629.90909015,1685.57575741,7792.69696892,2324.36363613,7725.21212044,366.787878751,7801.96969619,0,42.0,42.0,?
2017-08-01 19:57:30.423736,7804.54545377,0,6110.72727212,0,7206.45454473,0,7671.63636287,3647.27272691,7787.54545377,3276.36363604,7797.84848407,3169.2121209,7744.78787801,2344.96969674,7804.54545377,2110.06060585,7804.03030225,1747.39393922,7794.75757498,2991.9999997,7692.75757499,1685.57575741,7795.78787801,2324.36363613,7750.45454468,366.787878751,7801.45454467,0,42.0,42.0,?
2017-08-01 19:57:30.427797,7817.93939316,0,6546.54545389,0,7631.96969621,0,7861.72727194,3647.27272691,7832.8787871,3276.36363604,7824.12121134,3169.2121209,7845.24242346,2344.96969674,7815.8787871,2110.06060585,7801.45454467,1747.39393922,7822.57575679,2991.9999997,7832.8787871,1685.57575741,7821.54545376,2324.36363613,7804.54545377,366.787878751,7812.27272649,0,42.0,42.0,?
2017-08-01 19:57:30.437538,7801.96969619,0,6419.81818118,0,7546.96969622,0,7791.15151437,3647.27272691,7804.03030225,3276.36363604,7800.93939316,3169.2121209,7811.75757498,2344.96969674,7802.4848477,2110.06060585,7801.45454467,1747.39393922,7808.15151437,2991.9999997,7779.81818104,1685.57575741,7804.03030225,2324.36363613,7768.99999922,366.787878751,7802.4848477,0,42.0,42.0,?
2017-08-01 19:57:30.443805,7796.30302952,0,6218.90909029,0,7391.90909017,0,7737.5757568,3647.27272691,7796.30302952,3276.36363604,7797.84848407,3169.2121209,7789.09090831,2344.96969674,7798.8787871,2110.06060585,7798.8787871,1747.39393922,7801.45454467,2991.9999997,7765.39393862,1685.57575741,7796.30302952,2324.36363613,7793.21212043,366.787878751,7798.36363558,0,42.0,42.0,?
2017-08-01 19:57:30.451275,7801.45454467,0,6239.51515089,0,7423.33333259,0,7775.69696892,3647.27272691,7807.63636286,3276.36363604,7804.03030225,3169.2121209,7808.66666589,2344.96969674,7803.51515073,2110.06060585,7801.96969619,1747.39393922,7806.09090831,2991.9999997,7781.8787871,1685.57575741,7802.4848477,2324.36363613,7795.78787801,366.787878751,7800.93939316,0,42.0,42.0,?
2017-08-01 19:57:30.458070,7800.93939316,0,6235.90909029,0,7421.27272653,0,7746.84848407,3647.27272691,7797.84848407,3276.36363604,7796.30302952,3169.2121209,7791.15151437,2344.96969674,7799.90909013,2110.06060585,7800.42424164,1747.39393922,7800.93939316,2991.9999997,7734.48484771,1685.57575741,7801.96969619,2324.36363613,7742.72727195,366.787878751,7798.36363558,0,42.0,42.0,?
2017-08-01 19:57:30.466110,7802.99999922,1557.81818166,6198.8181812,0,7390.36363562,0,7726.75757498,3647.27272691,7798.36363558,3276.36363604,7800.42424164,3169.2121209,7787.03030225,2344.96969674,7805.5757568,2110.06060585,7800.42424164,1747.39393922,7804.54545377,2991.9999997,7720.06060529,1685.57575741,7806.60605983,2324.36363613,7714.90909014,366.787878751,7802.99999922,0,42.0,42.0,?
2017-08-01 19:57:30.474446,7799.39393861,1557.81818166,6218.39393877,2188.36363614,7414.57575683,0,7763.33333256,3647.27272691,7798.36363558,3276.36363604,7802.99999922,3169.2121209,7797.84848407,2344.96969674,7805.06060528,2110.06060585,7800.42424164,1747.39393922,7802.4848477,2991.9999997,7754.06060529,1685.57575741,7804.03030225,2324.36363613,7749.93939316,366.787878751,7801.45454467,0,42.0,42.0,?
2017-08-01 19:57:30.483498,7794.75757498,1557.81818166,6262.69696907,2188.36363614,7464.5454538,0,7772.09090831,3647.27272691,7788.06060528,3276.36363604,7795.27272649,3169.2121209,7790.12121134,2344.96969674,7792.1818174,2110.06060585,7798.36363558,1747.39393922,7790.12121134,2991.9999997,7775.69696892,1685.57575741,7789.60605983,2324.36363613,7812.27272649,366.787878751,7791.66666589,1615.51515135,42.0,42.0,?
2017-08-01 19:57:30.490057,7806.09090831,1557.81818166,6288.96969634,2188.36363614,7501.63636289,1660.84848468,7805.5757568,3647.27272691,7818.45454467,3276.36363604,7815.36363558,3169.2121209,7821.54545376,2344.96969674,7807.63636286,2110.06060585,7801.96969619,1747.39393922,7812.27272649,2991.9999997,7805.5757568,1685.57575741,7810.72727195,2324.36363613,7815.8787871,366.787878751,7807.63636286,1615.51515135,42.0,42.0,?
2017-08-01 19:57:30.497472,7794.24242346,1557.81818166,6082.9090903,2188.36363614,7301.24242351,1660.84848468,7646.90909014,399.757575718,7765.90909013,3276.36363604,7777.24242346,3169.2121209,7744.2727265,2344.96969674,7801.45454467,2110.06060585,7802.99999922,1747.39393922,7788.06060528,2991.9999997,7637.12121136,1685.57575741,7792.1818174,2324.36363613,7660.30302954,366.787878751,7800.42424164,1615.51515135,42.0,42.0,?
2017-08-01 19:57:30.504602,7740.66666589,1557.81818166,5648.12121156,2188.36363614,6853.06060538,1660.84848468,7238.90909019,399.757575718,7592.81818106,2410.90909067,7655.6666659,3169.2121209,7525.8484841,2344.96969674,7710.2727265,2110.06060585,7784.45454468,1747.39393922,7671.63636287,2991.9999997,7355.84848411,1685.57575741,7679.3636356,2324.36363613,7541.81818106,366.787878751,7725.72727195,1615.51515135,42.0,42.0,?
2017-08-01 19:57:30.513487,7739.63636286,1557.81818166,5618.7575752,2188.36363614,6785.5757569,1660.84848468,7201.8181811,399.757575718,7592.81818106,2410.90909067,7655.6666659,2081.212121,7520.69696894,2344.96969674,7688.12121135,2110.06060585,7776.21212043,1747.39393922,7661.33333257,2991.9999997,7410.45454471,1685.57575741,7660.30302954,2324.36363613,7618.0606053,366.787878751,7712.33333256,1615.51515135,42.0,42.0,?
2017-08-01 19:57:30.521465,7796.30302952,1557.81818166,5953.60606001,2188.36363614,7086.42424172,1660.84848468,7520.69696894,399.757575718,7761.2727265,2410.90909067,7778.27272649,2081.212121,7708.72727196,2452.12121188,7784.96969619,2110.06060585,7796.30302952,1747.39393922,7778.27272649,2991.9999997,7640.21212045,1685.57575741,7771.5757568,2324.36363613,7704.60605984,366.787878751,7791.15151437,1615.51515135,42.0,42.0,?
2017-08-01 19:57:30.530788,7824.12121134,1557.81818166,5957.21212062,2188.36363614,7074.57575687,1660.84848468,7536.66666591,399.757575718,7780.84848407,2410.90909067,7807.63636286,2081.212121,7744.78787801,2452.12121188,7810.21212043,1017.93939384,7822.57575679,181.333333315,7810.72727195,2991.9999997,7660.30302954,1685.57575741,7805.5757568,2324.36363613,7739.63636286,366.787878751,7817.93939316,1615.51515135,42.0,42.0,?
2017-08-01 19:57:30.537576,7824.12121134,1557.81818166,5957.21212062,2188.36363614,7074.57575687,1660.84848468,7536.66666591,399.757575718,7780.84848407,2410.90909067,7807.63636286,2081.212121,7744.78787801,2452.12121188,7810.21212043,1017.93939384,7822.57575679,181.333333315,7810.72727195,2991.9999997,7660.30302954,1685.57575741,7805.5757568,2324.36363613,7739.63636286,366.787878751,7817.93939316,1615.51515135,42.0,42.0,?
2017-08-01 19:57:30.547627,7924.57575678,1557.81818166,6342.54545391,2188.36363614,7452.18181744,1660.84848468,7867.90909012,399.757575718,7942.0909083,2410.90909067,7935.3939386,2081.212121,7932.30302951,2452.12121188,7924.06060527,1017.93939384,7905.51515072,181.333333315,7935.90909012,1829.81818164,7900.87878709,1685.57575741,7929.72727193,2324.36363613,7882.84848406,366.787878751,7928.18181739,1615.51515135,42.0,42.0,?
2017-08-01 19:57:30.552926,7895.72727194,1557.81818166,6313.18181755,2188.36363614,7453.21212047,1660.84848468,7856.06060527,399.757575718,7917.87878709,2410.90909067,7906.03030224,2081.212121,7906.03030224,2452.12121188,7925.0909083,1017.93939384,7898.81818103,181.333333315,7918.3939386,1829.81818164,7824.63636285,3606.0606057,7919.93939315,2324.36363613,7795.78787801,366.787878751,7913.24242345,1615.51515135,42.0,42.0,?
2017-08-01 19:57:30.560073,7808.15151437,1557.81818166,6044.78787818,2188.36363614,7209.03030231,1660.84848468,7638.15151439,399.757575718,7788.06060528,2410.90909067,7801.45454467,2081.212121,7763.33333256,2452.12121188,7807.63636286,1017.93939384,7813.30302952,181.333333315,7806.09090831,1829.81818164,7665.45454469,3606.0606057,7805.06060528,1648.48484832,7716.9696962,366.787878751,7810.72727195,1615.51515135,42.0,42.0,?
2017-08-01 19:57:30.567913,7985.87878708,1557.81818166,6365.72727209,2188.36363614,7515.54545379,1660.84848468,7956.51515072,399.757575718,8005.96969617,2410.90909067,8001.84848405,2081.212121,7994.12121132,2452.12121188,7979.6969689,1017.93939384,7943.63636284,181.333333315,7999.78787799,1829.81818164,7935.3939386,3606.0606057,7999.27272647,1648.48484832,7926.12121133,2311.99999977,7989.48484769,1615.51515135,42.0,42.0,?
2017-08-01 19:57:30.576119,7567.57575682,1557.81818166,5957.72727213,2188.36363614,7116.81818111,1660.84848468,7412.51515077,399.757575718,7507.30302955,2410.90909067,7510.39393864,2081.212121,7553.66666591,2452.12121188,7632.48484772,1017.93939384,7678.33333257,181.333333315,7556.757575,1842.181818,7423.33333259,3606.0606057,7586.12121136,1648.48484832,7420.75757502,2311.99999977,7583.03030227,1615.51515135,42.0,42.0,?
2017-08-01 19:57:30.583976,5862.93939335,1557.81818166,4104.2121208,2188.36363614,5232.90909039,1660.84848468,5092.27272676,399.757575718,5465.2424237,2410.90909067,5598.66666611,2081.212121,5620.81818126,2452.12121188,5824.81818124,1017.93939384,6187.48484787,181.333333315,5623.90909035,1842.181818,5614.12121156,3593.69696934,5684.18181761,1648.48484832,6004.60606001,2311.99999977,5750.63636306,1615.51515135,42.0,42.0,?
2017-08-01 19:57:30.591346,4349.9393935,1557.81818166,2918.84848456,2188.36363614,3868.27272689,1660.84848468,3290.78787846,399.757575718,3750.81818144,2410.90909067,4024.36363596,2081.212121,3955.84848445,2452.12121188,4037.75757535,1017.93939384,4608.03030257,181.333333315,3890.42424204,1842.181818,4321.60606017,3593.69696934,3939.36363597,1648.48484832,5014.9999995,2311.99999977,4038.27272687,1615.51515135,42.0,42.0,?
2017-08-01 19:57:30.601214,4324.69696926,1557.81818166,3380.42424209,2188.36363614,4109.87878747,1660.84848468,3479.33333299,399.757575718,3865.1818178,2410.90909067,4155.72727231,2081.212121,4005.81818142,2452.12121188,3919.7878784,1017.93939384,4467.39393895,181.333333315,3899.69696931,1842.181818,4476.1515147,3593.69696934,3900.21212082,1648.48484832,5042.3030298,2311.99999977,3983.15151475,1615.51515135,42.0,42.0,?
2017-08-01 19:57:30.606659,4718.78787832,1557.81818166,3891.45454507,2188.36363614,4488.51515107,1660.84848468,3983.15151475,399.757575718,4365.90909047,2410.90909067,4612.15151469,2081.212121,4484.90909046,2452.12121188,4406.09090865,1017.93939384,4915.57575708,181.333333315,4355.09090866,1842.181818,4848.09090861,3593.69696934,4339.12121169,1648.48484832,5345.72727219,2311.99999977,4428.75757531,1615.51515135,42.0,42.0,?
2017-08-01 19:57:30.615490,3864.66666628,1557.81818166,3296.45454512,2188.36363614,3777.60606023,1660.84848468,3077.51515121,399.757575718,3442.2424239,2410.90909067,3698.78787842,2081.212121,3660.6666663,2452.12121188,3562.78787843,1017.93939384,4056.3030299,181.333333315,3426.27272693,1842.181818,4137.18181777,3593.69696934,3449.45454511,1648.48484832,4767.72727225,2311.99999977,3497.87878753,1615.51515135,42.0,42.0,?
2017-08-01 19:57:30.623561,2977.06060576,1557.81818166,2810.66666639,2188.36363614,3122.84848454,1660.84848468,2183.21212099,399.757575718,2564.93939368,2410.90909067,2877.12121183,2081.212121,2750.90909063,2452.12121188,2538.1515149,1017.93939384,3031.66666636,181.333333315,2506.72727248,1842.181818,3415.96969663,3593.69696934,2513.93939369,1648.48484832,4073.3030299,2311.99999977,2510.8484846,1615.51515135,42.0,42.0,?
2017-08-01 19:57:30.630215,4420.51515107,1557.81818166,4258.24242382,2188.36363614,4458.63636319,1660.84848468,3825.51515113,399.757575718,4172.72727231,2410.90909067,4447.81818137,2081.212121,4180.45454504,2452.12121188,3940.90909052,1017.93939384,4414.84848441,181.333333315,4068.66666626,1842.181818,4746.60606013,3593.69696934,4002.21212081,1648.48484832,5189.63636312,2311.99999977,4049.6060602,1615.51515135,42.0,42.0,?
2017-08-01 19:57:30.640476,7131.75757504,1557.81818166,6466.69696905,2188.36363614,6730.9696963,1660.84848468,6768.5757569,399.757575718,7019.45454475,2410.90909067,7149.27272656,2081.212121,6905.60605992,2452.12121188,6844.30302962,1017.93939384,7107.54545383,181.333333315,6949.90909021,1842.181818,7107.54545383,3593.69696934,6862.33333265,1648.48484832,7297.12121139,2311.99999977,6981.33333264,1615.51515135,42.0,42.0,?
2017-08-01 19:57:30.646549,8139.39393858,1557.81818166,6860.27272659,2188.36363614,7306.90909018,1660.84848468,7715.42424165,399.757575718,8035.33333253,2410.90909067,8086.84848404,2081.212121,7880.787878,2452.12121188,8076.03030222,1017.93939384,8120.33333252,181.333333315,8062.63636283,1842.181818,7808.15151437,3593.69696934,8020.90909011,1648.48484832,7938.99999921,2311.99999977,8122.39393858,1615.51515135,42.0,42.0,?
2017-08-01 19:57:30.654897,7692.75757499,1557.81818166,6010.78787819,2188.36363614,6596.51515086,1660.84848468,6958.15151446,399.757575718,7489.78787804,2410.90909067,7607.24242348,2081.212121,7291.45454473,2452.12121188,7641.24242348,1017.93939384,7757.15151438,181.333333315,7577.36363561,1842.181818,7194.60605989,3593.69696934,7546.4545447,1648.48484832,7440.8484841,2311.99999977,7666.48484772,1615.51515135,42.0,42.0,?
2017-08-01 19:57:30.667209,7706.15151438,1557.81818166,5983.48484789,2188.36363614,6627.93939328,1660.84848468,6944.24242355,399.757575718,7468.1515144,2410.90909067,7615.99999924,2081.212121,7275.48484776,2452.12121188,7612.90909015,1017.93939384,7801.45454467,181.333333315,7538.72727197,1842.181818,7183.78787807,3593.69696934,7489.27272652,1648.48484832,7388.81818108,2311.99999977,7663.90909014,1615.51515135,42.0,42.0,?
2017-08-01 19:57:30.670328,7979.6969689,1557.81818166,6483.69696905,2188.36363614,7187.39393868,1660.84848468,7591.27272651,399.757575718,7878.21212042,2410.90909067,7931.78787799,2081.212121,7767.96969619,2452.12121188,7966.30302951,1017.93939384,8012.15151435,181.333333315,7908.0909083,1842.181818,7603.63636288,3593.69696934,7869.45454467,1648.48484832,7613.42424166,2311.99999977,7984.84848405,1615.51515135,42.0,42.0,?
2017-08-01 19:57:30.678458,7894.18181739,1557.81818166,6496.57575693,2188.36363614,7283.21212048,1660.84848468,7751.99999922,399.757575718,7900.87878709,2410.90909067,7895.21212042,2081.212121,7855.54545376,2452.12121188,7920.96969618,1017.93939384,7874.0909083,181.333333315,7915.30302951,1842.181818,7720.06060529,3593.69696934,7902.93939315,1648.48484832,7728.81818105,2311.99999977,7913.24242345,1615.51515135,42.0,42.0,?
2017-08-01 19:57:30.684749,7792.1818174,1557.81818166,6267.33333271,2188.36363614,7117.84848414,1660.84848468,7594.3636356,399.757575718,7765.39393862,2410.90909067,7789.09090831,2081.212121,7729.33333256,2452.12121188,7794.24242346,1017.93939384,7793.72727195,181.333333315,7792.69696892,1842.181818,7653.09090833,3593.69696934,7793.72727195,1648.48484832,7730.87878711,2311.99999977,7791.66666589,1615.51515135,42.0,42.0,?
2017-08-01 19:57:30.693945,7782.39393862,1557.81818166,6213.75757514,2188.36363614,7114.24242353,1660.84848468,7558.30302955,399.757575718,7737.5757568,2410.90909067,7768.99999922,2081.212121,7694.81818105,2452.12121188,7777.24242346,1017.93939384,7794.75757498,181.333333315,7759.21212044,1842.181818,7612.39393863,3593.69696934,7757.15151438,1648.48484832,7668.03030226,2311.99999977,7779.30302953,1615.51515135,42.0,42.0,?
2017-08-01 19:57:30.701934,7829.27272649,1557.81818166,6388.90909027,2188.36363614,7322.36363563,1660.84848468,7747.8787871,399.757575718,7835.96969619,2410.90909067,7827.21212043,2081.212121,7825.66666588,2452.12121188,7831.84848407,1017.93939384,7813.81818104,181.333333315,7826.69696891,1842.181818,7764.36363559,3593.69696934,7826.69696891,1648.48484832,7801.45454467,2311.99999977,7827.21212043,1615.51515135,42.0,42.0,?
2017-08-01 19:57:30.711641,7759.21212044,1557.81818166,6220.45454483,2188.36363614,7158.03030231,1660.84848468,7537.18181743,399.757575718,7689.15151438,2410.90909067,7715.93939317,2081.212121,7690.18181741,2452.12121188,7731.90909014,1017.93939384,7761.78787801,181.333333315,7715.93939317,1842.181818,7653.60605984,3593.69696934,7725.21212044,1648.48484832,7764.8787871,2311.99999977,7734.99999923,1615.51515135,42.0,42.0,?
2017-08-01 19:57:30.716903,7584.0606053,1557.81818166,5514.18181763,2188.36363614,6506.87878723,1660.84848468,6835.54545386,399.757575718,7304.84848412,2410.90909067,7444.96969623,2081.212121,7219.84848413,2452.12121188,7493.39393864,1017.93939384,7676.27272651,181.333333315,7429.51515077,1842.181818,7134.33333262,3593.69696934,7439.30302956,1648.48484832,7365.12121138,2311.99999977,7528.93939319,1615.51515135,42.0,42.0,?
2017-08-01 19:57:30.729289,7567.57575682,1557.81818166,5569.81818126,2188.36363614,6459.99999935,1660.84848468,6672.75757509,399.757575718,7219.84848413,2410.90909067,7390.87878714,2081.212121,7084.87878717,2452.12121188,7443.42424168,1017.93939384,7704.09090832,181.333333315,7353.78787805,1842.181818,6969.9999993,3593.69696934,7354.81818108,1648.48484832,7218.30302958,2311.99999977,7500.09090834,1615.51515135,42.0,42.0,?
2017-08-01 19:57:30.732476,7781.36363559,1557.81818166,6562.51515086,2188.36363614,7245.09090837,1660.84848468,7185.84848413,399.757575718,7712.84848408,2410.90909067,7618.57575681,2081.212121,7415.60605986,2452.12121188,7651.54545378,1017.93939384,7800.93939316,181.333333315,7586.63636288,1842.181818,7328.0303023,3593.69696934,7740.15151438,1648.48484832,7511.42424167,2311.99999977,7689.15151438,1615.51515135,42.0,42.0,?
2017-08-01 19:57:30.740995,7781.36363559,1557.81818166,6562.51515086,2188.36363614,7245.09090837,1660.84848468,7485.1515144,399.757575718,7712.84848408,2410.90909067,7749.42424165,2081.212121,7631.96969621,2452.12121188,7775.69696892,1017.93939384,7800.93939316,181.333333315,7746.84848407,1842.181818,7514.51515076,3593.69696934,7740.15151438,1648.48484832,7597.45454469,2311.99999977,7779.81818104,1615.51515135,42.0,42.0,?
2017-08-01 19:57:30.750039,7744.78787801,1557.81818166,6502.75757511,2188.36363614,7243.54545382,1660.84848468,7494.93939319,399.757575718,7721.09090832,2410.90909067,7744.78787801,2081.212121,7639.69696893,2452.12121188,7761.2727265,1017.93939384,7780.84848407,181.333333315,7750.45454468,1842.181818,7460.42424168,3593.69696934,7749.42424165,1648.48484832,7469.18181743,2311.99999977,7756.12121135,1615.51515135,42.0,42.0,?
2017-08-01 19:57:30.756446,7797.84848407,1557.81818166,6881.90909022,2188.36363614,7598.99999924,1660.84848468,7732.93939317,399.757575718,7798.36363558,2410.90909067,7802.4848477,2081.212121,7768.99999922,2452.12121188,7799.90909013,1017.93939384,7806.09090831,181.333333315,7799.39393861,1842.181818,7690.18181741,3593.69696934,7799.90909013,1648.48484832,7690.18181741,2311.99999977,7797.84848407,1615.51515135,42.0,42.0,?
2017-08-01 19:57:30.765468,7821.03030225,1557.81818166,6714.99999933,2188.36363614,7655.15151439,1660.84848468,7841.12121134,399.757575718,7824.63636285,2410.90909067,7822.06060528,2081.212121,7842.15151437,2452.12121188,7812.78787801,1017.93939384,7801.45454467,181.333333315,7819.4848477,1842.181818,7890.06060527,3593.69696934,7825.15151437,1648.48484832,7917.87878709,2311.99999977,7814.84848407,1615.51515135,42.0,42.0,?
2017-08-01 19:57:30.771247,7794.75757498,1557.81818166,6080.84848424,2188.36363614,7271.87878715,1660.84848468,7665.45454469,399.757575718,7782.39393862,2410.90909067,7796.30302952,2081.212121,7764.8787871,2452.12121188,7796.81818104,1017.93939384,7801.45454467,181.333333315,7800.42424164,1842.181818,7742.72727195,3593.69696934,7796.30302952,1648.48484832,7764.36363559,2311.99999977,7796.30302952,1615.51515135,42.0,42.0,?
2017-08-01 19:57:30.779056,7722.12121135,1557.81818166,5930.93939335,2188.36363614,6977.21212051,1660.84848468,7319.78787806,399.757575718,7595.39393863,2410.90909067,7649.48484772,2081.212121,7552.63636288,2452.12121188,7674.72727196,1017.93939384,7741.18181741,181.333333315,7657.72727196,1842.181818,7496.99999925,3593.69696934,7667.51515075,1648.48484832,7673.69696893,2311.99999977,7694.81818105,1615.51515135,42.0,42.0,?
2017-08-01 19:57:30.788560,7722.12121135,1557.81818166,5930.93939335,2188.36363614,6977.21212051,1660.84848468,7319.78787806,399.757575718,7595.39393863,2410.90909067,7649.48484772,2081.212121,7552.63636288,2452.12121188,7674.72727196,1017.93939384,7741.18181741,181.333333315,7657.72727196,1842.181818,7496.99999925,3593.69696934,7667.51515075,1648.48484832,7673.69696893,2311.99999977,7694.81818105,1615.51515135,42.0,42.0,?
2017-08-01 19:57:30.794898,7635.57575681,1557.81818166,5580.63636308,2188.36363614,6666.57575691,1660.84848468,6942.696969,399.757575718,7389.33333259,2410.90909067,7494.42424167,2081.212121,7300.21212048,2452.12121188,7532.54545379,1017.93939384,7708.21212044,181.333333315,7486.69696895,1842.181818,7268.78787806,3593.69696934,7482.06060531,1648.48484832,7491.8484841,2311.99999977,7572.21212045,1615.51515135,42.0,42.0,?
2017-08-01 19:57:30.804953,7712.33333256,1557.81818166,5717.66666609,2188.36363614,6719.63636296,1660.84848468,6984.42424173,399.757575718,7489.27272652,2410.90909067,7595.39393863,2081.212121,7364.60605987,2452.12121188,7637.12121136,1017.93939384,7781.8787871,181.333333315,7576.84848409,1842.181818,7255.39393867,3593.69696934,7550.57575682,1648.48484832,7403.75757502,2311.99999977,7664.93939317,1615.51515135,42.0,42.0,?
2017-08-01 19:57:30.809620,7808.15151437,1557.81818166,6004.60606001,2188.36363614,6964.33333264,1660.84848468,7281.15151442,399.757575718,7692.24242347,2410.90909067,7759.21212044,2081.212121,7602.09090833,2452.12121188,7784.96969619,1017.93939384,7822.06060528,181.333333315,7746.33333256,1842.181818,7475.36363562,3593.69696934,7727.78787802,1648.48484832,7575.30302955,2311.99999977,7798.36363558,1615.51515135,42.0,42.0,?
2017-08-01 19:57:30.822108,7800.42424164,1557.81818166,6107.12121151,2188.36363614,7087.96969626,1660.84848468,7473.30302956,399.757575718,7743.24242347,2410.90909067,7784.45454468,2081.212121,7700.99999923,2452.12121188,7792.1818174,1017.93939384,7793.21212043,181.333333315,7777.75757498,1842.181818,7614.96969621,3593.69696934,7775.69696892,1648.48484832,7701.51515075,2311.99999977,7800.93939316,1615.51515135,42.0,42.0,?
2017-08-01 19:57:30.827822,7789.09090831,1557.81818166,6089.09090848,2188.36363614,7078.18181747,1660.84848468,7469.69696895,399.757575718,7705.63636287,2410.90909067,7755.60605983,2081.212121,7653.60605984,2452.12121188,7768.48484771,1017.93939384,7793.21212043,181.333333315,7747.36363559,1842.181818,7616.51515075,3593.69696934,7741.69696892,1648.48484832,7698.42424165,2311.99999977,7778.27272649,1615.51515135,42.0,42.0,?
2017-08-01 19:57:30.835599,7796.81818104,1557.81818166,5959.78787819,2188.36363614,6963.30302961,1660.84848468,7306.39393866,399.757575718,7670.60605984,2410.90909067,7734.99999923,2081.212121,7579.93939318,2452.12121188,7759.72727195,1017.93939384,7819.4848477,181.333333315,7723.15151438,1842.181818,7522.75757501,3593.69696934,7712.33333256,1648.48484832,7607.757575,2311.99999977,7781.8787871,1615.51515135,42.0,42.0,?
2017-08-01 19:57:30.842251,7739.63636286,1557.81818166,5844.39393881,2188.36363614,6831.93939326,1660.84848468,7135.87878717,399.757575718,7596.42424166,2410.90909067,7669.06060529,2081.212121,7493.39393864,2452.12121188,7697.90909014,1017.93939384,7799.90909013,181.333333315,7655.15151439,1842.181818,7373.36363563,3593.69696934,7650.51515075,1648.48484832,7499.06060531,2311.99999977,7721.60605983,1615.51515135,42.0,42.0,?
2017-08-01 19:57:30.851898,7657.72727196,1557.81818166,5727.45454488,2188.36363614,6697.48484782,1660.84848468,6951.45454476,399.757575718,7430.03030229,2410.90909067,7554.69696894,2081.212121,7314.6363629,2452.12121188,7576.33333258,1017.93939384,7733.45454468,181.333333315,7518.63636288,1842.181818,7230.15151443,3593.69696934,7514.51515076,1648.48484832,7452.69696895,2311.99999977,7610.33333257,1615.51515135,42.0,42.0,?
2017-08-01 19:57:30.856995,7760.75757498,1557.81818166,5764.03030245,2188.36363614,6735.60605993,1660.84848468,6977.21212051,399.757575718,7485.1515144,2410.90909067,7642.78787802,2081.212121,7337.30302957,2452.12121188,7647.42424166,1017.93939384,7795.27272649,181.333333315,7595.39393863,1842.181818,7315.15151442,3593.69696934,7579.42424167,1648.48484832,7537.18181743,2311.99999977,7703.57575681,1615.51515135,42.0,42.0,?
2017-08-01 19:57:30.865797,7804.03030225,1557.81818166,6080.84848424,2188.36363614,6989.57575688,1660.84848468,7272.39393867,399.757575718,7664.93939317,2410.90909067,7743.24242347,2081.212121,7560.87878712,2452.12121188,7762.30302953,1017.93939384,7815.36363558,181.333333315,7730.87878711,1842.181818,7471.2424235,3593.69696934,7720.06060529,1648.48484832,7543.87878712,2311.99999977,7785.99999922,1615.51515135,42.0,42.0,?
2017-08-01 19:57:30.873634,7514.51515076,1557.81818166,6352.84848421,2188.36363614,7165.75757504,1660.84848468,7338.84848411,399.757575718,7481.03030228,2410.90909067,7488.75757501,2081.212121,7485.66666592,2452.12121188,7529.4545447,1017.93939384,7547.99999925,181.333333315,7490.30302955,1842.181818,7401.18181744,3593.69696934,7509.87878713,1648.48484832,7442.90909016,2311.99999977,7519.1515144,1615.51515135,42.0,42.0,?
2017-08-01 19:57:30.881005,7382.12121138,1557.81818166,6588.78787813,2188.36363614,7299.18181745,1660.84848468,7283.727272,399.757575718,7312.06060533,2410.90909067,7341.93939321,2081.212121,7335.24242351,2452.12121188,7355.84848411,1017.93939384,7420.75757502,181.333333315,7312.57575684,1842.181818,7373.36363563,3593.69696934,7335.24242351,1648.48484832,7464.03030228,2311.99999977,7373.36363563,1615.51515135,42.0,42.0,?
2017-08-01 19:57:30.888505,7685.54545378,1557.81818166,6902.51515082,2188.36363614,7594.3636356,1660.84848468,7613.93939318,399.757575718,7643.81818105,2410.90909067,7671.12121135,2081.212121,7627.33333257,2452.12121188,7657.21212045,1017.93939384,7695.84848408,181.333333315,7647.42424166,1842.181818,7632.99999924,3593.69696934,7646.39393863,1648.48484832,7649.48484772,2311.99999977,7683.48484772,1615.51515135,42.0,42.0,?
2017-08-01 19:57:30.896178,7879.24242345,1557.81818166,7209.03030231,2188.36363614,7822.57575679,1660.84848468,7911.69696891,399.757575718,7901.3939386,2410.90909067,7894.69696891,2081.212121,7904.48484769,2452.12121188,7892.12121133,1017.93939384,7870.99999921,181.333333315,7901.90909012,1842.181818,7875.12121133,3593.69696934,7896.24242345,1648.48484832,7845.75757497,2311.99999977,7885.93939315,1615.51515135,42.0,42.0,?
2017-08-01 19:57:30.904733,7787.03030225,1557.81818166,7365.6363629,2188.36363614,7805.5757568,1660.84848468,7812.78787801,399.757575718,7788.5757568,2410.90909067,7788.5757568,2081.212121,7810.21212043,2452.12121188,7794.75757498,1017.93939384,7787.54545377,181.333333315,7791.15151437,1842.181818,7824.63636285,3593.69696934,7794.24242346,1648.48484832,7826.69696891,2311.99999977,7786.51515074,1615.51515135,42.0,42.0,?
2017-08-01 19:57:30.912410,7777.75757498,1557.81818166,7364.60605987,2188.36363614,7796.30302952,1660.84848468,7774.15151437,399.757575718,7770.54545377,2410.90909067,7779.81818104,2081.212121,7773.12121134,2452.12121188,7776.72727195,1017.93939384,7783.93939316,181.333333315,7773.12121134,1842.181818,7775.1818174,3593.69696934,7775.69696892,1648.48484832,7778.27272649,2311.99999977,7781.8787871,1615.51515135,42.0,42.0,?
2017-08-01 19:57:30.923666,7830.81818104,1557.81818166,7502.1515144,2188.36363614,7831.33333255,1660.84848468,7843.69696891,399.757575718,7838.03030225,2410.90909067,7839.06060528,2081.212121,7839.06060528,2452.12121188,7832.36363558,1017.93939384,7832.36363558,181.333333315,7841.63636285,1842.181818,7837.51515073,3593.69696934,7839.06060528,1648.48484832,7831.33333255,2311.99999977,7835.96969619,1615.51515135,42.0,42.0,?
2017-08-01 19:57:30.927693,7806.60605983,1557.81818166,7777.75757498,2188.36363614,7806.60605983,1660.84848468,7808.15151437,399.757575718,7804.54545377,2410.90909067,7810.21212043,2081.212121,7812.27272649,2452.12121188,7802.4848477,1017.93939384,7808.15151437,181.333333315,7811.75757498,1842.181818,7813.30302952,3593.69696934,7806.09090831,1648.48484832,7810.72727195,2311.99999977,7808.66666589,1615.51515135,42.0,42.0,?
2017-08-01 19:57:30.936099,7799.39393861,1557.81818166,7510.90909016,2188.36363614,7792.1818174,1660.84848468,7800.42424164,399.757575718,7798.36363558,2410.90909067,7804.03030225,2081.212121,7803.51515073,2452.12121188,7796.81818104,1017.93939384,7803.51515073,181.333333315,7802.99999922,1842.181818,7793.72727195,3593.69696934,7797.33333255,1648.48484832,7797.84848407,2311.99999977,7803.51515073,1615.51515135,42.0,42.0,?
2017-08-01 19:57:30.943031,7798.8787871,1557.81818166,6855.63636295,2188.36363614,7759.72727195,1660.84848468,7802.99999922,399.757575718,7801.45454467,2410.90909067,7798.8787871,2081.212121,7804.03030225,2452.12121188,7798.36363558,1017.93939384,7804.03030225,181.333333315,7805.5757568,1842.181818,7790.63636286,3593.69696934,7800.42424164,1648.48484832,7797.84848407,2311.99999977,7804.03030225,1615.51515135,42.0,42.0,?
2017-08-01 19:57:30.951031,7800.93939316,1557.81818166,6767.03030235,2188.36363614,7776.72727195,1660.84848468,7796.30302952,399.757575718,7798.8787871,2410.90909067,7796.30302952,2081.212121,7804.03030225,2452.12121188,7797.84848407,1017.93939384,7804.54545377,181.333333315,7805.5757568,1842.181818,7798.36363558,3593.69696934,7800.93939316,1648.48484832,7801.96969619,2311.99999977,7804.03030225,1615.51515135,42.0,42.0,?
2017-08-01 19:57:30.959631,7800.42424164,1557.81818166,7075.09090838,2188.36363614,7805.5757568,1660.84848468,7795.27272649,399.757575718,7797.84848407,2410.90909067,7799.39393861,2081.212121,7804.03030225,2452.12121188,7797.84848407,1017.93939384,7804.03030225,181.333333315,7804.03030225,1842.181818,7801.96969619,3593.69696934,7799.90909013,1648.48484832,7805.06060528,2311.99999977,7804.03030225,1615.51515135,42.0,42.0,?
2017-08-01 19:57:30.971289,7800.42424164,296.727272698,7325.96969624,2188.36363614,7799.90909013,1660.84848468,7802.99999922,399.757575718,7798.8787871,2410.90909067,7799.39393861,2081.212121,7804.03030225,2452.12121188,7797.84848407,1017.93939384,7804.03030225,181.333333315,7806.09090831,1842.181818,7798.8787871,3593.69696934,7800.42424164,1648.48484832,7804.03030225,2311.99999977,7804.54545377,1615.51515135,42.0,42.0,?
2017-08-01 19:57:30.975896,7800.42424164,296.727272698,7651.54545378,2035.87878768,7797.84848407,1660.84848468,7807.12121134,399.757575718,7799.90909013,2410.90909067,7798.36363558,2081.212121,7804.54545377,2452.12121188,7797.84848407,1017.93939384,7804.03030225,181.333333315,7801.96969619,1842.181818,7798.8787871,3593.69696934,7800.42424164,1648.48484832,7804.03030225,2311.99999977,7804.03030225,1615.51515135,42.0,42.0,?
2017-08-01 19:57:30.982124,7800.42424164,296.727272698,7728.30302953,2035.87878768,7802.99999922,1660.84848468,7805.06060528,399.757575718,7799.90909013,2410.90909067,7799.90909013,2081.212121,7804.03030225,2452.12121188,7797.84848407,1017.93939384,7804.03030225,181.333333315,7794.75757498,1842.181818,7801.45454467,3593.69696934,7800.42424164,1648.48484832,7804.54545377,2311.99999977,7803.51515073,614.060605999,42.0,42.0,?
2017-08-01 19:57:30.990642,7800.42424164,296.727272698,7504.21212046,2035.87878768,7801.45454467,65.9393939328,7804.54545377,399.757575718,7800.42424164,2410.90909067,7799.39393861,2081.212121,7804.03030225,2452.12121188,7797.84848407,1017.93939384,7804.03030225,181.333333315,7796.81818104,1842.181818,7800.93939316,3593.69696934,7800.42424164,1648.48484832,7804.03030225,2311.99999977,7805.06060528,614.060605999,42.0,42.0,?
2017-08-01 19:57:30.998366,7800.42424164,296.727272698,7421.78787805,2035.87878768,7798.8787871,65.9393939328,7807.63636286,4079.99999959,7800.93939316,2410.90909067,7798.36363558,2081.212121,7805.06060528,2452.12121188,7797.33333255,1017.93939384,7804.03030225,181.333333315,7802.99999922,1842.181818,7800.42424164,3593.69696934,7800.42424164,1648.48484832,7804.03030225,2311.99999977,7802.99999922,614.060605999,42.0,42.0,?
2017-08-01 19:57:31.006318,7800.42424164,296.727272698,7402.72727199,2035.87878768,7800.42424164,65.9393939328,7803.51515073,4079.99999959,7798.8787871,1809.21212103,7798.8787871,2081.212121,7802.4848477,2452.12121188,7797.84848407,1017.93939384,7804.03030225,181.333333315,7801.45454467,1842.181818,7800.42424164,3593.69696934,7800.42424164,1648.48484832,7804.03030225,2311.99999977,7798.8787871,614.060605999,42.0,42.0,?
2017-08-01 19:57:31.015395,7800.93939316,296.727272698,7359.96969623,2035.87878768,7800.93939316,65.9393939328,7795.27272649,4079.99999959,7797.33333255,1809.21212103,7798.8787871,1034.42424232,7798.36363558,2452.12121188,7797.84848407,1017.93939384,7804.03030225,181.333333315,7799.90909013,1842.181818,7800.42424164,3593.69696934,7800.42424164,1648.48484832,7804.03030225,2311.99999977,7799.39393861,614.060605999,42.0,42.0,?
2017-08-01 19:57:31.021621,7799.39393861,296.727272698,7279.09090836,2035.87878768,7799.90909013,65.9393939328,7796.81818104,4079.99999959,7798.36363558,1809.21212103,7798.8787871,1034.42424232,7798.8787871,1759.75757558,7797.33333255,1017.93939384,7804.03030225,181.333333315,7801.45454467,1842.181818,7800.42424164,3593.69696934,7800.42424164,1648.48484832,7804.03030225,2311.99999977,7800.93939316,614.060605999,42.0,42.0,?
2017-08-01 19:57:31.030699,7797.84848407,296.727272698,7048.3030296,2035.87878768,7798.8787871,65.9393939328,7801.96969619,4079.99999959,7800.42424164,1809.21212103,7798.8787871,1034.42424232,7800.42424164,1759.75757558,7799.39393861,210.181818161,7804.03030225,181.333333315,7801.45454467,1842.181818,7800.42424164,3593.69696934,7800.42424164,1648.48484832,7804.03030225,2311.99999977,7799.90909013,614.060605999,42.0,42.0,?
2017-08-01 19:57:31.037456,7798.8787871,296.727272698,6983.3939387,2035.87878768,7799.39393861,65.9393939328,7799.90909013,4079.99999959,7800.93939316,1809.21212103,7798.8787871,1034.42424232,7799.90909013,1759.75757558,7801.96969619,210.181818161,7804.03030225,12.3636363624,7801.45454467,1842.181818,7800.42424164,3593.69696934,7800.42424164,1648.48484832,7804.03030225,2311.99999977,7799.90909013,614.060605999,42.0,42.0,?
2017-08-01 19:57:31.045079,7800.42424164,296.727272698,7239.4242417,2035.87878768,7800.42424164,65.9393939328,7797.84848407,4079.99999959,7799.39393861,1809.21212103,7798.8787871,1034.42424232,7799.90909013,1759.75757558,7801.45454467,210.181818161,7804.03030225,12.3636363624,7801.96969619,671.75757569,7800.42424164,3593.69696934,7800.42424164,1648.48484832,7804.03030225,2311.99999977,7800.93939316,614.060605999,42.0,42.0,?
2017-08-01 19:57:31.053032,7800.42424164,296.727272698,7614.96969621,2035.87878768,7800.93939316,65.9393939328,7800.42424164,4079.99999959,7799.39393861,1809.21212103,7798.8787871,1034.42424232,7798.36363558,1759.75757558,7800.42424164,210.181818161,7804.03030225,12.3636363624,7801.45454467,671.75757569,7800.42424164,1792.72727255,7800.42424164,440.969696926,7804.03030225,2311.99999977,7800.42424164,614.060605999,42.0,42.0,?
2017-08-01 19:57:31.062574,7799.39393861,296.727272698,7649.99999924,2035.87878768,7800.93939316,65.9393939328,7798.8787871,4079.99999959,7799.90909013,1809.21212103,7798.8787871,1034.42424232,7798.36363558,1759.75757558,7800.93939316,210.181818161,7804.03030225,12.3636363624,7801.45454467,671.75757569,7800.42424164,1792.72727255,7800.42424164,440.969696926,7804.03030225,2311.99999977,7800.42424164,614.060605999,42.0,42.0,?
2017-08-01 19:57:31.067773,7799.39393861,296.727272698,7649.99999924,2035.87878768,7800.93939316,65.9393939328,7798.8787871,4079.99999959,7799.90909013,1809.21212103,7798.8787871,1034.42424232,7799.90909013,1759.75757558,7800.93939316,210.181818161,7804.03030225,12.3636363624,7801.45454467,671.75757569,7800.42424164,1792.72727255,7800.42424164,440.969696926,7804.03030225,325.575757543,7800.42424164,614.060605999,42.0,42.0,?
2017-08-01 19:57:31.077806,7799.39393861,296.727272698,7567.57575682,2035.87878768,7799.39393861,65.9393939328,7797.84848407,4079.99999959,7799.39393861,1809.21212103,7798.8787871,1034.42424232,7800.42424164,1759.75757558,7800.93939316,210.181818161,7804.03030225,12.3636363624,7801.45454467,671.75757569,7800.42424164,1792.72727255,7800.42424164,440.969696926,7804.03030225,325.575757543,7800.42424164,614.060605999,42.0,42.0,?
2017-08-01 19:57:31.085469,7800.42424164,296.727272698,7561.39393864,2035.87878768,7801.45454467,65.9393939328,7798.36363558,4079.99999959,7800.42424164,1809.21212103,7798.8787871,1034.42424232,7798.8787871,1759.75757558,7799.90909013,210.181818161,7804.03030225,12.3636363624,7801.45454467,671.75757569,7800.42424164,1792.72727255,7800.42424164,440.969696926,7804.03030225,325.575757543,7800.42424164,614.060605999,42.0,42.0,?
2017-08-01 19:57:31.096454,7800.42424164,296.727272698,7632.99999924,2035.87878768,7801.96969619,65.9393939328,7798.8787871,4079.99999959,7800.93939316,1809.21212103,7798.8787871,1034.42424232,7798.36363558,1759.75757558,7800.93939316,210.181818161,7804.03030225,12.3636363624,7801.45454467,671.75757569,7800.42424164,1792.72727255,7800.42424164,440.969696926,7804.03030225,325.575757543,7800.42424164,614.060605999,42.0,42.0,?
2017-08-01 19:57:31.101207,7800.42424164,296.727272698,7265.18181746,2035.87878768,7792.1818174,65.9393939328,7798.36363558,4079.99999959,7800.42424164,1809.21212103,7798.8787871,1034.42424232,7799.39393861,1759.75757558,7800.93939316,210.181818161,7804.03030225,12.3636363624,7801.45454467,671.75757569,7800.42424164,1792.72727255,7800.42424164,440.969696926,7804.03030225,325.575757543,7800.42424164,614.060605999,42.0,42.0,?
2017-08-01 19:57:31.107522,7800.42424164,296.727272698,6869.54545386,2035.87878768,7790.12121134,65.9393939328,7798.8787871,4079.99999959,7800.42424164,1809.21212103,7798.8787871,1034.42424232,7799.90909013,1759.75757558,7797.84848407,210.181818161,7804.03030225,12.3636363624,7801.45454467,671.75757569,7800.42424164,1792.72727255,7800.42424164,440.969696926,7804.03030225,325.575757543,7800.42424164,614.060605999,42.0,42.0,?
2017-08-01 19:57:31.116307,7800.42424164,296.727272698,7005.03030233,2035.87878768,7800.93939316,65.9393939328,7799.90909013,4079.99999959,7800.93939316,1809.21212103,7798.8787871,1034.42424232,7800.42424164,1759.75757558,7796.81818104,210.181818161,7804.03030225,12.3636363624,7801.45454467,671.75757569,7800.42424164,1792.72727255,7800.93939316,440.969696926,7804.03030225,325.575757543,7800.42424164,614.060605999,42.0,42.0,?
2017-08-01 19:57:31.124687,7800.42424164,296.727272698,7116.30302959,2035.87878768,7801.45454467,65.9393939328,7800.93939316,4079.99999959,7800.42424164,1809.21212103,7798.8787871,1034.42424232,7800.42424164,1759.75757558,7799.90909013,210.181818161,7804.03030225,12.3636363624,7801.45454467,671.75757569,7800.42424164,1792.72727255,7799.39393861,440.969696926,7804.03030225,325.575757543,7800.42424164,614.060605999,42.0,42.0,?
2017-08-01 19:57:31.131736,7800.42424164,296.727272698,6799.99999932,2035.87878768,7794.24242346,65.9393939328,7800.93939316,4079.99999959,7798.36363558,1809.21212103,7798.8787871,1034.42424232,7799.39393861,1759.75757558,7801.96969619,210.181818161,7804.03030225,12.3636363624,7801.45454467,671.75757569,7800.42424164,1792.72727255,7797.84848407,440.969696926,7804.03030225,325.575757543,7800.42424164,614.060605999,42.0,42.0,?
2017-08-01 19:57:31.138624,7800.42424164,296.727272698,6606.81818116,2035.87878768,7791.15151437,65.9393939328,7800.93939316,4079.99999959,7798.36363558,1809.21212103,7798.8787871,1034.42424232,7799.39393861,1759.75757558,7801.45454467,210.181818161,7804.03030225,12.3636363624,7801.45454467,671.75757569,7800.93939316,1792.72727255,7798.8787871,440.969696926,7804.54545377,325.575757543,7800.42424164,614.060605999,42.0,42.0,?
2017-08-01 19:57:31.148353,7800.42424164,296.727272698,6760.33333266,2035.87878768,7796.81818104,65.9393939328,7801.45454467,4079.99999959,7801.45454467,1809.21212103,7798.8787871,1034.42424232,7799.39393861,1759.75757558,7800.93939316,210.181818161,7804.03030225,12.3636363624,7801.45454467,671.75757569,7800.93939316,1792.72727255,7799.90909013,440.969696926,7804.03030225,325.575757543,7800.42424164,614.060605999,42.0,42.0,?
2017-08-01 19:57:31.153600,7800.42424164,296.727272698,6861.81818113,2035.87878768,7797.84848407,65.9393939328,7799.90909013,4079.99999959,7801.45454467,1809.21212103,7798.8787871,1034.42424232,7799.39393861,1759.75757558,7800.93939316,210.181818161,7804.03030225,12.3636363624,7801.45454467,671.75757569,7798.8787871,1792.72727255,7799.39393861,440.969696926,7802.99999922,325.575757543,7800.42424164,614.060605999,42.0,42.0,?
2017-08-01 19:57:31.162461,7800.42424164,296.727272698,6731.99999933,2035.87878768,7766.93939316,65.9393939328,7796.81818104,4079.99999959,7799.39393861,1809.21212103,7798.8787871,1034.42424232,7799.39393861,1759.75757558,7800.42424164,210.181818161,7804.03030225,12.3636363624,7801.45454467,671.75757569,7800.93939316,1792.72727255,7799.90909013,440.969696926,7805.5757568,325.575757543,7800.42424164,614.060605999,42.0,42.0,?
2017-08-01 19:57:31.173651,7800.93939316,296.727272698,6506.36363571,2035.87878768,7724.18181741,65.9393939328,7791.15151437,4079.99999959,7800.93939316,1809.21212103,7799.39393861,1034.42424232,7800.42424164,1759.75757558,7800.93939316,210.181818161,7804.03030225,12.3636363624,7802.4848477,671.75757569,7802.99999922,1792.72727255,7801.45454467,440.969696926,7802.99999922,325.575757543,7800.42424164,614.060605999,42.0,42.0,?
2017-08-01 19:57:31.178399,7800.42424164,296.727272698,6573.33333268,2035.87878768,7729.84848408,65.9393939328,7784.96969619,4079.99999959,7801.45454467,1809.21212103,7799.39393861,1034.42424232,7802.4848477,1759.75757558,7801.45454467,210.181818161,7804.03030225,12.3636363624,7802.4848477,671.75757569,7795.78787801,1792.72727255,7800.93939316,440.969696926,7795.27272649,325.575757543,7800.93939316,614.060605999,42.0,42.0,?
2017-08-01 19:57:31.185828,7798.36363558,296.727272698,6696.9696963,2035.87878768,7741.69696892,65.9393939328,7774.66666589,4079.99999959,7796.30302952,1809.21212103,7797.84848407,1034.42424232,7797.33333255,1759.75757558,7799.39393861,210.181818161,7804.54545377,12.3636363624,7800.42424164,671.75757569,7787.54545377,1792.72727255,7799.39393861,440.969696926,7794.24242346,325.575757543,7799.90909013,614.060605999,42.0,42.0,?
2017-08-01 19:57:31.193530,7799.39393861,296.727272698,6643.39393873,2035.87878768,7742.21212044,65.9393939328,7783.42424165,4079.99999959,7797.84848407,1809.21212103,7798.8787871,1034.42424232,7797.84848407,1759.75757558,7800.42424164,210.181818161,7804.03030225,12.3636363624,7802.4848477,671.75757569,7792.1818174,1792.72727255,7800.93939316,440.969696926,7797.84848407,325.575757543,7799.90909013,614.060605999,42.0,42.0,?
2017-08-01 19:57:31.201287,7801.45454467,296.727272698,6846.36363568,2035.87878768,7793.21212043,65.9393939328,7815.36363558,4079.99999959,7803.51515073,1809.21212103,7799.39393861,1034.42424232,7806.09090831,1759.75757558,7802.4848477,210.181818161,7803.51515073,12.3636363624,7801.96969619,671.75757569,7812.78787801,1792.72727255,7801.45454467,440.969696926,7808.66666589,325.575757543,7801.96969619,614.060605999,42.0,42.0,?
2017-08-01 19:57:31.208680,7797.84848407,296.727272698,6957.12121143,2035.87878768,7753.54545377,65.9393939328,7756.12121135,4079.99999959,7779.81818104,1809.21212103,7790.63636286,1034.42424232,7781.8787871,1759.75757558,7793.72727195,210.181818161,7806.09090831,12.3636363624,7789.09090831,671.75757569,7788.06060528,1792.72727255,7791.15151437,440.969696926,7803.51515073,325.575757543,7796.81818104,614.060605999,42.0,42.0,?
2017-08-01 19:57:31.217060,7796.30302952,296.727272698,6661.42424176,2035.87878768,7622.18181742,65.9393939328,7652.0606053,4079.99999959,7757.15151438,1809.21212103,7785.48484771,1034.42424232,7748.90909013,1759.75757558,7785.99999922,210.181818161,7801.45454467,12.3636363624,7780.84848407,671.75757569,7724.18181741,1792.72727255,7782.90909013,440.969696926,7764.8787871,325.575757543,7792.1818174,614.060605999,42.0,42.0,?
2017-08-01 19:57:31.224818,7799.90909013,296.727272698,6723.75757509,2035.87878768,7665.9696962,65.9393939328,7698.42424165,4079.99999959,7779.30302953,1809.21212103,7794.75757498,1034.42424232,7769.51515074,1759.75757558,7795.78787801,210.181818161,7794.75757498,12.3636363624,7792.69696892,671.75757569,7732.93939317,1792.72727255,7792.69696892,440.969696926,7755.09090832,325.575757543,7800.93939316,614.060605999,42.0,42.0,?
2017-08-01 19:57:31.233078,7800.42424164,296.727272698,7210.06060534,2035.87878768,7812.27272649,65.9393939328,7811.24242346,4079.99999959,7805.06060528,1809.21212103,7804.54545377,1034.42424232,7805.5757568,1759.75757558,7806.09090831,210.181818161,7797.84848407,12.3636363624,7805.5757568,671.75757569,7796.81818104,1792.72727255,7804.54545377,440.969696926,7794.24242346,325.575757543,7808.15151437,614.060605999,42.0,42.0,?
2017-08-01 19:57:31.240390,7799.90909013,296.727272698,7224.99999928,2035.87878768,7820.51515073,65.9393939328,7814.33333255,4079.99999959,7801.45454467,1809.21212103,7804.54545377,1034.42424232,7803.51515073,1759.75757558,7803.51515073,210.181818161,7802.99999922,12.3636363624,7804.54545377,671.75757569,7813.81818104,1792.72727255,7804.03030225,440.969696926,7814.33333255,325.575757543,7800.93939316,614.060605999,42.0,42.0,?
2017-08-01 19:57:31.247663,7801.45454467,296.727272698,6820.09090841,2035.87878768,7756.12121135,65.9393939328,7773.63636286,4079.99999959,7796.81818104,1809.21212103,7803.51515073,1034.42424232,7795.27272649,1759.75757558,7801.45454467,210.181818161,7800.93939316,12.3636363624,7802.99999922,671.75757569,7791.66666589,1792.72727255,7802.4848477,440.969696926,7799.90909013,325.575757543,7796.30302952,614.060605999,42.0,42.0,?
2017-08-01 19:57:31.256156,7800.42424164,296.727272698,6535.72727207,2035.87878768,7684.51515075,65.9393939328,7743.75757498,4079.99999959,7799.90909013,1809.21212103,7804.54545377,1034.42424232,7799.39393861,1759.75757558,7806.60605983,210.181818161,7799.90909013,12.3636363624,7805.06060528,671.75757569,7776.21212043,1792.72727255,7803.51515073,440.969696926,7788.5757568,325.575757543,7800.93939316,614.060605999,42.0,42.0,?
2017-08-01 19:57:31.263609,7798.8787871,296.727272698,6409.51515087,2035.87878768,7623.72727196,65.9393939328,7709.24242347,4079.99999959,7797.33333255,1809.21212103,7804.54545377,1034.42424232,7797.84848407,1759.75757558,7804.54545377,210.181818161,7801.96969619,12.3636363624,7805.06060528,671.75757569,7777.24242346,1792.72727255,7800.42424164,440.969696926,7789.60605983,325.575757543,7800.93939316,614.060605999,42.0,42.0,?
2017-08-01 19:57:31.273235,7800.42424164,296.727272698,6448.15151451,2035.87878768,7661.33333257,65.9393939328,7729.33333256,4079.99999959,7799.90909013,1809.21212103,7804.03030225,1034.42424232,7797.84848407,1759.75757558,7797.33333255,210.181818161,7801.45454467,12.3636363624,7803.51515073,671.75757569,7795.78787801,1792.72727255,7797.84848407,440.969696926,7796.81818104,325.575757543,7798.36363558,614.060605999,42.0,42.0,?
2017-08-01 19:57:31.280111,7800.93939316,296.727272698,6588.78787813,2035.87878768,7734.99999923,65.9393939328,7779.30302953,4079.99999959,7801.96969619,1809.21212103,7804.03030225,1034.42424232,7801.45454467,1759.75757558,7796.30302952,210.181818161,7801.45454467,12.3636363624,7804.03030225,671.75757569,7802.4848477,1792.72727255,7798.8787871,440.969696926,7803.51515073,325.575757543,7799.90909013,614.060605999,42.0,42.0,?
2017-08-01 19:57:31.288623,7800.42424164,296.727272698,6768.5757569,2035.87878768,7747.8787871,65.9393939328,7785.48484771,4079.99999959,7798.8787871,1809.21212103,7804.03030225,1034.42424232,7800.42424164,1759.75757558,7799.90909013,210.181818161,7801.96969619,12.3636363624,7804.54545377,671.75757569,7788.5757568,1792.72727255,7799.90909013,440.969696926,7798.36363558,325.575757543,7800.93939316,614.060605999,42.0,42.0,?
2017-08-01 19:57:31.296407,7800.42424164,296.727272698,6844.30302962,2035.87878768,7733.45454468,65.9393939328,7774.15151437,4079.99999959,7798.8787871,1809.21212103,7804.03030225,1034.42424232,7799.90909013,1759.75757558,7799.39393861,210.181818161,7801.45454467,12.3636363624,7799.90909013,671.75757569,7793.72727195,1792.72727255,7799.90909013,440.969696926,7796.81818104,325.575757543,7800.42424164,614.060605999,42.0,42.0,?
2017-08-01 19:57:31.306593,7800.93939316,296.727272698,6726.33333266,2035.87878768,7734.99999923,65.9393939328,7777.75757498,4079.99999959,7799.90909013,1809.21212103,7805.06060528,1034.42424232,7800.93939316,1759.75757558,7798.36363558,210.181818161,7801.45454467,12.3636363624,7797.33333255,671.75757569,7801.45454467,1792.72727255,7800.93939316,440.969696926,7800.42424164,325.575757543,7800.93939316,614.060605999,42.0,42.0,?
2017-08-01 19:57:31.311383,7800.93939316,296.727272698,6693.87878721,2035.87878768,7753.54545377,65.9393939328,7787.54545377,4079.99999959,7800.42424164,1809.21212103,7804.54545377,1034.42424232,7801.96969619,1759.75757558,7800.42424164,210.181818161,7801.96969619,12.3636363624,7801.45454467,671.75757569,7795.27272649,1792.72727255,7801.45454467,440.969696926,7800.93939316,325.575757543,7800.93939316,614.060605999,42.0,42.0,?
2017-08-01 19:57:31.320236,7799.90909013,296.727272698,6779.90909023,2035.87878768,7757.15151438,65.9393939328,7782.39393862,4079.99999959,7798.8787871,1809.21212103,7802.99999922,1034.42424232,7800.42424164,1759.75757558,7798.8787871,210.181818161,7801.45454467,12.3636363624,7802.4848477,671.75757569,7797.33333255,1792.72727255,7799.90909013,440.969696926,7802.99999922,325.575757543,7799.90909013,614.060605999,42.0,42.0,?
2017-08-01 19:57:31.326748,7800.42424164,296.727272698,6830.90909023,2035.87878768,7757.66666589,65.9393939328,7789.09090831,4079.99999959,7804.54545377,1809.21212103,7805.5757568,1034.42424232,7804.54545377,1759.75757558,7798.36363558,210.181818161,7801.45454467,12.3636363624,7804.54545377,671.75757569,7805.5757568,1792.72727255,7802.4848477,440.969696926,7802.4848477,325.575757543,7800.93939316,614.060605999,42.0,42.0,?
2017-08-01 19:57:31.335409,7802.99999922,296.727272698,6794.33333265,2035.87878768,7742.72727195,65.9393939328,7782.90909013,4079.99999959,7805.06060528,1809.21212103,7806.09090831,1034.42424232,7801.45454467,1759.75757558,7802.4848477,210.181818161,7801.96969619,12.3636363624,7806.09090831,671.75757569,7794.75757498,1792.72727255,7803.51515073,440.969696926,7796.81818104,325.575757543,7802.99999922,614.060605999,42.0,42.0,?
2017-08-01 19:57:31.342678,7800.42424164,296.727272698,6835.54545386,2035.87878768,7736.54545377,65.9393939328,7768.48484771,4079.99999959,7795.78787801,1809.21212103,7797.33333255,1034.42424232,7794.75757498,1759.75757558,7803.51515073,210.181818161,7801.96969619,12.3636363624,7800.42424164,671.75757569,7800.42424164,1792.72727255,7802.99999922,440.969696926,7813.30302952,325.575757543,7803.51515073,614.060605999,42.0,42.0,?
2017-08-01 19:57:31.350168,7796.30302952,296.727272698,6988.54545385,2035.87878768,7721.60605983,65.9393939328,7743.24242347,4079.99999959,7782.39393862,1809.21212103,7788.5757568,1034.42424232,7782.90909013,1759.75757558,7797.33333255,210.181818161,7801.96969619,12.3636363624,7793.21212043,671.75757569,7782.90909013,1792.72727255,7799.39393861,440.969696926,7801.96969619,325.575757543,7797.33333255,614.060605999,42.0,42.0,?
2017-08-01 19:57:31.357575,7796.30302952,296.727272698,6905.60605992,2035.87878768,7641.24242348,65.9393939328,7673.18181741,4079.99999959,7770.03030225,1809.21212103,7792.69696892,1034.42424232,7761.78787801,1759.75757558,7797.33333255,210.181818161,7799.90909013,12.3636363624,7793.21212043,671.75757569,7717.99999923,1792.72727255,7792.69696892,440.969696926,7750.96969619,325.575757543,7793.21212043,614.060605999,42.0,42.0,?
2017-08-01 19:57:31.365434,7807.12121134,296.727272698,6604.24242358,2035.87878768,7618.57575681,65.9393939328,7677.81818105,4079.99999959,7779.81818104,1809.21212103,7803.51515073,1034.42424232,7773.63636286,1759.75757558,7805.5757568,210.181818161,7799.39393861,12.3636363624,7800.93939316,671.75757569,7745.81818104,1792.72727255,7795.27272649,440.969696926,7765.90909013,325.575757543,7802.99999922,614.060605999,42.0,42.0,?
2017-08-01 19:57:31.373268,7807.12121134,296.727272698,6361.09090845,2035.87878768,7554.69696894,65.9393939328,7621.6666659,4079.99999959,7757.66666589,1809.21212103,7779.81818104,1034.42424232,7746.84848407,1759.75757558,7798.8787871,210.181818161,7815.8787871,12.3636363624,7792.69696892,671.75757569,7712.84848408,1792.72727255,7790.12121134,440.969696926,7741.18181741,325.575757543,7802.4848477,614.060605999,42.0,42.0,?
2017-08-01 19:57:31.382947,7729.33333256,296.727272698,6077.24242363,2035.87878768,7204.90909019,65.9393939328,7185.84848413,4079.99999959,7541.30302955,1809.21212103,7649.99999924,1034.42424232,7517.09090834,1759.75757558,7673.69696893,210.181818161,7774.66666589,12.3636363624,7635.57575681,671.75757569,7498.5454538,1792.72727255,7634.54545378,440.969696926,7666.99999923,325.575757543,7688.12121135,614.060605999,42.0,42.0,?
2017-08-01 19:57:31.390458,7665.9696962,296.727272698,5831.51515093,2035.87878768,6914.36363567,65.9393939328,6777.33333266,4079.99999959,7326.99999927,1809.21212103,7537.18181743,1034.42424232,7295.57575685,1759.75757558,7521.21212046,210.181818161,7705.12121135,12.3636363624,7440.8484841,671.75757569,7433.12121138,1792.72727255,7428.48484774,440.969696926,7681.42424166,325.575757543,7552.12121137,614.060605999,42.0,42.0,?
2017-08-01 19:57:31.396689,7714.90909014,296.727272698,5962.87878728,2035.87878768,7021.51515081,65.9393939328,6877.7878781,4079.99999959,7400.66666593,1809.21212103,7586.12121136,1034.42424232,7366.15151441,1759.75757558,7560.36363561,210.181818161,7719.54545377,12.3636363624,7496.48484774,671.75757569,7533.57575682,1792.72727255,7479.99999925,440.969696926,7714.39393862,325.575757543,7602.60605985,614.060605999,42.0,42.0,?
2017-08-01 19:57:31.407829,7660.81818105,296.727272698,6042.72727212,2035.87878768,7013.78787809,65.9393939328,6860.27272659,4079.99999959,7334.72727199,1809.21212103,7500.60605986,1034.42424232,7318.75757503,1759.75757558,7475.87878713,210.181818161,7651.54545378,12.3636363624,7451.15151441,671.75757569,7451.66666592,1792.72727255,7467.12121137,440.969696926,7712.84848408,325.575757543,7543.36363561,614.060605999,42.0,42.0,?
2017-08-01 19:57:31.412904,7459.39393865,296.727272698,5720.24242367,2035.87878768,6669.666666,65.9393939328,6411.57575693,4079.99999959,6952.48484779,1809.21212103,7219.33333261,1034.42424232,6949.3939387,1759.75757558,7126.60605989,210.181818161,7487.72727198,12.3636363624,7068.9090902,671.75757569,7201.8181811,1792.72727255,7098.27272656,440.969696926,7615.99999924,325.575757543,7219.84848413,614.060605999,42.0,42.0,?
2017-08-01 19:57:31.421632,7475.36363562,296.727272698,5790.81818124,2035.87878768,6720.15151448,65.9393939328,6457.42424178,4079.99999959,6975.15151445,1809.21212103,7255.39393867,1034.42424232,6955.06060537,1759.75757558,7135.87878717,210.181818161,7537.18181743,12.3636363624,7039.03030233,671.75757569,7216.24242352,1792.72727255,7024.09090839,440.969696926,7525.8484841,325.575757543,7201.30302958,614.060605999,42.0,42.0,?
2017-08-01 19:57:31.432372,7696.87878711,296.727272698,6346.15151452,2035.87878768,7175.03030231,65.9393939328,7039.03030233,4079.99999959,7439.30302956,1809.21212103,7597.45454469,1034.42424232,7415.09090835,1759.75757558,7555.21212046,210.181818161,7733.9696962,12.3636363624,7494.93939319,671.75757569,7502.1515144,1792.72727255,7458.36363562,440.969696926,7607.757575,325.575757543,7574.27272652,614.060605999,42.0,42.0,?
2017-08-01 19:57:31.437174,7745.81818104,296.727272698,6393.54545391,2035.87878768,7219.84848413,65.9393939328,7129.18181747,4079.99999959,7555.72727197,1809.21212103,7686.06060529,1034.42424232,7519.1515144,1759.75757558,7678.33333257,210.181818161,7760.75757498,12.3636363624,7640.72727196,671.75757569,7592.81818106,1792.72727255,7621.15151439,440.969696926,7715.42424165,325.575757543,7702.54545378,614.060605999,42.0,42.0,?
2017-08-01 19:57:31.445525,7689.15151438,296.727272698,6118.45454484,2035.87878768,7031.81818111,65.9393939328,6922.0909084,4079.99999959,7419.72727199,1809.21212103,7591.78787803,1034.42424232,7340.39393866,1759.75757558,7550.06060531,210.181818161,7722.12121135,12.3636363624,7489.78787804,671.75757569,7473.81818107,1792.72727255,7467.63636289,440.969696926,7671.63636287,325.575757543,7600.03030227,614.060605999,42.0,42.0,?
2017-08-01 19:57:31.451895,7757.15151438,296.727272698,6717.5757569,2035.87878768,7365.6363629,65.9393939328,7312.06060533,4079.99999959,7606.72727197,1809.21212103,7697.39393862,1034.42424232,7540.27272652,1759.75757558,7669.06060529,210.181818161,7783.93939316,12.3636363624,7629.90909015,671.75757569,7579.93939318,1792.72727255,7608.27272651,440.969696926,7695.84848408,325.575757543,7701.51515075,614.060605999,42.0,42.0,?
2017-08-01 19:57:31.459359,7826.69696891,296.727272698,7550.57575682,2035.87878768,7825.66666588,65.9393939328,7843.1818174,4079.99999959,7853.4848477,1809.21212103,7833.90909013,1034.42424232,7855.03030224,1759.75757558,7839.06060528,210.181818161,7817.93939316,12.3636363624,7848.33333255,671.75757569,7844.72727194,1792.72727255,7847.30302952,440.969696926,7838.54545376,325.575757543,7840.60605982,614.060605999,42.0,42.0,?
2017-08-01 19:57:31.467991,7804.54545377,296.727272698,7300.727272,2035.87878768,7768.99999922,65.9393939328,7802.99999922,4079.99999959,7828.75757497,1809.21212103,7815.36363558,1034.42424232,7839.06060528,1759.75757558,7822.06060528,210.181818161,7801.96969619,12.3636363624,7827.72727194,671.75757569,7839.57575679,1792.72727255,7831.33333255,440.969696926,7819.99999922,325.575757543,7816.90909013,614.060605999,42.0,42.0,?
2017-08-01 19:57:31.477514,7788.06060528,12.3636363624,6668.63636297,2035.87878768,7569.63636288,65.9393939328,7627.33333257,4079.99999959,7752.51515074,1809.21212103,7780.33333256,1034.42424232,7737.06060529,1759.75757558,7780.33333256,210.181818161,7798.8787871,12.3636363624,7769.51515074,671.75757569,7721.09090832,1792.72727255,7772.60605983,440.969696926,7758.18181741,325.575757543,7788.06060528,614.060605999,42.0,42.0,?
2017-08-01 19:57:31.483157,7796.30302952,12.3636363624,6534.18181753,2077.09090888,7515.54545379,65.9393939328,7596.42424166,4079.99999959,7756.12121135,1809.21212103,7784.96969619,1034.42424232,7742.72727195,1759.75757558,7784.45454468,210.181818161,7797.33333255,12.3636363624,7778.78787801,671.75757569,7737.06060529,1792.72727255,7788.5757568,440.969696926,7784.96969619,325.575757543,7796.30302952,614.060605999,42.0,42.0,?
2017-08-01 19:57:31.490636,7783.42424165,12.3636363624,6488.8484842,2077.09090888,7459.39393865,65.9393939328,7490.30302955,4079.99999959,7729.33333256,1809.21212103,7761.78787801,1034.42424232,7725.21212044,1759.75757558,7767.45454468,210.181818161,7783.42424165,12.3636363624,7753.03030226,671.75757569,7747.36363559,1792.72727255,7756.63636286,440.969696926,7793.21212043,325.575757543,7770.03030225,12.3636363624,42.0,42.0,?
2017-08-01 19:57:31.498356,7779.81818104,12.3636363624,6598.57575692,2077.09090888,7550.57575682,1644.3636362,7527.90909016,4079.99999959,7723.15151438,1809.21212103,7753.54545377,1034.42424232,7722.12121135,1759.75757558,7757.66666589,210.181818161,7779.30302953,12.3636363624,7737.5757568,671.75757569,7741.69696892,1792.72727255,7738.09090832,440.969696926,7787.03030225,325.575757543,7757.66666589,12.3636363624,42.0,42.0,?
2017-08-01 19:57:31.506477,7795.27272649,12.3636363624,7077.66666596,2077.09090888,7734.48484771,1644.3636362,7739.63636286,1611.39393923,7778.27272649,1809.21212103,7790.63636286,1034.42424232,7776.72727195,1759.75757558,7790.12121134,210.181818161,7796.81818104,12.3636363624,7782.39393862,671.75757569,7755.09090832,1792.72727255,7788.5757568,440.969696926,7780.84848407,325.575757543,7791.15151437,12.3636363624,42.0,42.0,?
2017-08-01 19:57:31.516098,7800.42424164,12.3636363624,7239.4242417,2077.09090888,7785.99999922,1644.3636362,7810.72727195,1611.39393923,7805.5757568,189.575757557,7808.66666589,1034.42424232,7801.96969619,1759.75757558,7807.63636286,210.181818161,7808.15151437,12.3636363624,7808.66666589,671.75757569,7788.06060528,1792.72727255,7813.30302952,440.969696926,7790.63636286,325.575757543,7810.21212043,12.3636363624,42.0,42.0,?
2017-08-01 19:57:31.521829,7798.36363558,12.3636363624,7144.63636292,2077.09090888,7814.84848407,1644.3636362,7813.81818104,1611.39393923,7812.78787801,189.575757557,7805.06060528,12.3636363624,7816.90909013,1759.75757558,7803.51515073,210.181818161,7804.03030225,12.3636363624,7804.54545377,671.75757569,7825.15151437,1792.72727255,7804.03030225,440.969696926,7810.72727195,325.575757543,7806.09090831,12.3636363624,42.0,42.0,?
2017-08-01 19:57:31.529843,7787.54545377,12.3636363624,6982.36363567,2077.09090888,7681.93939317,1644.3636362,7681.42424166,1611.39393923,7751.99999922,189.575757557,7767.45454468,12.3636363624,7760.24242347,74.1818181744,7774.66666589,210.181818161,7794.24242346,12.3636363624,7765.39393862,671.75757569,7759.72727195,1792.72727255,7767.96969619,440.969696926,7791.66666589,325.575757543,7781.8787871,12.3636363624,42.0,42.0,?
2017-08-01 19:57:31.537242,7771.06060528,12.3636363624,6557.36363571,2077.09090888,7396.54545381,1644.3636362,7401.18181744,1611.39393923,7652.57575681,189.575757557,7717.99999923,12.3636363624,7643.81818105,74.1818181744,7736.54545377,8.2424242416,7787.54545377,12.3636363624,7710.78787802,671.75757569,7638.6666659,1792.72727255,7725.21212044,440.969696926,7725.72727195,325.575757543,7753.54545377,12.3636363624,42.0,42.0,?
2017-08-01 19:57:31.547197,7779.81818104,12.3636363624,6459.99999935,2077.09090888,7434.15151441,1644.3636362,7433.63636289,1611.39393923,7697.39393862,189.575757557,7747.8787871,12.3636363624,7673.18181741,74.1818181744,7758.18181741,8.2424242416,7793.21212043,0.0,7737.5757568,671.75757569,7661.84848408,1792.72727255,7753.03030226,440.969696926,7721.60605983,325.575757543,7771.06060528,12.3636363624,42.0,42.0,?
2017-08-01 19:57:31.553224,7803.51515073,12.3636363624,6884.4848478,2077.09090888,7751.99999922,1644.3636362,7759.21212044,1611.39393923,7816.90909013,189.575757557,7811.75757498,12.3636363624,7808.15151437,74.1818181744,7810.72727195,8.2424242416,7801.96969619,0.0,7810.72727195,0.0,7796.30302952,1792.72727255,7811.75757498,440.969696926,7798.36363558,325.575757543,7808.15151437,12.3636363624,42.0,42.0,?
2017-08-01 19:57:31.561305,7803.51515073,12.3636363624,7189.45454474,2077.09090888,7849.36363558,1644.3636362,7852.45454467,1611.39393923,7816.39393861,189.575757557,7806.60605983,12.3636363624,7823.09090831,74.1818181744,7811.75757498,8.2424242416,7798.36363558,0.0,7814.84848407,0.0,7825.15151437,8.2424242416,7806.60605983,440.969696926,7823.60605982,325.575757543,7805.5757568,12.3636363624,42.0,42.0,?
2017-08-01 19:57:31.568659,7798.36363558,12.3636363624,7196.15151443,2077.09090888,7755.09090832,1644.3636362,7762.81818104,1611.39393923,7780.84848407,189.575757557,7789.60605983,12.3636363624,7780.33333256,74.1818181744,7793.21212043,8.2424242416,7796.81818104,0.0,7790.63636286,0.0,7782.90909013,8.2424242416,7790.12121134,4.1212121208,7791.66666589,325.575757543,7798.8787871,12.3636363624,42.0,42.0,?
2017-08-01 19:57:31.578286,7805.06060528,12.3636363624,7212.63636292,2077.09090888,7741.69696892,1644.3636362,7765.90909013,1611.39393923,7800.42424164,189.575757557,7803.51515073,12.3636363624,7795.27272649,74.1818181744,7798.8787871,8.2424242416,7800.93939316,0.0,7795.27272649,0.0,7792.1818174,8.2424242416,7803.51515073,4.1212121208,7794.75757498,0.0,7808.15151437,12.3636363624,42.0,42.0,?
2017-08-01 19:57:31.584509,7805.5757568,12.3636363624,7041.09090839,2077.09090888,7753.03030226,1644.3636362,7779.81818104,1611.39393923,7802.99999922,189.575757557,7803.51515073,12.3636363624,7800.42424164,74.1818181744,7802.4848477,8.2424242416,7799.90909013,0.0,7798.8787871,0.0,7798.36363558,8.2424242416,7801.96969619,4.1212121208,7805.5757568,0.0,7806.60605983,12.3636363624,42.0,42.0,?
2017-08-01 19:57:31.593355,7802.99999922,12.3636363624,6905.0909084,2077.09090888,7761.2727265,1644.3636362,7776.72727195,1611.39393923,7797.33333255,189.575757557,7798.36363558,12.3636363624,7794.75757498,74.1818181744,7801.45454467,8.2424242416,7798.36363558,0.0,7802.99999922,0.0,7795.78787801,8.2424242416,7796.81818104,4.1212121208,7799.39393861,0.0,7804.03030225,12.3636363624,42.0,42.0,?
2017-08-01 19:57:31.599792,7804.03030225,12.3636363624,7206.96969625,2077.09090888,7784.96969619,1644.3636362,7792.69696892,1611.39393923,7800.42424164,189.575757557,7800.93939316,12.3636363624,7802.4848477,74.1818181744,7799.90909013,8.2424242416,7798.8787871,0.0,7805.5757568,0.0,7806.60605983,8.2424242416,7800.42424164,4.1212121208,7800.93939316,0.0,7805.06060528,12.3636363624,42.0,42.0,?
2017-08-01 19:57:31.607692,7804.03030225,12.3636363624,7274.96969624,2077.09090888,7777.24242346,1644.3636362,7782.90909013,1611.39393923,7794.24242346,189.575757557,7799.90909013,12.3636363624,7798.8787871,74.1818181744,7798.8787871,8.2424242416,7798.8787871,0.0,7800.93939316,0.0,7802.4848477,8.2424242416,7799.90909013,4.1212121208,7799.39393861,0.0,7804.03030225,12.3636363624,42.0,42.0,?
2017-08-01 19:57:31.615873,7803.51515073,12.3636363624,6939.0909084,2077.09090888,7777.24242346,1644.3636362,7781.36363559,1611.39393923,7799.39393861,189.575757557,7799.90909013,12.3636363624,7800.42424164,74.1818181744,7800.93939316,8.2424242416,7798.8787871,0.0,7803.51515073,0.0,7803.51515073,8.2424242416,7800.42424164,4.1212121208,7800.42424164,0.0,7804.54545377,12.3636363624,42.0,42.0,?
2017-08-01 19:57:31.625282,7803.51515073,12.3636363624,6951.45454476,2077.09090888,7786.51515074,1644.3636362,7792.1818174,1611.39393923,7801.96969619,189.575757557,7799.39393861,12.3636363624,7800.42424164,74.1818181744,7799.90909013,8.2424242416,7798.8787871,0.0,7804.54545377,0.0,7804.54545377,8.2424242416,7799.90909013,4.1212121208,7800.93939316,0.0,7803.51515073,12.3636363624,42.0,42.0,?
2017-08-01 19:57:31.633196,7803.51515073,12.3636363624,7310.51515078,2077.09090888,7798.36363558,1644.3636362,7802.4848477,1611.39393923,7798.8787871,189.575757557,7799.39393861,12.3636363624,7796.81818104,74.1818181744,7800.93939316,8.2424242416,7798.8787871,0.0,7804.03030225,0.0,7802.4848477,8.2424242416,7800.42424164,4.1212121208,7800.93939316,0.0,7804.03030225,12.3636363624,42.0,42.0,?
2017-08-01 19:57:31.639554,7803.51515073,12.3636363624,7357.39393866,2077.09090888,7802.99999922,1644.3636362,7805.5757568,1611.39393923,7799.39393861,189.575757557,7799.39393861,12.3636363624,7799.39393861,74.1818181744,7800.42424164,8.2424242416,7798.8787871,0.0,7804.03030225,0.0,7804.54545377,8.2424242416,7800.93939316,4.1212121208,7802.4848477,0.0,7805.06060528,12.3636363624,42.0,42.0,?
2017-08-01 19:57:31.646914,7803.51515073,12.3636363624,7190.99999928,2077.09090888,7793.72727195,1644.3636362,7799.90909013,1611.39393923,7798.8787871,189.575757557,7799.39393861,12.3636363624,7801.96969619,74.1818181744,7797.84848407,8.2424242416,7798.8787871,0.0,7804.03030225,0.0,7802.99999922,8.2424242416,7800.42424164,4.1212121208,7801.45454467,0.0,7799.90909013,12.3636363624,42.0,42.0,?
2017-08-01 19:57:31.655018,7803.51515073,12.3636363624,7099.81818111,2077.09090888,7781.8787871,1644.3636362,7794.24242346,1611.39393923,7797.84848407,189.575757557,7799.39393861,12.3636363624,7800.93939316,74.1818181744,7798.8787871,8.2424242416,7798.8787871,0.0,7804.03030225,0.0,7797.84848407,8.2424242416,7800.42424164,4.1212121208,7801.96969619,0.0,7795.27272649,12.3636363624,42.0,42.0,?
2017-08-01 19:57:31.665962,7803.51515073,12.3636363624,6975.66666597,2077.09090888,7777.24242346,1644.3636362,7790.12121134,1611.39393923,7798.36363558,189.575757557,7799.39393861,12.3636363624,7798.36363558,74.1818181744,7800.42424164,8.2424242416,7798.8787871,0.0,7804.03030225,0.0,7797.84848407,8.2424242416,7800.42424164,4.1212121208,7801.96969619,0.0,7799.90909013,12.3636363624,42.0,42.0,?
2017-08-01 19:57:31.670010,7803.51515073,12.3636363624,7068.9090902,2077.09090888,7790.12121134,1644.3636362,7793.72727195,1611.39393923,7800.42424164,189.575757557,7799.39393861,12.3636363624,7798.36363558,74.1818181744,7799.90909013,8.2424242416,7798.8787871,0.0,7804.03030225,0.0,7801.45454467,8.2424242416,7800.42424164,4.1212121208,7801.45454467,0.0,7805.06060528,12.3636363624,42.0,42.0,?
2017-08-01 19:57:31.681367,7803.51515073,12.3636363624,7143.60605989,2077.09090888,7791.15151437,1644.3636362,7791.15151437,1611.39393923,7800.93939316,189.575757557,7799.39393861,12.3636363624,7799.90909013,74.1818181744,7798.8787871,8.2424242416,7798.8787871,0.0,7804.03030225,0.0,7798.8787871,8.2424242416,7800.42424164,4.1212121208,7801.45454467,0.0,7804.03030225,12.3636363624,42.0,42.0,?
2017-08-01 19:57:31.686756,7803.51515073,12.3636363624,6983.3939387,2077.09090888,7785.48484771,1644.3636362,7789.60605983,1611.39393923,7799.39393861,189.575757557,7799.39393861,12.3636363624,7800.42424164,74.1818181744,7799.39393861,8.2424242416,7798.8787871,0.0,7804.03030225,0.0,7796.30302952,8.2424242416,7800.42424164,4.1212121208,7801.45454467,0.0,7802.99999922,12.3636363624,42.0,42.0,?
2017-08-01 19:57:31.695195,7803.51515073,12.3636363624,7159.06060534,2077.09090888,7797.33333255,1644.3636362,7797.84848407,1611.39393923,7799.39393861,189.575757557,7799.39393861,12.3636363624,7800.42424164,74.1818181744,7799.39393861,8.2424242416,7798.8787871,0.0,7804.03030225,0.0,7799.90909013,8.2424242416,7800.42424164,4.1212121208,7801.45454467,0.0,7804.54545377,12.3636363624,42.0,42.0,?
2017-08-01 19:57:31.702446,7803.51515073,12.3636363624,7489.27272652,2077.09090888,7803.51515073,1644.3636362,7801.45454467,1611.39393923,7800.42424164,189.575757557,7799.39393861,12.3636363624,7800.42424164,74.1818181744,7799.39393861,8.2424242416,7798.8787871,0.0,7804.03030225,0.0,7801.45454467,8.2424242416,7800.42424164,4.1212121208,7801.45454467,0.0,7804.03030225,12.3636363624,42.0,42.0,?
2017-08-01 19:57:31.710164,7803.51515073,12.3636363624,7304.84848412,2077.09090888,7795.78787801,1644.3636362,7798.8787871,1611.39393923,7800.93939316,189.575757557,7799.39393861,12.3636363624,7800.42424164,74.1818181744,7799.39393861,8.2424242416,7798.8787871,0.0,7804.03030225,0.0,7799.39393861,8.2424242416,7800.42424164,4.1212121208,7801.45454467,0.0,7804.03030225,12.3636363624,42.0,42.0,?
2017-08-01 19:57:31.717682,7804.03030225,12.3636363624,7095.69696899,2077.09090888,7795.78787801,1644.3636362,7797.33333255,1611.39393923,7800.42424164,189.575757557,7799.39393861,12.3636363624,7800.42424164,74.1818181744,7799.39393861,8.2424242416,7798.8787871,0.0,7804.03030225,0.0,7799.39393861,8.2424242416,7800.42424164,4.1212121208,7801.45454467,0.0,7804.03030225,12.3636363624,42.0,42.0,?
2017-08-01 19:57:31.726281,7803.51515073,12.3636363624,7320.81818109,2077.09090888,7800.93939316,1644.3636362,7798.8787871,1611.39393923,7800.42424164,189.575757557,7799.39393861,12.3636363624,7800.42424164,74.1818181744,7799.39393861,8.2424242416,7798.8787871,0.0,7804.03030225,0.0,7800.93939316,8.2424242416,7800.42424164,4.1212121208,7801.45454467,0.0,7804.03030225,12.3636363624,42.0,42.0,?
2017-08-01 19:57:31.733293,7803.51515073,12.3636363624,7496.99999925,2077.09090888,7799.39393861,1644.3636362,7797.84848407,1611.39393923,7800.42424164,189.575757557,7799.39393861,12.3636363624,7799.39393861,74.1818181744,7799.39393861,8.2424242416,7798.8787871,0.0,7804.03030225,0.0,7800.42424164,8.2424242416,7800.42424164,4.1212121208,7801.45454467,0.0,7804.03030225,12.3636363624,42.0,42.0,?
2017-08-01 19:57:31.742760,7804.54545377,12.3636363624,7538.72727197,2077.09090888,7796.30302952,1644.3636362,7796.81818104,1611.39393923,7800.42424164,189.575757557,7799.39393861,12.3636363624,7797.33333255,74.1818181744,7799.39393861,8.2424242416,7798.8787871,0.0,7804.03030225,0.0,7800.42424164,8.2424242416,7800.42424164,4.1212121208,7801.45454467,0.0,7804.03030225,12.3636363624,42.0,42.0,?
2017-08-01 19:57:31.749786,7802.99999922,12.3636363624,7705.63636287,2077.09090888,7797.33333255,1644.3636362,7798.8787871,1611.39393923,7800.42424164,189.575757557,7799.39393861,12.3636363624,7797.33333255,74.1818181744,7799.39393861,8.2424242416,7798.8787871,0.0,7804.03030225,0.0,7800.42424164,8.2424242416,7800.42424164,4.1212121208,7801.45454467,0.0,7804.03030225,12.3636363624,42.0,42.0,?
2017-08-01 19:57:31.758470,7798.8787871,12.3636363624,7845.24242346,2077.09090888,7799.90909013,1644.3636362,7799.90909013,1611.39393923,7800.42424164,189.575757557,7799.39393861,12.3636363624,7801.45454467,74.1818181744,7799.39393861,8.2424242416,7798.8787871,0.0,7804.03030225,0.0,7800.42424164,8.2424242416,7800.42424164,4.1212121208,7801.45454467,0.0,7804.03030225,12.3636363624,42.0,42.0,?
2017-08-01 19:57:31.764701,7798.8787871,12.3636363624,7820.51515073,2077.09090888,7800.93939316,1644.3636362,7799.39393861,1611.39393923,7800.42424164,189.575757557,7799.39393861,12.3636363624,7805.06060528,74.1818181744,7799.39393861,8.2424242416,7798.8787871,0.0,7803.51515073,0.0,7800.42424164,8.2424242416,7800.42424164,4.1212121208,7801.45454467,0.0,7804.03030225,12.3636363624,42.0,42.0,?
2017-08-01 19:57:31.773789,7800.93939316,12.3636363624,7756.12121135,2077.09090888,7799.90909013,1644.3636362,7799.39393861,1611.39393923,7800.42424164,189.575757557,7799.39393861,12.3636363624,7805.5757568,74.1818181744,7799.39393861,8.2424242416,7798.8787871,0.0,7804.54545377,0.0,7800.42424164,8.2424242416,7800.42424164,4.1212121208,7801.45454467,0.0,7804.03030225,12.3636363624,42.0,42.0,?
2017-08-01 19:57:31.785187,7800.42424164,12.3636363624,7733.45454468,2077.09090888,7800.93939316,1644.3636362,7800.93939316,1611.39393923,7800.42424164,189.575757557,7799.39393861,12.3636363624,7803.51515073,74.1818181744,7799.39393861,8.2424242416,7798.8787871,0.0,7804.03030225,0.0,7800.42424164,8.2424242416,7800.42424164,4.1212121208,7801.45454467,0.0,7804.03030225,12.3636363624,42.0,42.0,?
2017-08-01 19:57:31.792866,7799.39393861,12.3636363624,7722.12121135,2077.09090888,7800.93939316,1644.3636362,7800.93939316,1611.39393923,7800.42424164,189.575757557,7799.39393861,12.3636363624,7804.54545377,74.1818181744,7799.39393861,8.2424242416,7798.8787871,0.0,7799.90909013,0.0,7800.42424164,8.2424242416,7800.42424164,4.1212121208,7801.45454467,0.0,7804.03030225,12.3636363624,42.0,42.0,?
2017-08-01 19:57:31.797342,7799.90909013,12.3636363624,7731.39393862,2077.09090888,7799.90909013,1644.3636362,7800.42424164,1611.39393923,7800.42424164,189.575757557,7799.39393861,12.3636363624,7805.5757568,74.1818181744,7799.39393861,8.2424242416,7798.8787871,0.0,7797.33333255,0.0,7800.42424164,8.2424242416,7800.42424164,4.1212121208,7801.45454467,0.0,7804.03030225,12.3636363624,42.0,42.0,?
2017-08-01 19:57:31.803628,7799.39393861,12.3636363624,7744.78787801,2077.09090888,7799.39393861,1644.3636362,7800.42424164,1611.39393923,7800.42424164,189.575757557,7799.39393861,12.3636363624,7800.42424164,74.1818181744,7799.39393861,8.2424242416,7798.8787871,0.0,7799.39393861,0.0,7800.42424164,8.2424242416,7800.42424164,4.1212121208,7801.45454467,0.0,7804.03030225,12.3636363624,42.0,42.0,?
2017-08-01 19:57:31.813590,7799.39393861,12.3636363624,7761.2727265,2077.09090888,7799.90909013,1644.3636362,7800.42424164,1611.39393923,7799.90909013,189.575757557,7799.39393861,12.3636363624,7797.84848407,74.1818181744,7799.39393861,8.2424242416,7798.8787871,0.0,7799.90909013,0.0,7800.42424164,8.2424242416,7800.42424164,4.1212121208,7801.45454467,0.0,7804.03030225,12.3636363624,42.0,42.0,?
2017-08-01 19:57:31.818606,7799.39393861,12.3636363624,7799.90909013,2077.09090888,7800.93939316,1644.3636362,7800.42424164,1611.39393923,7798.8787871,189.575757557,7799.39393861,12.3636363624,7800.93939316,74.1818181744,7799.39393861,8.2424242416,7798.8787871,0.0,7798.36363558,0.0,7800.42424164,8.2424242416,7800.42424164,4.1212121208,7801.45454467,0.0,7804.03030225,12.3636363624,42.0,42.0,?
2017-08-01 19:57:31.826623,7799.39393861,12.3636363624,7807.63636286,2077.09090888,7800.42424164,1644.3636362,7800.42424164,1611.39393923,7799.39393861,189.575757557,7799.39393861,12.3636363624,7802.4848477,74.1818181744,7799.39393861,8.2424242416,7798.8787871,0.0,7798.36363558,0.0,7800.42424164,8.2424242416,7800.42424164,4.1212121208,7801.45454467,0.0,7804.03030225,12.3636363624,42.0,42.0,?
2017-08-01 19:57:31.835112,7799.39393861,12.3636363624,7783.42424165,2077.09090888,7800.42424164,1644.3636362,7799.90909013,1611.39393923,7799.90909013,189.575757557,7799.39393861,12.3636363624,7801.45454467,74.1818181744,7799.39393861,8.2424242416,7798.8787871,0.0,7798.8787871,0.0,7800.42424164,8.2424242416,7800.42424164,4.1212121208,7801.45454467,0.0,7804.03030225,12.3636363624,42.0,42.0,?
2017-08-01 19:57:31.842678,7799.39393861,12.3636363624,7777.24242346,2077.09090888,7800.42424164,1644.3636362,7800.42424164,1611.39393923,7799.90909013,189.575757557,7799.39393861,12.3636363624,7800.93939316,74.1818181744,7799.39393861,8.2424242416,7798.8787871,0.0,7798.8787871,0.0,7800.42424164,8.2424242416,7800.42424164,4.1212121208,7801.45454467,0.0,7804.03030225,12.3636363624,42.0,42.0,?
2017-08-01 19:57:31.849930,7799.39393861,12.3636363624,7787.03030225,2077.09090888,7800.42424164,1644.3636362,7800.93939316,1611.39393923,7800.42424164,189.575757557,7799.39393861,12.3636363624,7800.93939316,74.1818181744,7799.39393861,8.2424242416,7798.8787871,0.0,7798.8787871,0.0,7800.42424164,8.2424242416,7800.42424164,4.1212121208,7801.45454467,0.0,7804.03030225,12.3636363624,42.0,42.0,?
2017-08-01 19:57:31.858383,7799.39393861,12.3636363624,7777.75757498,2077.09090888,7800.42424164,1644.3636362,7798.36363558,1611.39393923,7800.42424164,189.575757557,7799.39393861,12.3636363624,7800.42424164,74.1818181744,7799.39393861,8.2424242416,7798.8787871,0.0,7798.8787871,0.0,7800.42424164,8.2424242416,7800.42424164,4.1212121208,7801.45454467,0.0,7804.03030225,12.3636363624,42.0,42.0,?
2017-08-01 19:57:31.865685,7799.39393861,12.3636363624,7749.42424165,2077.09090888,7800.42424164,1644.3636362,7798.36363558,1611.39393923,7800.42424164,189.575757557,7799.39393861,12.3636363624,7800.42424164,74.1818181744,7799.39393861,8.2424242416,7798.8787871,0.0,7798.8787871,0.0,7800.42424164,8.2424242416,7800.42424164,4.1212121208,7801.45454467,0.0,7804.03030225,12.3636363624,42.0,42.0,?
2017-08-01 19:57:31.875583,7799.39393861,12.3636363624,7745.30302953,2077.09090888,7800.42424164,1644.3636362,7801.45454467,1611.39393923,7800.42424164,189.575757557,7799.39393861,12.3636363624,7800.42424164,74.1818181744,7799.39393861,8.2424242416,7798.8787871,0.0,7798.8787871,0.0,7800.42424164,8.2424242416,7800.42424164,4.1212121208,7801.45454467,0.0,7804.03030225,12.3636363624,42.0,42.0,?
2017-08-01 19:57:31.881585,7799.39393861,12.3636363624,7773.12121134,2077.09090888,7800.42424164,1644.3636362,7801.45454467,1611.39393923,7800.42424164,189.575757557,7799.39393861,12.3636363624,7800.42424164,74.1818181744,7799.39393861,8.2424242416,7798.8787871,0.0,7798.8787871,0.0,7800.42424164,8.2424242416,7800.42424164,4.1212121208,7801.45454467,0.0,7804.03030225,12.3636363624,42.0,42.0,?
2017-08-01 19:57:31.890022,7799.39393861,12.3636363624,7777.24242346,2077.09090888,7800.42424164,1644.3636362,7798.8787871,1611.39393923,7800.93939316,189.575757557,7799.39393861,12.3636363624,7800.42424164,74.1818181744,7799.39393861,8.2424242416,7798.8787871,0.0,7798.8787871,0.0,7800.42424164,8.2424242416,7800.42424164,4.1212121208,7801.45454467,0.0,7804.03030225,12.3636363624,42.0,42.0,?
2017-08-01 19:57:31.899206,7799.39393861,12.3636363624,7751.48484771,2077.09090888,7800.42424164,1644.3636362,7799.39393861,1611.39393923,7799.39393861,189.575757557,7799.39393861,12.3636363624,7800.42424164,74.1818181744,7799.39393861,8.2424242416,7798.8787871,0.0,7798.8787871,0.0,7800.42424164,8.2424242416,7800.42424164,4.1212121208,7801.45454467,0.0,7804.03030225,12.3636363624,42.0,42.0,?
2017-08-01 19:57:31.905522,7799.39393861,12.3636363624,7759.72727195,2077.09090888,7800.42424164,1644.3636362,7800.93939316,1611.39393923,7797.84848407,189.575757557,7799.39393861,12.3636363624,7800.42424164,74.1818181744,7799.39393861,8.2424242416,7798.8787871,0.0,7798.8787871,0.0,7800.42424164,8.2424242416,7800.42424164,4.1212121208,7801.45454467,0.0,7804.03030225,12.3636363624,42.0,42.0,?
2017-08-01 19:57:31.915592,7799.39393861,12.3636363624,7797.33333255,2077.09090888,7800.42424164,1644.3636362,7800.42424164,1611.39393923,7798.8787871,189.575757557,7799.39393861,12.3636363624,7800.42424164,74.1818181744,7799.39393861,8.2424242416,7798.8787871,0.0,7798.8787871,0.0,7800.42424164,8.2424242416,7800.42424164,4.1212121208,7801.45454467,0.0,7804.03030225,12.3636363624,42.0,42.0,?
2017-08-01 19:57:31.922115,7799.39393861,12.3636363624,7806.09090831,2077.09090888,7800.42424164,1644.3636362,7800.42424164,1611.39393923,7799.39393861,189.575757557,7799.39393861,12.3636363624,7800.42424164,74.1818181744,7799.39393861,8.2424242416,7798.8787871,0.0,7798.8787871,0.0,7800.42424164,8.2424242416,7800.42424164,4.1212121208,7801.45454467,0.0,7804.03030225,12.3636363624,42.0,42.0,?
2017-08-01 19:57:31.932807,7799.39393861,12.3636363624,7794.24242346,2077.09090888,7800.42424164,1644.3636362,7800.42424164,1611.39393923,7799.90909013,189.575757557,7799.39393861,12.3636363624,7800.42424164,74.1818181744,7799.39393861,8.2424242416,7798.8787871,0.0,7798.8787871,0.0,7800.42424164,8.2424242416,7800.42424164,4.1212121208,7801.45454467,0.0,7804.03030225,12.3636363624,42.0,42.0,?
2017-08-01 19:57:31.937826,7799.39393861,12.3636363624,7785.48484771,2077.09090888,7800.42424164,1644.3636362,7800.42424164,1611.39393923,7799.90909013,189.575757557,7799.39393861,12.3636363624,7800.42424164,74.1818181744,7799.39393861,8.2424242416,7798.8787871,0.0,7798.8787871,0.0,7800.42424164,8.2424242416,7800.42424164,4.1212121208,7801.45454467,0.0,7804.03030225,12.3636363624,42.0,42.0,?
2017-08-01 19:57:31.950847,7799.39393861,12.3636363624,7778.78787801,2077.09090888,7800.42424164,1644.3636362,7800.42424164,1611.39393923,7798.36363558,189.575757557,7799.39393861,12.3636363624,7800.42424164,74.1818181744,7799.39393861,8.2424242416,7798.8787871,0.0,7798.8787871,0.0,7800.42424164,8.2424242416,7800.42424164,4.1212121208,7801.45454467,0.0,7804.03030225,12.3636363624,42.0,42.0,?
2017-08-01 19:57:31.953193,7799.39393861,12.3636363624,7756.63636286,2077.09090888,7800.42424164,1644.3636362,7800.42424164,1611.39393923,7798.36363558,189.575757557,7799.39393861,12.3636363624,7800.42424164,74.1818181744,7798.8787871,8.2424242416,7798.8787871,0.0,7798.36363558,0.0,7800.42424164,8.2424242416,7800.42424164,4.1212121208,7801.45454467,0.0,7804.03030225,12.3636363624,42.0,42.0,?
2017-08-01 19:57:31.964700,7799.39393861,12.3636363624,7725.72727195,2077.09090888,7800.42424164,1644.3636362,7800.42424164,1611.39393923,7800.42424164,189.575757557,7799.39393861,12.3636363624,7800.42424164,74.1818181744,7797.84848407,8.2424242416,7798.8787871,0.0,7798.36363558,0.0,7800.42424164,8.2424242416,7800.42424164,4.1212121208,7801.45454467,0.0,7803.51515073,12.3636363624,42.0,42.0,?
2017-08-01 19:57:31.968707,7799.39393861,12.3636363624,7721.60605983,2077.09090888,7800.42424164,1644.3636362,7800.42424164,1611.39393923,7800.93939316,189.575757557,7799.39393861,12.3636363624,7800.42424164,74.1818181744,7798.8787871,8.2424242416,7798.8787871,0.0,7798.8787871,0.0,7800.42424164,8.2424242416,7800.42424164,4.1212121208,7801.45454467,0.0,7804.54545377,12.3636363624,42.0,42.0,?
2017-08-01 19:57:31.975609,7799.39393861,0.0,7740.15151438,2077.09090888,7800.42424164,1644.3636362,7800.42424164,1611.39393923,7799.90909013,189.575757557,7799.39393861,12.3636363624,7800.42424164,74.1818181744,7800.42424164,8.2424242416,7798.8787871,0.0,7798.36363558,0.0,7800.42424164,8.2424242416,7800.42424164,4.1212121208,7801.45454467,0.0,7804.03030225,12.3636363624,42.0,42.0,?
2017-08-01 19:57:31.982921,7799.39393861,0.0,7767.96969619,1846.30303012,7800.42424164,1644.3636362,7800.42424164,1611.39393923,7800.42424164,189.575757557,7799.39393861,12.3636363624,7800.42424164,74.1818181744,7800.42424164,8.2424242416,7798.8787871,0.0,7798.8787871,0.0,7800.42424164,8.2424242416,7800.42424164,4.1212121208,7801.45454467,0.0,7798.8787871,12.3636363624,42.0,42.0,?
2017-08-01 19:57:31.992745,7799.39393861,0.0,7781.8787871,1846.30303012,7800.42424164,1644.3636362,7800.42424164,1611.39393923,7800.42424164,189.575757557,7799.39393861,12.3636363624,7800.42424164,74.1818181744,7800.42424164,8.2424242416,7798.8787871,0.0,7803.51515073,0.0,7800.42424164,8.2424242416,7800.42424164,4.1212121208,7801.45454467,0.0,7796.30302952,0.0,42.0,42.0,?
2017-08-01 19:57:31.999297,7799.39393861,0.0,7760.24242347,1846.30303012,7800.42424164,0.0,7800.42424164,1611.39393923,7800.42424164,189.575757557,7799.39393861,12.3636363624,7800.42424164,74.1818181744,7800.42424164,8.2424242416,7798.8787871,0.0,7806.09090831,0.0,7800.42424164,8.2424242416,7800.42424164,4.1212121208,7801.45454467,0.0,7800.93939316,0.0,42.0,42.0,?
2017-08-01 19:57:32.006784,7799.39393861,0.0,7745.81818104,1846.30303012,7800.42424164,0.0,7800.42424164,0.0,7800.42424164,189.575757557,7799.39393861,12.3636363624,7800.42424164,74.1818181744,7800.42424164,8.2424242416,7798.8787871,0.0,7804.54545377,0.0,7800.42424164,8.2424242416,7800.42424164,4.1212121208,7801.45454467,0.0,7801.96969619,0.0,42.0,42.0,?
2017-08-01 19:57:32.016752,7799.39393861,0.0,7782.39393862,1846.30303012,7800.42424164,0.0,7800.42424164,0.0,7800.42424164,0.0,7799.39393861,12.3636363624,7800.42424164,74.1818181744,7800.42424164,8.2424242416,7798.8787871,0.0,7804.03030225,0.0,7800.42424164,8.2424242416,7800.42424164,4.1212121208,7801.45454467,0.0,7798.8787871,0.0,42.0,42.0,?
2017-08-01 19:57:32.022716,7799.39393861,0.0,7812.78787801,1846.30303012,7800.42424164,0.0,7800.42424164,0.0,7800.42424164,0.0,7799.39393861,0.0,7800.42424164,74.1818181744,7800.42424164,8.2424242416,7798.8787871,0.0,7804.54545377,0.0,7800.42424164,8.2424242416,7800.42424164,4.1212121208,7801.45454467,0.0,7799.39393861,0.0,42.0,42.0,?
2017-08-01 19:57:32.033132,7799.39393861,0.0,7799.90909013,1846.30303012,7800.42424164,0.0,7800.42424164,0.0,7800.42424164,0.0,7799.39393861,0.0,7800.42424164,0.0,7800.42424164,8.2424242416,7798.8787871,0.0,7804.54545377,0.0,7800.42424164,8.2424242416,7800.42424164,4.1212121208,7801.45454467,0.0,7800.93939316,0.0,42.0,42.0,?
2017-08-01 19:57:32.038237,7799.39393861,0.0,7793.21212043,1846.30303012,7800.42424164,0.0,7800.42424164,0.0,7800.42424164,0.0,7799.39393861,0.0,7800.42424164,0.0,7800.42424164,0.0,7798.8787871,0.0,7804.03030225,0.0,7800.42424164,8.2424242416,7800.93939316,4.1212121208,7801.45454467,0.0,7800.42424164,0.0,42.0,42.0,?
2017-08-01 19:57:32.045948,7799.39393861,0.0,7805.5757568,1846.30303012,7800.42424164,0.0,7800.42424164,0.0,7798.8787871,0.0,7799.39393861,0.0,7800.42424164,0.0,7800.42424164,0.0,7798.8787871,0.0,7804.03030225,0.0,7800.42424164,8.2424242416,7798.8787871,4.1212121208,7801.45454467,0.0,7800.42424164,0.0,42.0,42.0,?
2017-08-01 19:57:32.054915,7799.39393861,0.0,7801.96969619,1846.30303012,7800.42424164,0.0,7800.42424164,0.0,7797.84848407,0.0,7799.39393861,0.0,7800.42424164,0.0,7800.93939316,0.0,7798.8787871,0.0,7804.03030225,0.0,7800.42424164,8.2424242416,7797.84848407,4.1212121208,7801.45454467,0.0,7800.42424164,0.0,42.0,42.0,?
2017-08-01 19:57:32.061140,7799.39393861,0.0,7776.21212043,1846.30303012,7800.42424164,0.0,7800.42424164,0.0,7799.39393861,0.0,7799.39393861,0.0,7800.42424164,0.0,7799.90909013,0.0,7798.8787871,0.0,7804.03030225,0.0,7800.42424164,0.0,7799.39393861,4.1212121208,7801.45454467,0.0,7800.42424164,0.0,42.0,42.0,?
2017-08-01 19:57:32.070147,7799.39393861,0.0,7764.8787871,1846.30303012,7800.42424164,0.0,7800.42424164,0.0,7799.90909013,0.0,7799.39393861,0.0,7800.42424164,0.0,7799.39393861,0.0,7798.8787871,0.0,7804.03030225,0.0,7800.42424164,0.0,7800.42424164,0.0,7801.45454467,0.0,7800.42424164,0.0,42.0,42.0,?
2017-08-01 19:57:32.076769,7799.39393861,0.0,7792.69696892,1846.30303012,7800.42424164,0.0,7800.42424164,0.0,7798.36363558,0.0,7799.39393861,0.0,7800.42424164,0.0,7800.42424164,0.0,7798.8787871,0.0,7804.03030225,0.0,7800.42424164,0.0,7799.39393861,0.0,7801.45454467,0.0,7800.42424164,0.0,42.0,42.0,?
2017-08-01 19:57:32.084627,7799.39393861,0.0,7805.5757568,1846.30303012,7800.42424164,0.0,7800.42424164,0.0,7798.36363558,0.0,7799.39393861,0.0,7800.42424164,0.0,7801.96969619,0.0,7798.8787871,0.0,7804.03030225,0.0,7800.42424164,0.0,7799.39393861,0.0,7801.45454467,0.0,7800.42424164,0.0,42.0,42.0,?
2017-08-01 19:57:32.093535,7799.39393861,0.0,7780.33333256,1846.30303012,7800.42424164,0.0,7800.42424164,0.0,7798.8787871,0.0,7799.39393861,0.0,7800.42424164,0.0,7801.96969619,0.0,7798.8787871,0.0,7804.03030225,0.0,7800.42424164,0.0,7799.90909013,0.0,7801.45454467,0.0,7800.42424164,0.0,42.0,42.0,?
2017-08-01 19:57:32.101188,7799.39393861,0.0,7778.78787801,1846.30303012,7800.42424164,0.0,7800.42424164,0.0,7798.8787871,0.0,7799.39393861,0.0,7800.42424164,0.0,7801.45454467,0.0,7798.8787871,0.0,7804.03030225,0.0,7800.42424164,0.0,7799.39393861,0.0,7801.45454467,0.0,7800.42424164,0.0,42.0,42.0,?
2017-08-01 19:57:32.107638,7799.39393861,0.0,7797.33333255,1846.30303012,7800.42424164,0.0,7800.42424164,0.0,7799.39393861,0.0,7799.39393861,0.0,7800.42424164,0.0,7801.96969619,0.0,7798.8787871,0.0,7804.03030225,0.0,7800.42424164,0.0,7799.39393861,0.0,7801.45454467,0.0,7800.42424164,0.0,42.0,42.0,?
2017-08-01 19:57:32.116931,7799.39393861,0.0,7790.63636286,1846.30303012,7800.42424164,0.0,7800.42424164,0.0,7799.39393861,0.0,7799.39393861,0.0,7800.93939316,0.0,7801.96969619,0.0,7798.8787871,0.0,7804.03030225,0.0,7800.42424164,0.0,7799.39393861,0.0,7801.45454467,0.0,7800.42424164,0.0,42.0,42.0,?
2017-08-01 19:57:32.124638,7799.39393861,0.0,7783.93939316,1846.30303012,7800.42424164,0.0,7800.42424164,0.0,7799.90909013,0.0,7799.39393861,0.0,7800.42424164,0.0,7801.45454467,0.0,7798.8787871,0.0,7804.03030225,0.0,7800.42424164,0.0,7799.39393861,0.0,7801.45454467,0.0,7800.42424164,0.0,42.0,42.0,?
2017-08-01 19:57:32.132435,7799.39393861,0.0,7797.84848407,1846.30303012,7800.42424164,0.0,7800.42424164,0.0,7800.93939316,0.0,7799.39393861,0.0,7800.42424164,0.0,7801.45454467,0.0,7798.8787871,0.0,7804.03030225,0.0,7800.42424164,0.0,7799.39393861,0.0,7801.45454467,0.0,7800.42424164,0.0,42.0,42.0,?
2017-08-01 19:57:32.142327,7799.39393861,0.0,7805.06060528,1846.30303012,7800.42424164,0.0,7800.42424164,0.0,7800.42424164,0.0,7799.39393861,0.0,7801.45454467,0.0,7801.45454467,0.0,7798.8787871,0.0,7804.03030225,0.0,7800.42424164,0.0,7799.39393861,0.0,7801.45454467,0.0,7800.42424164,0.0,42.0,42.0,?
2017-08-01 19:57:32.148507,7799.39393861,0.0,7798.36363558,1846.30303012,7800.42424164,0.0,7800.42424164,0.0,7800.42424164,0.0,7799.39393861,0.0,7799.90909013,0.0,7801.45454467,0.0,7798.8787871,0.0,7804.03030225,0.0,7800.42424164,0.0,7799.39393861,0.0,7801.45454467,0.0,7800.42424164,0.0,42.0,42.0,?
2017-08-01 19:57:32.159799,7799.39393861,0.0,7797.84848407,1846.30303012,7800.42424164,0.0,7800.42424164,0.0,7800.42424164,0.0,7799.39393861,0.0,7797.84848407,0.0,7801.96969619,0.0,7798.8787871,0.0,7804.03030225,0.0,7800.42424164,0.0,7799.39393861,0.0,7801.45454467,0.0,7800.42424164,0.0,42.0,42.0,?
2017-08-01 19:57:32.167151,7799.39393861,0.0,7799.90909013,1846.30303012,7800.42424164,0.0,7800.42424164,0.0,7800.42424164,0.0,7799.39393861,0.0,7799.90909013,0.0,7801.45454467,0.0,7798.8787871,0.0,7804.03030225,0.0,7800.42424164,0.0,7799.39393861,0.0,7801.45454467,0.0,7800.42424164,0.0,42.0,42.0,?
2017-08-01 19:57:32.171202,7799.39393861,0.0,7778.78787801,1846.30303012,7800.42424164,0.0,7800.42424164,0.0,7800.42424164,0.0,7799.39393861,0.0,7801.96969619,0.0,7801.45454467,0.0,7798.8787871,0.0,7804.03030225,0.0,7800.42424164,0.0,7799.39393861,0.0,7801.45454467,0.0,7800.42424164,0.0,42.0,42.0,?
2017-08-01 19:57:32.178797,7799.39393861,0.0,7747.8787871,1846.30303012,7800.42424164,0.0,7800.42424164,0.0,7800.42424164,0.0,7799.39393861,0.0,7799.39393861,0.0,7802.4848477,0.0,7798.8787871,0.0,7804.03030225,0.0,7800.42424164,0.0,7799.39393861,0.0,7801.45454467,0.0,7800.42424164,0.0,42.0,42.0,?
2017-08-01 19:57:32.188608,7799.39393861,0.0,7757.66666589,1846.30303012,7800.42424164,0.0,7800.42424164,0.0,7800.42424164,0.0,7799.39393861,0.0,7798.8787871,0.0,7800.93939316,0.0,7798.8787871,0.0,7804.03030225,0.0,7800.42424164,0.0,7799.39393861,0.0,7801.45454467,0.0,7800.42424164,0.0,42.0,42.0,?
2017-08-01 19:57:32.194294,7799.39393861,0.0,7768.48484771,1846.30303012,7800.42424164,0.0,7800.42424164,0.0,7800.42424164,0.0,7799.39393861,0.0,7800.93939316,0.0,7797.84848407,0.0,7798.8787871,0.0,7804.03030225,0.0,7800.42424164,0.0,7798.8787871,0.0,7801.45454467,0.0,7800.42424164,0.0,42.0,42.0,?
2017-08-01 19:57:32.201630,7799.39393861,0.0,7738.09090832,1846.30303012,7800.42424164,0.0,7800.42424164,0.0,7800.42424164,0.0,7799.39393861,0.0,7800.93939316,0.0,7798.36363558,0.0,7798.8787871,0.0,7804.03030225,0.0,7800.42424164,0.0,7798.36363558,0.0,7801.45454467,0.0,7800.42424164,0.0,42.0,42.0,?
2017-08-01 19:57:32.211083,7799.39393861,0.0,7738.09090832,1846.30303012,7800.42424164,0.0,7800.42424164,0.0,7800.42424164,0.0,7799.39393861,0.0,7800.42424164,0.0,7800.42424164,0.0,7798.8787871,0.0,7804.03030225,0.0,7800.42424164,0.0,7799.90909013,0.0,7801.45454467,0.0,7800.42424164,0.0,42.0,42.0,?
2017-08-01 19:57:32.218613,7799.39393861,0.0,7782.39393862,1846.30303012,7800.42424164,0.0,7800.42424164,0.0,7800.42424164,0.0,7799.39393861,0.0,7800.42424164,0.0,7800.93939316,0.0,7798.8787871,0.0,7804.03030225,0.0,7800.42424164,0.0,7800.93939316,0.0,7801.45454467,0.0,7800.42424164,0.0,42.0,42.0,?
2017-08-01 19:57:32.227443,7799.39393861,0.0,7795.27272649,1846.30303012,7800.42424164,0.0,7800.42424164,0.0,7800.42424164,0.0,7799.39393861,0.0,7800.42424164,0.0,7799.90909013,0.0,7798.8787871,0.0,7804.03030225,0.0,7800.42424164,0.0,7800.42424164,0.0,7801.45454467,0.0,7800.42424164,0.0,42.0,42.0,?
2017-08-01 19:57:32.232933,7799.39393861,0.0,7777.75757498,1846.30303012,7800.42424164,0.0,7800.42424164,0.0,7800.42424164,0.0,7799.39393861,0.0,7800.42424164,0.0,7800.42424164,0.0,7798.8787871,0.0,7804.03030225,0.0,7800.42424164,0.0,7800.42424164,0.0,7801.45454467,0.0,7800.42424164,0.0,42.0,42.0,?
2017-08-01 19:57:32.240706,7799.39393861,0.0,7776.72727195,1846.30303012,7800.42424164,0.0,7800.42424164,0.0,7800.42424164,0.0,7799.39393861,0.0,7800.42424164,0.0,7800.42424164,0.0,7798.8787871,0.0,7804.03030225,0.0,7800.42424164,0.0,7800.42424164,0.0,7801.45454467,0.0,7800.42424164,0.0,42.0,42.0,?
2017-08-01 19:57:32.252113,7799.39393861,0.0,7788.06060528,1846.30303012,7800.42424164,0.0,7800.42424164,0.0,7800.42424164,0.0,7799.39393861,0.0,7800.42424164,0.0,7800.42424164,0.0,7798.8787871,0.0,7804.03030225,0.0,7800.42424164,0.0,7800.42424164,0.0,7801.45454467,0.0,7800.42424164,0.0,42.0,42.0,?
2017-08-01 19:57:32.257467,7799.39393861,0.0,7793.21212043,1846.30303012,7800.42424164,0.0,7800.42424164,0.0,7800.42424164,0.0,7799.39393861,0.0,7800.42424164,0.0,7800.42424164,0.0,7798.8787871,0.0,7804.03030225,0.0,7800.42424164,0.0,7800.42424164,0.0,7801.45454467,0.0,7800.42424164,0.0,42.0,42.0,?
2017-08-01 19:57:32.265280,7799.39393861,0.0,7787.03030225,1846.30303012,7800.42424164,0.0,7800.42424164,0.0,7800.42424164,0.0,7799.39393861,0.0,7800.42424164,0.0,7800.42424164,0.0,7798.8787871,0.0,7804.03030225,0.0,7800.42424164,0.0,7800.42424164,0.0,7801.45454467,0.0,7800.42424164,0.0,42.0,42.0,?
2017-08-01 19:57:32.274905,7799.39393861,0.0,7786.51515074,1846.30303012,7800.42424164,0.0,7800.42424164,0.0,7800.42424164,0.0,7799.39393861,0.0,7800.42424164,0.0,7800.42424164,0.0,7798.8787871,0.0,7804.03030225,0.0,7800.42424164,0.0,7800.42424164,0.0,7801.45454467,0.0,7800.42424164,0.0,42.0,42.0,?
2017-08-01 19:57:32.280921,7799.39393861,0.0,7801.45454467,1846.30303012,7800.42424164,0.0,7800.42424164,0.0,7800.42424164,0.0,7799.39393861,0.0,7800.42424164,0.0,7800.42424164,0.0,7798.8787871,0.0,7804.03030225,0.0,7800.42424164,0.0,7800.42424164,0.0,7801.45454467,0.0,7800.42424164,0.0,42.0,42.0,?
2017-08-01 19:57:32.289225,7799.39393861,0.0,7797.84848407,1846.30303012,7800.42424164,0.0,7800.93939316,0.0,7800.42424164,0.0,7799.39393861,0.0,7800.42424164,0.0,7800.42424164,0.0,7798.8787871,0.0,7804.54545377,0.0,7800.42424164,0.0,7800.42424164,0.0,7801.45454467,0.0,7800.42424164,0.0,42.0,42.0,?
2017-08-01 19:57:32.299894,7799.39393861,0.0,7787.54545377,1846.30303012,7800.42424164,0.0,7800.42424164,0.0,7800.42424164,0.0,7799.39393861,0.0,7800.42424164,0.0,7800.42424164,0.0,7798.8787871,0.0,7803.51515073,0.0,7800.42424164,0.0,7800.42424164,0.0,7801.45454467,0.0,7800.42424164,0.0,42.0,42.0,?
2017-08-01 19:57:32.304721,7799.39393861,0.0,7789.60605983,1846.30303012,7800.42424164,0.0,7798.8787871,0.0,7800.42424164,0.0,7799.39393861,0.0,7800.42424164,0.0,7800.93939316,0.0,7798.8787871,0.0,7804.54545377,0.0,7800.42424164,0.0,7800.42424164,0.0,7801.45454467,0.0,7800.42424164,0.0,42.0,42.0,?
2017-08-01 19:57:32.313689,7799.39393861,0.0,7791.66666589,1846.30303012,7800.42424164,0.0,7798.36363558,0.0,7800.42424164,0.0,7799.39393861,0.0,7800.42424164,0.0,7799.90909013,0.0,7798.8787871,0.0,7805.06060528,0.0,7800.42424164,0.0,7800.42424164,0.0,7801.45454467,0.0,7800.42424164,0.0,42.0,42.0,?
2017-08-01 19:57:32.320060,7799.39393861,0.0,7800.42424164,1846.30303012,7800.42424164,0.0,7799.39393861,0.0,7800.42424164,0.0,7799.39393861,0.0,7800.42424164,0.0,7798.8787871,0.0,7798.8787871,0.0,7800.93939316,0.0,7800.42424164,0.0,7800.42424164,0.0,7801.45454467,0.0,7800.42424164,0.0,42.0,42.0,?
2017-08-01 19:57:32.327528,7799.39393861,0.0,7809.69696892,1846.30303012,7800.42424164,0.0,7799.90909013,0.0,7800.42424164,0.0,7799.39393861,0.0,7800.42424164,0.0,7800.93939316,0.0,7798.8787871,0.0,7798.36363558,0.0,7800.42424164,0.0,7800.42424164,0.0,7801.45454467,0.0,7800.42424164,0.0,42.0,42.0,?
2017-08-01 19:57:32.335142,7799.39393861,0.0,7793.21212043,1846.30303012,7800.42424164,0.0,7799.90909013,0.0,7800.42424164,0.0,7799.39393861,0.0,7800.42424164,0.0,7801.45454467,0.0,7798.8787871,0.0,7799.90909013,0.0,7800.42424164,0.0,7800.42424164,0.0,7801.45454467,0.0,7800.42424164,0.0,42.0,42.0,?
2017-08-01 19:57:32.343706,7799.39393861,0.0,7798.8787871,1846.30303012,7800.42424164,0.0,7800.42424164,0.0,7800.42424164,0.0,7799.39393861,0.0,7800.42424164,0.0,7799.39393861,0.0,7798.8787871,0.0,7800.93939316,0.0,7800.42424164,0.0,7800.42424164,0.0,7801.45454467,0.0,7800.42424164,0.0,42.0,42.0,?
2017-08-01 19:57:32.351257,7799.90909013,0.0,7807.63636286,1846.30303012,7804.03030225,0.0,7809.1818174,0.0,7804.54545377,0.0,7800.93939316,0.0,7802.99999922,0.0,7800.93939316,0.0,7799.39393861,0.0,7801.96969619,0.0,7801.45454467,0.0,7802.99999922,0.0,7801.96969619,0.0,7801.96969619,0.0,42.0,42.0,?
2017-08-01 19:57:32.358647,7801.45454467,0.0,7722.63636286,1846.30303012,7812.27272649,0.0,7832.36363558,0.0,7812.27272649,0.0,7804.54545377,0.0,7809.69696892,0.0,7806.09090831,0.0,7800.42424164,0.0,7807.63636286,0.0,7805.06060528,0.0,7808.15151437,0.0,7802.4848477,0.0,7805.06060528,0.0,42.0,42.0,?
2017-08-01 19:57:32.377764,7797.33333255,0.0,7541.81818106,1846.30303012,7793.72727195,0.0,7785.99999922,0.0,7796.81818104,0.0,7797.33333255,0.0,7796.81818104,0.0,7799.90909013,0.0,7798.36363558,0.0,7797.33333255,0.0,7795.78787801,0.0,7798.8787871,0.0,7799.90909013,0.0,7800.42424164,0.0,42.0,42.0,?
2017-08-01 19:57:32.377913,7797.33333255,0.0,7541.81818106,1846.30303012,7793.72727195,0.0,7785.99999922,0.0,7796.81818104,0.0,7797.33333255,0.0,7796.81818104,0.0,7799.90909013,0.0,7798.36363558,0.0,7797.33333255,0.0,7795.78787801,0.0,7798.8787871,0.0,7799.90909013,0.0,7797.84848407,0.0,42.0,42.0,?
