Timestamp,F3 Value,F3 Quality,FC5 Value,FC5 Quality,F7 Value,F7 Quality,T7 Value,T7 Quality,P7 Value,P7 Quality,O1 Value,O1 Quality,O2 Value,O2 Quality,P8 Value,P8 Quality,T8 Value,T8 Quality,F8 Value,F8 Quality,AF4 Value,AF4 Quality,FC6 Value,FC6 Quality,F4 Value,F4 Quality,AF3 Value,AF3 Quality,X Value,Y Value,Z Value
53:40.2,4600.818181,0,4247.939394,0,4009.939394,0,4019.212121,0,4406.090909,0,4089.272727,0,4319.030303,0,4443.696969,0,5127.818181,0,4319.030303,0,4548.787878,0,4242.272727,0,4936.181818,0,4537.454545,0,42,42,?
53:40.2,4570.424242,0,4191.787878,0,4073.818181,0,4012,0,4288.636363,0,5419.393939,0,4327.272727,0,4445.757575,0,5099.484848,0,4341.181818,0,4523.030303,0,4231.454545,0,4902.181818,0,4548.272727,0,42,42,?
53:40.2,4570.424242,0,4191.787878,0,4073.818181,0,4012,0,4288.636363,0,5419.393939,0,4327.272727,0,4445.757575,0,5099.484848,0,4341.181818,0,4523.030303,0,4231.454545,0,4902.181818,0,4548.272727,0,42,42,?
53:40.2,4548.272727,0,4266.484848,0,4002.727272,0,3911.545454,0,4308.727272,0,5344.696969,0,4223.727272,0,4343.242424,0,4995.424242,0,4255.666666,0,4432.878787,0,4235.575757,0,4849.121212,0,4477.696969,0,42,42,?
53:40.2,4548.272727,0,4266.484848,0,4002.727272,0,3911.545454,0,4308.727272,0,5344.696969,0,4223.727272,0,4343.242424,0,4995.424242,0,4255.666666,0,4432.878787,0,4235.575757,0,4849.121212,0,4477.696969,0,42,42,?
53:40.2,4554.454545,0,4271.636363,0,4012,0,3925.969697,0,4327.272727,0,5355.515151,0,4242.787878,0,4360.757575,0,5019.121212,0,4275.757575,0,4445.757575,0,4236.090909,0,4856.848484,0,4483.363636,0,42,42,?
53:40.2,4556.515151,0,4251.030303,0,3979.030303,0,3930.090909,0,4323.666666,0,5354.999999,0,4242.272727,0,4358.181818,0,5012.939393,0,4269.060606,0,4448.848484,0,4227.333333,0,4854.787878,0,4495.212121,0,42,42,?
53:40.3,4551.878787,0,4245.363636,0,3998.090909,0,3952.242424,0,4331.393939,0,5369.424242,0,4251.545454,0,4370.030303,0,5018.090909,0,4270.60606,0,4456.060606,0,4230.939394,0,4857.878787,0,4494.181818,0,42,42,?
53:40.3,4552.393939,0,4267.515151,0,4002.727272,0,3934.727272,0,4317.484848,0,5357.575757,0,4235.060606,0,4356.121212,0,5003.151515,0,4239.696969,0,4438.030303,0,4236.090909,0,4848.090909,0,4479.757575,0,42,42,?
53:40.3,4560.121212,0,4262.878787,0,4007.363636,0,3929.060606,0,4325.212121,0,5365.30303,0,4250,0,4366.424242,0,5018.090909,0,4244.848484,0,4447.30303,0,4235.575757,0,4856.333333,0,4490.575757,0,42,42,?
53:40.3,4559.090909,0,4266.484848,0,3999.121212,0,3913.60606,0,4309.242424,0,5356.545454,0,4248.454545,0,4356.636363,0,5012.424242,0,4247.424242,0,4449.878787,0,4230.939394,0,4858.90909,0,4490.575757,0,42,42,?
53:40.3,4562.696969,0,4247.424242,0,4014.060606,0,3936.787878,0,4328.30303,0,5365.818181,0,4268.545454,0,4375.696969,0,5030.969696,0,4262.363636,0,4477.181818,0,4229.90909,0,4879.515151,0,4500.878787,0,42,42,?
53:40.3,4571.454545,0,4274.727272,0,3991.909091,0,3922.878787,0,4318,0,5346.242424,0,4240.212121,0,4362.30303,0,5010.363636,0,4241.757575,0,4475.636363,0,4241.242424,0,4891.363636,0,4500.363636,0,42,42,?
53:40.3,4568.363636,0,4256.696969,0,4002.212121,0,3931.121212,0,4326.757575,0,5353.454545,0,4228.878787,0,4362.30303,0,5009.333333,0,4253.60606,0,4469.454545,0,4238.151515,0,4875.393939,0,4502.939393,0,42,42,?
53:40.3,4570.424242,0,4251.545454,0,4014.060606,0,3946.575757,0,4340.151515,0,5374.060606,0,4256.181818,0,4379.818181,0,5032,0,4270.090909,0,4472.545454,0,4235.060606,0,4869.212121,0,4509.636363,0,42,42,?
53:40.3,4564.242424,0,4277.818181,0,3991.909091,0,3921.333333,0,4310.272727,0,5360.666666,0,4250,0,4361.272727,0,5010.878787,0,4245.878787,0,4457.090909,0,4235.060606,0,4868.181818,0,4496.757575,0,42,42,?
53:40.3,4556,2522.181818,4248.454545,0,4026.424242,0,3945.545454,0,4331.393939,0,5380.242424,0,4261.848484,0,4380.333333,0,5028.90909,0,4267.515151,0,4476.666666,0,4233.515151,0,4881.060606,0,4503.969697,0,42,42,?
53:40.3,4565.787878,2522.181818,4270.60606,828.3636363,3999.121212,0,3920.30303,0,4313.878787,0,5360.151515,0,4221.151515,0,4350.969697,0,5003.666666,0,4240.212121,0,4469.969697,0,4237.121212,0,4879.515151,0,4496.757575,0,42,42,?
53:40.3,4580.212121,2522.181818,4260.818181,828.3636363,3988.30303,0,3918.242424,0,4312.333333,0,5362.212121,0,4223.212121,0,4343.757575,0,4999.545454,0,4241.242424,0,4470.484848,0,4233,0,4873.848484,0,4499.333333,3070.30303,42,42,?
53:40.3,4583.30303,2522.181818,4255.666666,828.3636363,4011.484848,3849.212121,3942.969697,0,4327.272727,0,5377.151515,0,4261.848484,0,4377.757575,0,5030.454545,0,4275.242424,0,4482.333333,0,4235.575757,0,4875.393939,0,4516.333333,3070.30303,42,42,?
53:40.3,4564.757575,2522.181818,4279.878787,828.3636363,4003.757575,3849.212121,3922.878787,65.93939393,4305.121212,0,5351.393939,0,4240.727272,0,4360.757575,0,5011.393939,0,4242.787878,0,4460.181818,0,4235.575757,0,4864.060606,0,4496.757575,3070.30303,42,42,?
53:40.3,4560.121212,2522.181818,4245.878787,828.3636363,4033.121212,3849.212121,3947.090909,65.93939393,4338.60606,4112.969697,5383.333333,0,4264.939394,0,4383.424242,0,5030.969696,0,4247.424242,0,4478.727272,0,4231.454545,0,4871.787878,0,4491.090909,3070.30303,42,42,?
53:40.3,4564.757575,2522.181818,4268.030303,828.3636363,3988.818181,3849.212121,3924.424242,65.93939393,4306.666666,4112.969697,5370.454545,3667.878788,4247.939394,3020.848485,4355.090909,0,4998.515151,0,4235.060606,0,4452.454545,0,4234.545454,0,4850.666666,0,4479.242424,3070.30303,42,42,?
53:40.3,4564.757575,2522.181818,4262.363636,828.3636363,3962.030303,3849.212121,3911.545454,65.93939393,4306.666666,4112.969697,5370.454545,3667.878788,4247.939394,3020.848485,4355.090909,0,4998.515151,0,4235.060606,0,4452.454545,0,4234.545454,0,4850.666666,0,4479.242424,3070.30303,42,42,?
53:40.3,4556,2522.181818,4272.151515,828.3636363,3971.818181,3849.212121,3903.30303,65.93939393,4294.818181,4112.969697,5364.787878,3667.878788,4225.787878,3020.848485,4333.454545,2897.212121,4982.545454,2645.818182,4225.787878,0,4444.727272,0,4234.545454,0,4845,0,4466.363636,3070.30303,42,42,?
53:40.3,4556,2522.181818,4272.151515,828.3636363,3971.818181,3849.212121,3903.30303,65.93939393,4294.818181,4112.969697,5364.787878,3667.878788,4225.787878,3020.848485,4333.454545,2897.212121,4982.545454,2645.818182,4225.787878,0,4444.727272,0,4234.545454,0,4845,0,4466.363636,3070.30303,42,42,?
53:40.4,4550.848484,2522.181818,4247.939394,828.3636363,3985.212121,3849.212121,3919.272727,65.93939393,4310.787878,4112.969697,5392.090909,3667.878788,4241.757575,3020.848485,4350.454545,2897.212121,5001.60606,2645.818182,4244.848484,3457.696969,4459.151515,0,4232.484848,0,4853.242424,0,4476.666666,3070.30303,42,42,?
53:40.4,4562.181818,2522.181818,4270.090909,828.3636363,3986.757575,3849.212121,3911.545454,65.93939393,4304.090909,4112.969697,5384.363636,3667.878788,4220.121212,3020.848485,4342.727272,2897.212121,4996.969696,2645.818182,4238.666666,3457.696969,4466.878787,3329.939394,4236.60606,0,4863.545454,0,4484.393939,3070.30303,42,42,?
53:40.4,4567.333333,2522.181818,4267,828.3636363,3983.666666,3849.212121,3910,65.93939393,4296.363636,4112.969697,5378.696969,3667.878788,4204.151515,3020.848485,4329.333333,2897.212121,4990.272727,2645.818182,4228.878787,3457.696969,4466.878787,3329.939394,4232.484848,4.121212121,4861.484848,0,4486.969697,3070.30303,42,42,?
53:40.4,4560.636363,2522.181818,4276.787878,828.3636363,3985.212121,3849.212121,3908.969697,65.93939393,4298.939394,4112.969697,5401.363636,3667.878788,4223.727272,3020.848485,4340.151515,2897.212121,4984.60606,2645.818182,4237.121212,3449.454545,4456.575757,3329.939394,4233.515151,4.121212121,4854.787878,2303.757576,4477.181818,3070.30303,42,42,?
53:40.4,4560.636363,2522.181818,4276.787878,828.3636363,3985.212121,3849.212121,3908.969697,65.93939393,4298.939394,4112.969697,5401.363636,3667.878788,4223.727272,3020.848485,4340.151515,2897.212121,4984.60606,2645.818182,4237.121212,3449.454545,4456.575757,3329.939394,4233.515151,4.121212121,4854.787878,2303.757576,4477.181818,3070.30303,42,42,?
53:40.4,4566.30303,2522.181818,4249.484848,828.3636363,3991.909091,3849.212121,3921.848484,65.93939393,4311.30303,4112.969697,5414.757575,3667.878788,4237.121212,3020.848485,4353.545454,2897.212121,4995.939393,2645.818182,4239.181818,3449.454545,4478.727272,3342.30303,4234.030303,4.121212121,4873.333333,2303.757576,4493.666666,3070.30303,42,42,?
53:40.4,4565.787878,2522.181818,4260.818181,828.3636363,3977.484848,3849.212121,3915.151515,65.93939393,4299.969697,4112.969697,5409.090909,3667.878788,4246.90909,3020.848485,4356.636363,2897.212121,5005.727272,2645.818182,4237.121212,3449.454545,4482.848484,3342.30303,4238.151515,4.121212121,4884.666666,2303.757576,4499.333333,3070.30303,42,42,?
53:40.4,4551.363636,2522.181818,4271.636363,828.3636363,3982.636363,3849.212121,3896.60606,65.93939393,4283.484848,4112.969697,5386.939393,3667.878788,4228.363636,3020.848485,4339.636363,2897.212121,4993.878787,2645.818182,4234.030303,3449.454545,4453.484848,3342.30303,4232.484848,4.121212121,4859.424242,2303.757576,4477.696969,3070.30303,42,42,?
53:40.4,4554.969697,2522.181818,4244.333333,828.3636363,4022.818181,3849.212121,3929.575757,65.93939393,4319.030303,4112.969697,5409.60606,3667.878788,4248.454545,3020.848485,4368.484848,2897.212121,5023.757575,2645.818182,4252.060606,3449.454545,4471,3342.30303,4229.90909,4.121212121,4855.818181,2303.757576,4485.939393,3070.30303,42,42,?
53:40.4,4565.787878,2522.181818,4278.333333,828.3636363,3956.878787,3849.212121,3896.090909,65.93939393,4287.090909,4112.969697,5392.60606,3667.878788,4221.151515,3020.848485,4335.515151,2897.212121,4985.121212,2645.818182,4210.333333,3449.454545,4450.90909,3342.30303,4236.090909,4.121212121,4847.060606,2303.757576,4482.333333,3070.30303,42,42,?
53:40.4,4558.575757,2522.181818,4255.666666,828.3636363,3955.848484,3849.212121,3904.333333,65.93939393,4293.272727,4112.969697,5408.060606,3667.878788,4234.545454,3020.848485,4336.030303,2897.212121,4979.454545,2645.818182,4219.090909,3449.454545,4444.212121,3342.30303,4229.90909,4.121212121,4840.878787,2303.757576,4482.333333,3070.30303,42,42,?
53:40.4,4555.484848,2522.181818,4258.757575,828.3636363,3999.636363,3849.212121,3916.696969,65.93939393,4306.666666,4112.969697,5415.272727,3667.878788,4239.181818,3020.848485,4353.030303,2897.212121,4996.454545,2645.818182,4225.272727,3449.454545,4453.484848,3342.30303,4234.545454,4.121212121,4852.212121,2303.757576,4482.333333,3070.30303,42,42,?
53:40.5,4568.363636,2522.181818,4278.848484,828.3636363,3977.484848,3849.212121,3894.030303,65.93939393,4286.575757,4112.969697,5396.727272,3667.878788,4210.333333,3020.848485,4333.454545,2897.212121,4985.121212,2645.818182,4211.878787,3449.454545,4448.848484,3342.30303,4238.666666,4.121212121,4854.272727,2303.757576,4483.363636,3070.30303,42,42,?
53:40.5,4560.636363,2522.181818,4265.969697,828.3636363,4007.878787,3849.212121,3942.454545,65.93939393,4310.787878,4112.969697,5439.484848,3667.878788,4260.30303,3020.848485,4372.60606,2897.212121,5031.484848,2645.818182,4272.666666,3449.454545,4478.212121,3342.30303,4237.636363,4.121212121,4860.969696,2303.757576,4508.090909,3070.30303,42,42,?
53:40.5,4560.636363,2522.181818,4265.969697,828.3636363,4007.363636,3849.212121,3922.878787,65.93939393,4310.787878,4112.969697,5416.818181,3667.878788,4228.363636,3020.848485,4347.878787,2897.212121,5006.242424,2645.818182,4250,3449.454545,4458.636363,3342.30303,4237.636363,4.121212121,4848.090909,2303.757576,4480.272727,3070.30303,42,42,?
53:40.5,4559.60606,2522.181818,4264.424242,828.3636363,3976.969697,3849.212121,3901.757575,65.93939393,4296.878787,4112.969697,5393.636363,3667.878788,4194.878787,3020.848485,4324.696969,2897.212121,4982.030303,2645.818182,4222.181818,3449.454545,4451.424242,3342.30303,4237.636363,4.121212121,4846.545454,2303.757576,4470.484848,3070.30303,42,42,?
53:40.5,4571.969697,2522.181818,4247.424242,828.3636363,3969.757575,3849.212121,3924.939394,65.93939393,4319.030303,4112.969697,5418.878787,3667.878788,4231.969697,3020.848485,4350.969697,2897.212121,5006.242424,2645.818182,4244.848484,3449.454545,4473.060606,3342.30303,4234.030303,4.121212121,4864.060606,2303.757576,4494.696969,3070.30303,42,42,?
53:40.5,4553.939393,2522.181818,4272.151515,828.3636363,3972.848484,3849.212121,3906.909091,65.93939393,4294.30303,4112.969697,5409.60606,3667.878788,4219.090909,3020.848485,4330.878787,2897.212121,4986.666666,2645.818182,4227.333333,3449.454545,4445.242424,3342.30303,4233,4.121212121,4843.454545,2303.757576,4470.484848,3070.30303,42,42,?
53:40.5,4553.424242,2522.181818,4246.393939,828.3636363,4003.757575,3849.212121,3924.939394,65.93939393,4307.696969,4112.969697,5419.90909,3667.878788,4224.242424,3020.848485,4343.757575,2897.212121,5002.636363,2645.818182,4239.696969,3449.454545,4451.939393,3342.30303,4230.424242,4.121212121,4841.90909,2303.757576,4471.515151,3070.30303,42,42,?
53:40.5,4574.030303,2522.181818,4266.484848,828.3636363,3967.696969,3849.212121,3911.030303,65.93939393,4290.696969,4112.969697,5409.60606,3667.878788,4211.878787,3020.848485,4333.454545,2897.212121,4989.242424,2645.818182,4220.636363,3449.454545,4459.151515,3342.30303,4236.60606,4.121212121,4862,2303.757576,4482.333333,3070.30303,42,42,?
53:40.5,4566.30303,2522.181818,4262.878787,828.3636363,3959.969697,3849.212121,3910.515151,65.93939393,4293.272727,4112.969697,5421.969696,3667.878788,4216.515151,3020.848485,4332.424242,2897.212121,4983.060606,2645.818182,4219.090909,3449.454545,4459.151515,3342.30303,4236.090909,4.121212121,4858.90909,2303.757576,4476.666666,3070.30303,42,42,?
53:40.5,4551.878787,2522.181818,4253.090909,828.3636363,3997.060606,3849.212121,3925.969697,65.93939393,4315.424242,4112.969697,5444.636363,3667.878788,4247.939394,3020.848485,4356.121212,2897.212121,5006.242424,2645.818182,4242.787878,3449.454545,4456.060606,3342.30303,4234.545454,4.121212121,4846.030303,2303.757576,4471,3070.30303,42,42,?
53:40.5,4551.878787,2522.181818,4273.696969,828.3636363,3973.363636,3849.212121,3893.515151,65.93939393,4286.575757,4112.969697,5422.999999,3667.878788,4227.848484,3020.848485,4331.393939,2897.212121,4982.545454,2645.818182,4208.272727,3449.454545,4422.575757,3342.30303,4230.939394,4.121212121,4832.636363,2303.757576,4462.757575,3070.30303,42,42,?
53:40.5,4553.939393,2522.181818,4238.666666,828.3636363,3978.515151,3849.212121,3920.818181,65.93939393,4314.90909,4112.969697,5449.272727,3667.878788,4237.636363,3020.848485,4348.393939,2897.212121,5003.666666,2645.818182,4222.696969,3449.454545,4433.90909,3342.30303,4227.848484,4.121212121,4837.272727,2303.757576,4481.818181,3070.30303,42,42,?
53:40.5,4541.060606,2522.181818,4262.363636,828.3636363,3956.878787,3849.212121,3908.454545,65.93939393,4302.030303,4112.969697,5435.878787,3667.878788,4215.484848,3020.848485,4335,2897.212121,4986.666666,2645.818182,4209.30303,3449.454545,4427.727272,3342.30303,4238.666666,4.121212121,4834.696969,2303.757576,4460.696969,3070.30303,42,42,?
53:40.6,4535.393939,2522.181818,4259.787878,828.3636363,3953.787878,3849.212121,3896.60606,65.93939393,4287.60606,4112.969697,5417.333333,3667.878788,4209.30303,3020.848485,4326.757575,2897.212121,4976.363636,2645.818182,4197.454545,3449.454545,4426.696969,3342.30303,4234.030303,4.121212121,4835.212121,2303.757576,4442.151515,3070.30303,42,42,?
53:40.6,4554.454545,2522.181818,4244.333333,828.3636363,3980.060606,3849.212121,3926.484848,65.93939393,4315.939394,4112.969697,5431.242424,3667.878788,4237.121212,3020.848485,4358.696969,2897.212121,5018.090909,2645.818182,4242.787878,3449.454545,4454,3342.30303,4228.363636,4.121212121,4850.666666,2303.757576,4472.545454,3070.30303,42,42,?
53:40.6,4556,2522.181818,4278.848484,828.3636363,3953.272727,3849.212121,3906.393939,65.93939393,4293.272727,4112.969697,5400.848484,3667.878788,4204.151515,3020.848485,4331.393939,2897.212121,4993.878787,2645.818182,4238.666666,3449.454545,4437,3342.30303,4235.575757,4.121212121,4845,2303.757576,4472.545454,3070.30303,42,42,?
53:40.6,4540.030303,2522.181818,4245.363636,828.3636363,3992.424242,3849.212121,3931.121212,65.93939393,4318.515151,4112.969697,5415.272727,3667.878788,4230.424242,3020.848485,4348.90909,2897.212121,5005.727272,2645.818182,4236.090909,3449.454545,4450.90909,3342.30303,4234.545454,4.121212121,4852.727272,2303.757576,4471.515151,3070.30303,42,42,?
53:40.6,4546.212121,2522.181818,4258.242424,828.3636363,3979.030303,3849.212121,3919.787878,65.93939393,4314.393939,4112.969697,5408.575757,3667.878788,4238.666666,3020.848485,4349.939394,2897.212121,5005.727272,2645.818182,4206.727272,3449.454545,4448.333333,3342.30303,4234.030303,4.121212121,4857.363636,2303.757576,4465.848484,3070.30303,42,42,?
53:40.6,4550.848484,2522.181818,4264.939394,828.3636363,3936.272727,3849.212121,3897.121212,65.93939393,4295.333333,4112.969697,5393.121212,3667.878788,4219.60606,3020.848485,4331.393939,2897.212121,4990.272727,2645.818182,4207.242424,3449.454545,4428.242424,3342.30303,4229.90909,4.121212121,4842.424242,2303.757576,4457.60606,3070.30303,42,42,?
53:40.6,4532.818181,2522.181818,4241.242424,828.3636363,3971.818181,3849.212121,3918.757575,65.93939393,4315.424242,4112.969697,5411.666666,3667.878788,4243.818181,3020.848485,4356.636363,2897.212121,5013.969696,2645.818182,4260.30303,3449.454545,4439.575757,3342.30303,4233.515151,4.121212121,4840.878787,2303.757576,4459.666666,3070.30303,42,42,?
53:40.6,4527.151515,2522.181818,4273.696969,828.3636363,3951.727272,3849.212121,3893,65.93939393,4291.212121,4112.969697,5381.787878,3667.878788,4220.636363,3020.848485,4330.878787,2897.212121,4983.060606,2645.818182,4230.939394,3449.454545,4425.666666,3342.30303,4237.636363,4.121212121,4836.757575,2303.757576,4448.333333,3070.30303,42,42,?
53:40.6,4547.242424,2522.181818,4247.939394,828.3636363,3960.484848,3849.212121,3918.757575,65.93939393,4322.121212,4112.969697,5398.272727,3667.878788,4240.212121,3020.848485,4349.939394,2897.212121,4998.515151,2645.818182,4228.363636,3449.454545,4453.484848,3342.30303,4229.90909,4.121212121,4852.727272,2303.757576,4471,3070.30303,42,42,?
53:40.6,4551.878787,2522.181818,4253.60606,828.3636363,3962.545454,3849.212121,3917.212121,65.93939393,4322.636363,4112.969697,5396.727272,3667.878788,4238.666666,3020.848485,4356.121212,2897.212121,5003.151515,2645.818182,4231.969697,3449.454545,4457.60606,3342.30303,4236.60606,4.121212121,4856.333333,2303.757576,4472.545454,3070.30303,42,42,?
53:40.6,4540.545454,2522.181818,4263.393939,828.3636363,3922.363636,3849.212121,3887.333333,65.93939393,4290.696969,4112.969697,5364.272727,3667.878788,4211.363636,3020.848485,4325.727272,2897.212121,4977.90909,2645.818182,4210.333333,3449.454545,4423.60606,3342.30303,4235.060606,4.121212121,4834.696969,2303.757576,4451.939393,3070.30303,42,42,?
53:40.6,4538.484848,2522.181818,4245.878787,828.3636363,3932.151515,3849.212121,3904.333333,65.93939393,4308.727272,4112.969697,5373.030302,3667.878788,4233.515151,3020.848485,4344.272727,2897.212121,4999.030303,2645.818182,4214.454545,3449.454545,4431.848484,3342.30303,4227.848484,4.121212121,4835.727272,2303.757576,4456.575757,3070.30303,42,42,?
53:40.6,4531.272727,2522.181818,4272.151515,828.3636363,3940.393939,3849.212121,3880.636363,65.93939393,4286.060606,4112.969697,5356.545454,3667.878788,4206.727272,3020.848485,4325.212121,2897.212121,4976.363636,2645.818182,4197.969697,3449.454545,4414.848484,3342.30303,4233.515151,4.121212121,4825.424242,2303.757576,4437.515151,3070.30303,42,42,?
53:40.7,4536.424242,2522.181818,4238.151515,828.3636363,3976.969697,3849.212121,3908.969697,65.93939393,4305.636363,4112.969697,5382.30303,3667.878788,4231.969697,3020.848485,4345.30303,2897.212121,4996.454545,2645.818182,4224.757575,3449.454545,4425.666666,3342.30303,4232.484848,4.121212121,4821.30303,2303.757576,4450.393939,3070.30303,42,42,?
53:40.7,4554.454545,2522.181818,4260.818181,828.3636363,3953.272727,3849.212121,3911.030303,65.93939393,4302.545454,4112.969697,5382.30303,3667.878788,4242.787878,3020.848485,4347.878787,2897.212121,4998.515151,2645.818182,4193.848484,3449.454545,4427.727272,3342.30303,4234.030303,4.121212121,4830.060606,2303.757576,4466.363636,3070.30303,42,42,?
53:40.7,4544.151515,2522.181818,4282.969697,828.3636363,3928.030303,3849.212121,3886.30303,65.93939393,4279.363636,4112.969697,5356.030302,3667.878788,4208.272727,3020.848485,4317.484848,2897.212121,4964.515151,2645.818182,4159.848484,3449.454545,4405.575757,3342.30303,4229.393939,4.121212121,4821.30303,2303.757576,4455.030303,3070.30303,42,42,?
53:40.7,4539.515151,2522.181818,4221.151515,828.3636363,4006.333333,3849.212121,3947.60606,65.93939393,4340.151515,4112.969697,5398.787878,3667.878788,4252.575757,3020.848485,4371.060606,2897.212121,5015,2645.818182,4247.939394,3449.454545,4441.121212,3342.30303,4224.757575,4.121212121,4830.575757,2303.757576,4476.151515,3070.30303,42,42,?
53:40.7,4545.696969,2522.181818,4263.393939,828.3636363,3981.090909,3849.212121,3915.666666,65.93939393,4311.30303,4112.969697,5368.393939,3667.878788,4229.393939,3020.848485,4346.848484,2897.212121,4991.30303,2645.818182,4223.727272,3449.454545,4426.181818,3342.30303,4235.060606,4.121212121,4830.575757,2303.757576,4458.121212,3070.30303,42,42,?
53:40.7,4543.636363,2522.181818,4271.636363,828.3636363,3938.333333,3849.212121,3886.30303,65.93939393,4291.212121,4112.969697,5348.818181,3667.878788,4210.333333,3020.848485,4318.515151,2897.212121,4967.60606,2645.818182,4184.060606,3449.454545,4408.666666,3342.30303,4234.545454,4.121212121,4824.90909,2303.757576,4446.787878,3070.30303,42,42,?
53:40.7,4557.030303,2522.181818,4249.484848,828.3636363,3957.909091,3849.212121,3921.333333,65.93939393,4323.666666,4112.969697,5377.666666,3667.878788,4243.818181,3020.848485,4355.090909,2897.212121,5007.787878,2645.818182,4225.787878,3449.454545,4433.393939,3342.30303,4234.545454,4.121212121,4837.787878,2303.757576,4483.363636,3070.30303,42,42,?
53:40.7,4553.424242,2522.181818,4272.666666,828.3636363,3970.272727,3849.212121,3908.454545,65.93939393,4299.969697,4112.969697,5358.090909,3667.878788,4220.636363,3020.848485,4340.666666,2897.212121,4996.969696,2645.818182,4212.90909,3449.454545,4424.121212,3342.30303,4233,4.121212121,4837.272727,2303.757576,4475.121212,3070.30303,42,42,?
53:40.7,4540.030303,2522.181818,4246.393939,828.3636363,3996.545454,3849.212121,3920.30303,65.93939393,4311.30303,4112.969697,5365.818181,3667.878788,4231.454545,3020.848485,4351.484848,2897.212121,5005.727272,2645.818182,4222.181818,3449.454545,4431.848484,3342.30303,4228.878787,4.121212121,4839.333333,2303.757576,4459.151515,3070.30303,42,42,?
53:40.7,4548.787878,2522.181818,4263.90909,828.3636363,3962.030303,3849.212121,3904.848484,65.93939393,4302.030303,4112.969697,5352.424242,3667.878788,4225.272727,3020.848485,4342.727272,2897.212121,4995.424242,2645.818182,4224.242424,3449.454545,4432.878787,3342.30303,4237.121212,4.121212121,4839.848484,2303.757576,4455.545454,3070.30303,42,42,?
53:40.7,4561.151515,2522.181818,4258.242424,828.3636363,3955.848484,3849.212121,3908.454545,65.93939393,4306.151515,4112.969697,5347.787878,3667.878788,4221.151515,3020.848485,4342.212121,2897.212121,5002.636363,2645.818182,4231.454545,3449.454545,4444.212121,3342.30303,4236.090909,4.121212121,4848.60606,2303.757576,4470.484848,3070.30303,42,42,?
53:40.7,4568.363636,2522.181818,4245.878787,828.3636363,3976.454545,3849.212121,3933.696969,65.93939393,4326.242424,4112.969697,5363.757575,3667.878788,4242.272727,3020.848485,4367.454545,2897.212121,5025.30303,2645.818182,4251.030303,3449.454545,4461.727272,3342.30303,4234.030303,4.121212121,4865.60606,2303.757576,4493.666666,3070.30303,42,42,?
53:40.7,4554.454545,2522.181818,4278.333333,828.3636363,3947.090909,3849.212121,3906.909091,65.93939393,4295.848484,4112.969697,5341.60606,3667.878788,4221.666666,3020.848485,4339.636363,2897.212121,4989.757575,2645.818182,4215.484848,3449.454545,4430.30303,3342.30303,4238.151515,4.121212121,4846.030303,2303.757576,4475.636363,3070.30303,42,42,?
53:40.8,4537.454545,2522.181818,4249.484848,828.3636363,3987.272727,3849.212121,3929.575757,65.93939393,4321.60606,4112.969697,5367.878787,3667.878788,4244.848484,3020.848485,4356.121212,2897.212121,5012.939393,2645.818182,4227.848484,3449.454545,4434.939394,3342.30303,4232.484848,4.121212121,4834.181818,2303.757576,4468.424242,3070.30303,42,42,?
53:40.8,4541.060606,2522.181818,4262.363636,828.3636363,3980.060606,3849.212121,3915.151515,65.93939393,4310.272727,4112.969697,5364.272727,3667.878788,4231.969697,3020.848485,4344.787878,2897.212121,5006.242424,2645.818182,4229.90909,3449.454545,4425.666666,3342.30303,4234.030303,4.121212121,4829.030303,2303.757576,4460.696969,3070.30303,42,42,?
53:40.8,4546.727272,2522.181818,4262.363636,828.3636363,3951.727272,3849.212121,3903.30303,65.93939393,4295.848484,4112.969697,5356.030302,3667.878788,4222.181818,3020.848485,4332.424242,2897.212121,4989.242424,2645.818182,4225.272727,3449.454545,4412.787878,3342.30303,4233.515151,4.121212121,4821.818181,2303.757576,4461.727272,3070.30303,42,42,?
53:40.8,4550.848484,2468.60606,4247.424242,828.3636363,3981.60606,3849.212121,3933.181818,65.93939393,4330.878787,4112.969697,5383.848484,3667.878788,4248.969697,3020.848485,4367.454545,2897.212121,5025.30303,2645.818182,4250,3449.454545,4431.848484,3342.30303,4231.454545,4.121212121,4831.090909,2303.757576,4479.242424,3070.30303,42,42,?
53:40.8,4550.333333,2468.60606,4277.818181,824.2424242,3956.878787,3849.212121,3906.909091,65.93939393,4310.272727,4112.969697,5371.999999,3667.878788,4205.181818,3020.848485,4341.181818,2897.212121,5001.60606,2645.818182,4217.030303,3449.454545,4421.030303,3342.30303,4234.030303,4.121212121,4834.181818,2303.757576,4467.393939,3070.30303,42,42,?
53:40.8,4553.939393,2468.60606,4245.363636,824.2424242,3965.636363,3849.212121,3926.484848,65.93939393,4327.272727,4112.969697,5396.212121,3667.878788,4222.181818,3020.848485,4353.030303,2897.212121,5012.424242,2645.818182,4211.878787,3449.454545,4457.090909,3342.30303,4234.030303,4.121212121,4862,2303.757576,4477.181818,3045.575757,42,42,?
53:40.8,4549.818181,2468.60606,4256.181818,824.2424242,3970.787878,3865.696969,3920.818181,65.93939393,4323.666666,4112.969697,5397.757575,3667.878788,4235.575757,3020.848485,4351.484848,2897.212121,5015.515151,2645.818182,4221.151515,3449.454545,4459.151515,3342.30303,4239.181818,4.121212121,4865.090909,2303.757576,4473.060606,3045.575757,42,42,?
53:40.8,4539.515151,2468.60606,4266.484848,824.2424242,3971.818181,3865.696969,3902.272727,4.121212121,4302.030303,4112.969697,5393.121212,3667.878788,4225.272727,3020.848485,4333.454545,2897.212121,5003.151515,2645.818182,4241.242424,3449.454545,4422.060606,3342.30303,4234.030303,4.121212121,4831.090909,2303.757576,4460.181818,3045.575757,42,42,?
53:40.8,4556.515151,2468.60606,4243.30303,824.2424242,3983.151515,3865.696969,3932.666666,4.121212121,4321.090909,4100.60606,5431.242424,3667.878788,4255.666666,3020.848485,4365.393939,2897.212121,5029.939393,2645.818182,4268.545454,3449.454545,4443.181818,3342.30303,4229.90909,4.121212121,4840.878787,2303.757576,4481.30303,3045.575757,42,42,?
53:40.8,4570.939393,2468.60606,4273.696969,824.2424242,3915.666666,3865.696969,3895.575757,4.121212121,4293.272727,4100.60606,5418.363636,3618.424242,4224.242424,3020.848485,4338.60606,2897.212121,4995.424242,2645.818182,4224.757575,3449.454545,4434.424242,3342.30303,4233.515151,4.121212121,4849.636363,2303.757576,4472.545454,3045.575757,42,42,?
53:40.8,4543.121212,2468.60606,4245.363636,824.2424242,3929.060606,3865.696969,3898.151515,4.121212121,4309.242424,4100.60606,5435.878787,3618.424242,4220.636363,3016.727272,4335.515151,2897.212121,4990.787878,2645.818182,4214.454545,3449.454545,4428.242424,3342.30303,4229.393939,4.121212121,4840.363636,2303.757576,4458.121212,3045.575757,42,42,?
53:40.8,4518.90909,2468.60606,4252.060606,824.2424242,3964.60606,3865.696969,3911.030303,4.121212121,4312.848484,4100.60606,5442.060606,3618.424242,4217.030303,3016.727272,4336.545454,2901.333333,4995.424242,2645.818182,4202.090909,3449.454545,4421.545454,3342.30303,4234.030303,4.121212121,4829.030303,2303.757576,4445.757575,3045.575757,42,42,?
53:40.9,4529.727272,2468.60606,4272.151515,824.2424242,3958.939394,3865.696969,3898.151515,4.121212121,4291.727272,4100.60606,5421.969696,3618.424242,4201.060606,3016.727272,4321.090909,2901.333333,4986.666666,2559.272727,4194.878787,3449.454545,4410.212121,3342.30303,4233.515151,4.121212121,4819.757575,2303.757576,4443.181818,3045.575757,42,42,?
53:40.9,4547.242424,2468.60606,4243.818181,824.2424242,3990.363636,3865.696969,3922.878787,4.121212121,4318,4100.60606,5448.242424,3618.424242,4240.212121,3016.727272,4357.666666,2901.333333,5021.181818,2559.272727,4230.424242,3445.333333,4439.060606,3342.30303,4229.90909,4.121212121,4836.242424,2303.757576,4474.60606,3045.575757,42,42,?
53:40.9,4559.090909,2468.60606,4272.151515,824.2424242,3952.757575,3865.696969,3895.575757,4.121212121,4286.060606,4100.60606,5435.878787,3618.424242,4210.848484,3016.727272,4333.969697,2901.333333,4990.787878,2559.272727,4206.212121,3445.333333,4429.787878,3214.545454,4235.575757,4.121212121,4839.333333,2303.757576,4478.212121,3045.575757,42,42,?
53:40.9,4567.848484,2468.60606,4254.121212,824.2424242,3936.787878,3865.696969,3905.878787,4.121212121,4296.878787,4100.60606,5453.90909,3618.424242,4210.848484,3016.727272,4333.454545,2901.333333,4994.393939,2559.272727,4229.90909,3445.333333,4429.787878,3214.545454,4229.393939,12.36363636,4834.181818,2303.757576,4478.727272,3045.575757,42,42,?
53:40.9,4544.151515,2468.60606,4256.181818,824.2424242,3971.818181,3865.696969,3922.363636,4.121212121,4309.757575,4100.60606,5471.424242,3618.424242,4236.090909,3016.727272,4348.90909,2901.333333,5011.90909,2559.272727,4233,3445.333333,4426.181818,3214.545454,4228.878787,12.36363636,4830.575757,2279.030303,4463.272727,3045.575757,42,42,?
53:40.9,4544.151515,2468.60606,4237.121212,824.2424242,3983.666666,3865.696969,3905.878787,4.121212121,4320.575757,4100.60606,5450.818181,3618.424242,4212.393939,3016.727272,4323.666666,2901.333333,5019.121212,2559.272727,4183.545454,3449.454545,4398.878787,3214.545454,4227.333333,12.36363636,4818.212121,2279.030303,4438.030303,3045.575757,42,42,?
53:40.9,4544.151515,2468.60606,4237.121212,824.2424242,3987.272727,3865.696969,3938.848484,4.121212121,4320.575757,4100.60606,5481.212121,3618.424242,4233,3016.727272,4354.060606,2901.333333,5019.121212,2559.272727,4226.30303,3449.454545,4430.30303,3214.545454,4227.333333,12.36363636,4837.272727,2279.030303,4478.727272,3045.575757,42,42,?
53:40.9,4569.393939,2468.60606,4270.090909,824.2424242,3940.393939,3865.696969,3907.939394,4.121212121,4308.727272,4100.60606,5476.060606,3618.424242,4219.090909,3016.727272,4340.666666,2901.333333,5004.696969,2559.272727,4227.333333,3449.454545,4438.030303,3214.545454,4238.151515,8.242424242,4846.545454,2279.030303,4489.030303,3045.575757,42,42,?
53:40.9,4550.333333,2468.60606,4260.818181,824.2424242,3966.666666,3865.696969,3903.30303,4.121212121,4307.696969,4100.60606,5482.757575,3618.424242,4224.242424,3016.727272,4333.969697,2901.333333,4997.484848,2559.272727,4222.696969,3449.454545,4441.121212,3214.545454,4236.60606,8.242424242,4844.484848,2279.030303,4468.424242,3045.575757,42,42,?
53:40.9,4547.242424,2468.60606,4247.939394,824.2424242,4000.151515,3865.696969,3927.515151,4.121212121,4327.272727,4100.60606,5500.272727,3618.424242,4246.393939,3016.727272,4354.060606,2901.333333,5018.60606,2559.272727,4253.090909,3449.454545,4453.484848,3214.545454,4234.030303,8.242424242,4851.181818,2279.030303,4472.030303,3045.575757,42,42,?
53:40.9,4555.484848,2468.60606,4275.757575,824.2424242,3949.666666,3865.696969,3896.60606,4.121212121,4293.787878,4100.60606,5478.636363,3618.424242,4207.757575,3016.727272,4324.696969,2901.333333,4988.212121,2559.272727,4224.757575,3449.454545,4432.878787,3214.545454,4232.484848,8.242424242,4842.939393,2279.030303,4471,3045.575757,42,42,?
53:40.9,4548.272727,2468.60606,4245.878787,824.2424242,3975.939394,3865.696969,3921.848484,4.121212121,4316.454545,4100.60606,5505.424242,3618.424242,4219.090909,3016.727272,4338.090909,2901.333333,5005.212121,2559.272727,4226.30303,3449.454545,4443.181818,3214.545454,4230.424242,8.242424242,4846.545454,2279.030303,4473.060606,3045.575757,42,42,?
53:40.9,4542.090909,2468.60606,4264.939394,824.2424242,3976.969697,3865.696969,3913.090909,4.121212121,4311.818181,4100.60606,5503.878787,3618.424242,4211.878787,3016.727272,4320.575757,2901.333333,4991.818181,2559.272727,4220.636363,3449.454545,4428.242424,3214.545454,4238.666666,8.242424242,4839.333333,2279.030303,4457.090909,3045.575757,42,42,?
53:41.0,4542.090909,2468.60606,4262.363636,824.2424242,3954.30303,3865.696969,3907.939394,4.121212121,4307.696969,4100.60606,5507.484848,3618.424242,4205.696969,3016.727272,4308.727272,2901.333333,4977.393939,2559.272727,4217.545454,3449.454545,4421.030303,3214.545454,4232.484848,8.242424242,4825.939393,2279.030303,4463.272727,3045.575757,42,42,?
53:41.0,4547.242424,2468.60606,4251.030303,824.2424242,3976.969697,3865.696969,3938.333333,4.121212121,4326.242424,4100.60606,5533.242424,3618.424242,4223.212121,3016.727272,4337.060606,2901.333333,5003.666666,2559.272727,4235.060606,3449.454545,4439.575757,3214.545454,4229.90909,8.242424242,4834.181818,2279.030303,4480.787878,3045.575757,42,42,?
53:41.0,4549.818181,2468.60606,4279.878787,824.2424242,3962.545454,3865.696969,3912.575757,4.121212121,4297.90909,4100.60606,5514.181818,3618.424242,4194.363636,3016.727272,4318.515151,2901.333333,4987.696969,2559.272727,4221.151515,3449.454545,4415.363636,3214.545454,4235.575757,8.242424242,4829.030303,2279.030303,4463.787878,3045.575757,42,42,?
53:41.0,4548.272727,2468.60606,4252.060606,824.2424242,3974.909091,3865.696969,3920.30303,4.121212121,4313.363636,4100.60606,5537.878787,3618.424242,4215.484848,3016.727272,4335.515151,2901.333333,5001.60606,2559.272727,4226.30303,3449.454545,4424.636363,3214.545454,4233,8.242424242,4832.636363,2279.030303,4472.030303,3045.575757,42,42,?
53:41.0,4546.212121,2468.60606,4270.60606,824.2424242,3977.484848,3865.696969,3905.878787,4.121212121,4299.969697,4100.60606,5556.424242,3618.424242,4205.696969,3016.727272,4321.60606,2901.333333,4993.878787,2559.272727,4212.90909,3449.454545,4439.575757,3214.545454,4234.030303,8.242424242,4851.181818,2279.030303,4465.848484,3045.575757,42,42,?
53:41.0,4546.212121,2468.60606,4270.60606,824.2424242,3977.484848,3865.696969,3905.878787,4.121212121,4299.969697,4100.60606,5556.424242,3618.424242,4205.696969,3016.727272,4321.60606,2901.333333,4993.878787,2559.272727,4212.90909,3449.454545,4439.575757,3214.545454,4234.030303,8.242424242,4851.181818,2279.030303,4465.848484,3045.575757,42,42,?
53:41.0,4566.818181,2468.60606,4246.90909,824.2424242,3972.848484,3865.696969,3930.090909,4.121212121,4327.787878,4100.60606,5584.242424,3618.424242,4243.30303,3016.727272,4356.121212,2901.333333,5034.060606,2559.272727,4263.90909,3449.454545,4463.272727,3214.545454,4233,8.242424242,4852.727272,2279.030303,4495.727272,3045.575757,42,42,?
53:41.0,4557.030303,2468.60606,4275.242424,824.2424242,3938.333333,3865.696969,3891.454545,4.121212121,4297.393939,4100.60606,5561.575757,3618.424242,4215.484848,3016.727272,4326.757575,2901.333333,4997.484848,2559.272727,4228.878787,3449.454545,4432.363636,3214.545454,4238.666666,8.242424242,4835.727272,2279.030303,4478.727272,3045.575757,42,42,?
53:41.0,4544.666666,2468.60606,4245.363636,824.2424242,3972.848484,3865.696969,3911.030303,4.121212121,4315.939394,4100.60606,5585.272727,3618.424242,4226.30303,3016.727272,4333.969697,2901.333333,5006.757575,2559.272727,4245.363636,3449.454545,4439.575757,3214.545454,4236.090909,8.242424242,4841.393939,2279.030303,4468.424242,3045.575757,42,42,?
53:41.0,4560.636363,2468.60606,4257.727272,824.2424242,3963.575757,3865.696969,3915.151515,4.121212121,4315.939394,4100.60606,5591.969696,3618.424242,4228.878787,3016.727272,4339.636363,2901.333333,5016.030303,2559.272727,4245.363636,3449.454545,4452.969697,3214.545454,4238.151515,8.242424242,4853.242424,2279.030303,4472.030303,3045.575757,42,42,?
53:41.0,4561.666666,2468.60606,4274.212121,824.2424242,3945.545454,3865.696969,3899.696969,4.121212121,4299.969697,4100.60606,5583.727272,3618.424242,4209.818181,3016.727272,4327.787878,2901.333333,4999.545454,2559.272727,4213.424242,3449.454545,4445.757575,3214.545454,4231.969697,8.242424242,4848.60606,2279.030303,4470.484848,3045.575757,42,42,?
53:41.0,4563.212121,2468.60606,4247.424242,824.2424242,3981.090909,3865.696969,3929.060606,4.121212121,4333.969697,4100.60606,5623.393939,3618.424242,4242.272727,3016.727272,4361.787878,2901.333333,5031.484848,2559.272727,4246.393939,3449.454545,4475.121212,3214.545454,4227.848484,8.242424242,4865.090909,2279.030303,4492.121212,3045.575757,42,42,?
53:41.0,4566.818181,2468.60606,4275.757575,824.2424242,3946.575757,3865.696969,3893,4.121212121,4304.090909,4100.60606,5610.515151,3618.424242,4214.454545,3016.727272,4332.424242,2901.333333,5003.151515,2559.272727,4235.575757,3449.454545,4462.242424,3214.545454,4237.121212,8.242424242,4860.969696,2279.030303,4484.90909,3045.575757,42,42,?
53:41.1,4562.181818,2468.60606,4253.090909,824.2424242,3959.454545,3865.696969,3899.696969,4.121212121,4311.818181,4100.60606,5620.30303,3618.424242,4219.090909,3016.727272,4332.939394,2901.333333,5005.212121,2559.272727,4248.969697,3449.454545,4455.545454,3214.545454,4235.060606,8.242424242,4847.060606,2279.030303,4483.878787,3045.575757,42,42,?
53:41.1,4565.787878,2468.60606,4256.181818,824.2424242,3972.333333,3865.696969,3917.727272,4.121212121,4325.727272,4100.60606,5640.393939,3618.424242,4238.151515,3016.727272,4353.545454,2901.333333,5027.363636,2559.272727,4261.848484,3449.454545,4463.272727,3214.545454,4237.121212,8.242424242,4857.363636,2279.030303,4488,3045.575757,42,42,?
53:41.1,4563.212121,2468.60606,4274.727272,824.2424242,3946.575757,3865.696969,3900.212121,4.121212121,4306.666666,4100.60606,5632.151515,3618.424242,4215.484848,3016.727272,4335,2901.333333,5015.515151,2559.272727,4226.818181,3449.454545,4455.545454,3214.545454,4234.545454,8.242424242,4863.545454,2279.030303,4479.757575,3045.575757,42,42,?
53:41.1,4558.575757,2468.60606,4246.393939,824.2424242,3996.545454,3865.696969,3930.090909,4.121212121,4335,4100.60606,5653.787878,3618.424242,4240.727272,3016.727272,4361.272727,2901.333333,5044.878787,2559.272727,4241.242424,3449.454545,4473.060606,3214.545454,4230.939394,8.242424242,4867.151515,2279.030303,4494.181818,3045.575757,42,42,?
53:41.1,4562.696969,2468.60606,4275.757575,824.2424242,3991.909091,3865.696969,3912.575757,4.121212121,4317.484848,4100.60606,5646.575757,3618.424242,4228.878787,3016.727272,4348.90909,2901.333333,5028.90909,2559.272727,4235.060606,3449.454545,4458.636363,3214.545454,4239.181818,8.242424242,4862,2279.030303,4484.90909,3045.575757,42,42,?
53:41.1,4570.424242,2468.60606,4258.757575,824.2424242,3982.121212,3865.696969,3919.787878,4.121212121,4331.393939,4100.60606,5675.424242,3618.424242,4243.818181,3016.727272,4359.727272,2901.333333,5038.696969,2559.272727,4255.666666,3449.454545,4468.424242,3214.545454,4238.151515,8.242424242,4868.181818,2279.030303,4485.939393,3045.575757,42,42,?
53:41.1,4577.636363,2468.60606,4259.272727,824.2424242,3995.515151,3865.696969,3937.818181,4.121212121,4347.878787,4100.60606,5696.545454,3618.424242,4264.939394,3016.727272,4380.333333,2901.333333,5060.333333,2559.272727,4281.939394,3449.454545,4484.393939,3214.545454,4238.151515,8.242424242,4875.90909,2279.030303,4503.969697,3045.575757,42,42,?
53:41.1,4581.242424,2468.60606,4285.030303,824.2424242,3980.060606,3865.696969,3921.333333,4.121212121,4315.939394,4100.60606,5670.787878,3618.424242,4233.515151,3016.727272,4353.545454,2901.333333,5036.121212,2559.272727,4262.363636,3449.454545,4461.727272,3214.545454,4237.636363,8.242424242,4861.484848,2279.030303,4503.454545,3045.575757,42,42,?
53:41.1,4588.969697,2468.60606,4248.454545,824.2424242,4020.757575,3865.696969,3953.787878,4.121212121,4342.212121,4100.60606,5694.999999,3618.424242,4253.60606,3016.727272,4379.30303,2901.333333,5063.939393,2559.272727,4271.121212,3449.454545,4494.696969,3214.545454,4234.030303,8.242424242,4884.666666,2279.030303,4515.818181,3045.575757,42,42,?
53:41.1,4584.333333,2468.60606,4276.272727,824.2424242,4016.636363,3865.696969,3926.484848,4.121212121,4323.666666,4100.60606,5683.151515,3618.424242,4231.454545,3016.727272,4359.212121,2901.333333,5044.878787,2559.272727,4238.151515,3449.454545,4497.272727,3214.545454,4240.727272,8.242424242,4896,2279.030303,4498.30303,3045.575757,42,42,?
53:41.1,4566.818181,2468.60606,4264.939394,824.2424242,3997.060606,3865.696969,3919.787878,4.121212121,4322.121212,4100.60606,5689.848484,3618.424242,4224.757575,3016.727272,4348.90909,2901.333333,5036.636363,2559.272727,4250.515151,3449.454545,4472.545454,3214.545454,4235.060606,8.242424242,4868.696969,2279.030303,4486.454545,3045.575757,42,42,?
53:41.1,4565.787878,2468.60606,4246.393939,824.2424242,3996.030303,3865.696969,3946.575757,4.121212121,4347.363636,4100.60606,5727.454545,3618.424242,4246.90909,3016.727272,4374.151515,2901.333333,5060.333333,2559.272727,4282.454545,3449.454545,4471.515151,3214.545454,4230.939394,8.242424242,4865.090909,2279.030303,4498.818181,3045.575757,42,42,?
53:41.1,4568.878787,2468.60606,4281.424242,824.2424242,3975.939394,3865.696969,3919.272727,4.121212121,4320.575757,4100.60606,5718.696969,3618.424242,4219.60606,3016.727272,4345.818181,2901.333333,5029.424242,2559.272727,4245.363636,3449.454545,4456.060606,3214.545454,4235.060606,8.242424242,4862.515151,2279.030303,4491.090909,3045.575757,42,42,?
53:41.2,4565.272727,2468.60606,4251.030303,824.2424242,3995,3865.696969,3942.969697,4.121212121,4342.212121,4100.60606,5740.848484,3618.424242,4245.878787,3016.727272,4364.878787,2901.333333,5041.787878,2559.272727,4253.090909,3449.454545,4465.333333,3214.545454,4234.030303,8.242424242,4861.484848,2279.030303,4496.242424,3045.575757,42,42,?
53:41.2,4549.818181,2468.60606,4264.939394,824.2424242,3968.212121,3865.696969,3930.090909,4.121212121,4326.242424,4100.60606,5728.484848,3618.424242,4227.848484,3016.727272,4352.515151,2901.333333,5019.636363,2559.272727,4231.969697,3449.454545,4437.515151,3214.545454,4235.575757,8.242424242,4847.060606,2279.030303,4473.060606,3045.575757,42,42,?
53:41.2,4542.090909,2468.60606,4265.969697,824.2424242,3964.60606,3865.696969,3917.727272,4.121212121,4322.636363,4100.60606,5732.60606,3618.424242,4213.939394,3016.727272,4340.151515,2901.333333,5007.787878,2559.272727,4221.666666,3449.454545,4431.333333,3214.545454,4233,8.242424242,4843.969696,2279.030303,4466.363636,3045.575757,42,42,?
53:41.2,4557.545454,2468.60606,4247.939394,824.2424242,3992.939394,3865.696969,3938.848484,4.121212121,4354.060606,4100.60606,5766.60606,3618.424242,4261.848484,3016.727272,4374.151515,2901.333333,5044.878787,2559.272727,4237.636363,3449.454545,4473.060606,3214.545454,4236.090909,8.242424242,4871.787878,2279.030303,4495.727272,3045.575757,42,42,?
53:41.2,4554.454545,2468.60606,4275.242424,824.2424242,3961.515151,3865.696969,3906.909091,4.121212121,4320.575757,4100.60606,5740.333333,3618.424242,4239.696969,3016.727272,4348.393939,2901.333333,5016.545454,2559.272727,4211.878787,3449.454545,4447.818181,3214.545454,4239.181818,8.242424242,4863.545454,2279.030303,4477.696969,3045.575757,42,42,?
53:41.2,4545.181818,2468.60606,4249.484848,824.2424242,3977.484848,3865.696969,3928.545454,4.121212121,4336.030303,4100.60606,5756.818181,3618.424242,4238.666666,3016.727272,4359.727272,2901.333333,5029.939393,2559.272727,4253.090909,3449.454545,4444.727272,3214.545454,4235.060606,8.242424242,4852.727272,2279.030303,4479.757575,3045.575757,42,42,?
53:41.2,4555.484848,2468.60606,4265.969697,824.2424242,3968.727272,3865.696969,3927.515151,4.121212121,4329.848484,4100.60606,5757.333333,3618.424242,4237.636363,3016.727272,4359.727272,2901.333333,5033.030303,2559.272727,4259.272727,3449.454545,4455.545454,3214.545454,4240.212121,8.242424242,4857.878787,2279.030303,4490.060606,3045.575757,42,42,?
53:41.2,4558.060606,2468.60606,4270.090909,824.2424242,3964.60606,3865.696969,3914.121212,4.121212121,4316.969697,4100.60606,5743.424242,3618.424242,4230.424242,3016.727272,4347.878787,2901.333333,5024.272727,2559.272727,4241.757575,3449.454545,4453.484848,3214.545454,4234.030303,8.242424242,4858.90909,2279.030303,4482.333333,3045.575757,42,42,?
53:41.2,4560.121212,2468.60606,4246.90909,824.2424242,4007.878787,3865.696969,3944.515151,4.121212121,4350.969697,4100.60606,5767.636363,3618.424242,4247.424242,3016.727272,4378.272727,2901.333333,5059.818181,2559.272727,4274.727272,3449.454545,4472.030303,3214.545454,4229.90909,8.242424242,4869.727272,2279.030303,4494.696969,3045.575757,42,42,?
53:41.2,4568.878787,2468.60606,4275.757575,824.2424242,3972.848484,3865.696969,3918.242424,4.121212121,4322.636363,4100.60606,5753.212121,3618.424242,4213.939394,3016.727272,4351.484848,2901.333333,5032,2559.272727,4255.666666,3449.454545,4465.848484,3214.545454,4237.636363,8.242424242,4877.454545,2279.030303,4491.60606,3045.575757,42,42,?
53:41.2,4568.878787,2468.60606,4250.515151,824.2424242,3971.818181,3865.696969,3935.757575,4.121212121,4333.969697,4100.60606,5777.424242,3618.424242,4239.696969,3016.727272,4364.878787,2901.333333,5040.242424,2559.272727,4268.545454,3449.454545,4486.969697,3214.545454,4236.090909,8.242424242,4886.727272,2279.030303,4497.272727,3045.575757,42,42,?
53:41.2,4565.787878,2468.60606,4265.454545,824.2424242,3981.60606,3865.696969,3947.090909,4.121212121,4346.333333,4100.60606,5792.878787,3618.424242,4253.60606,3016.727272,4380.333333,2901.333333,5056.727272,2559.272727,4279.363636,3449.454545,4492.636363,3214.545454,4240.727272,8.242424242,4887.757575,2279.030303,4501.90909,3045.575757,42,42,?
53:41.2,4563.212121,2468.60606,4276.787878,824.2424242,3975.424242,3865.696969,3929.575757,4.121212121,4332.424242,4100.60606,5779.999999,3618.424242,4219.60606,3016.727272,4361.787878,2901.333333,5040.242424,2559.272727,4259.787878,3449.454545,4485.424242,3214.545454,4239.696969,8.242424242,4884.666666,2279.030303,4497.787878,3045.575757,42,42,?
53:41.3,4564.757575,2468.60606,4242.272727,824.2424242,4006.848484,3865.696969,3954.818181,4.121212121,4356.636363,4100.60606,5800.60606,3618.424242,4247.939394,3016.727272,4387.545454,2901.333333,5061.878787,2559.272727,4286.060606,3449.454545,4498.818181,3214.545454,4233,8.242424242,4886.727272,2279.030303,4501.393939,3045.575757,42,42,?
53:41.3,4567.333333,2468.60606,4273.181818,824.2424242,3970.272727,3865.696969,3927,4.121212121,4336.030303,4100.60606,5789.787878,3618.424242,4250,3016.727272,4370.545454,2901.333333,5040.242424,2559.272727,4261.848484,3449.454545,4461.212121,3214.545454,4237.121212,8.242424242,4867.151515,2279.030303,4483.878787,3045.575757,42,42,?
53:41.3,4567.333333,2468.60606,4256.696969,824.2424242,3962.030303,3865.696969,3932.666666,4.121212121,4349.939394,4100.60606,5811.939393,3618.424242,4267,3016.727272,4380.848484,2901.333333,5054.666666,2559.272727,4251.030303,3449.454545,4467.90909,3214.545454,4237.636363,8.242424242,4875.393939,2279.030303,4490.060606,3045.575757,42,42,?
53:41.3,4552.393939,2468.60606,4258.242424,824.2424242,3975.424242,3865.696969,3945.030303,4.121212121,4356.121212,4100.60606,5818.121212,3618.424242,4272.666666,3016.727272,4396.818181,2901.333333,5074.757575,2559.272727,4268.545454,3449.454545,4486.454545,3214.545454,4238.666666,8.242424242,4883.636363,2279.030303,4487.484848,3045.575757,42,42,?
53:41.3,4540.545454,2472.727272,4275.757575,824.2424242,3967.696969,3865.696969,3928.545454,4.121212121,4332.424242,4100.60606,5796.484848,3618.424242,4250,3016.727272,4379.30303,2901.333333,5052.60606,2559.272727,4262.363636,3449.454545,4460.696969,3214.545454,4233.515151,8.242424242,4863.030303,2279.030303,4470.484848,3045.575757,42,42,?
53:41.3,4570.424242,2472.727272,4244.333333,873.6969696,3986.242424,3865.696969,3957.909091,4.121212121,4363.848484,4100.60606,5827.393939,3618.424242,4287.090909,3016.727272,4409.696969,2901.333333,5077.333333,2559.272727,4268.545454,3449.454545,4489.545454,3214.545454,4229.393939,8.242424242,4885.181818,2279.030303,4505,3045.575757,42,42,?
53:41.3,4581.242424,2472.727272,4277.30303,873.6969696,3964.090909,3865.696969,3934.727272,4.121212121,4335,4100.60606,5799.575757,3618.424242,4254.636363,3016.727272,4379.818181,2901.333333,5050.545454,2559.272727,4242.787878,3449.454545,4481.30303,3214.545454,4238.666666,8.242424242,4886.212121,2279.030303,4501.393939,3090.909091,42,42,?
53:41.3,4559.60606,2472.727272,4266.484848,873.6969696,3988.818181,3713.212121,3945.545454,4.121212121,4334.484848,4100.60606,5792.878787,3618.424242,4224.242424,3016.727272,4366.939394,2901.333333,5046.939393,2559.272727,4258.757575,3449.454545,4464.818181,3214.545454,4237.636363,8.242424242,4863.545454,2279.030303,4483.363636,3090.909091,42,42,?
53:41.3,4566.818181,2472.727272,4256.181818,873.6969696,4007.363636,3713.212121,3966.151515,16.48484848,4363.848484,4100.60606,5821.212121,3618.424242,4230.939394,3016.727272,4387.545454,2901.333333,5068.575757,2559.272727,4275.757575,3449.454545,4480.787878,3214.545454,4236.60606,8.242424242,4873.848484,2279.030303,4500.363636,3090.909091,42,42,?
53:41.3,4573.515151,2472.727272,4277.818181,873.6969696,3974.909091,3713.212121,3931.636363,16.48484848,4340.666666,4042.909091,5811.424242,3618.424242,4220.636363,3016.727272,4362.30303,2901.333333,5041.272727,2559.272727,4252.575757,3449.454545,4469.969697,3214.545454,4234.545454,8.242424242,4872.30303,2279.030303,4499.333333,3090.909091,42,42,?
53:41.3,4559.090909,2472.727272,4247.939394,873.6969696,4023.333333,3713.212121,3961,16.48484848,4364.878787,4042.909091,5833.060605,3424.727272,4262.363636,3016.727272,4387.030303,2901.333333,5064.969696,2559.272727,4288.636363,3449.454545,4480.272727,3214.545454,4230.939394,8.242424242,4869.727272,2279.030303,4499.848484,3090.909091,42,42,?
53:41.3,4563.212121,2472.727272,4277.30303,873.6969696,4013.545454,3713.212121,3948.636363,16.48484848,4346.848484,4042.909091,5811.424242,3424.727272,4239.181818,3086.787878,4373.636363,2901.333333,5052.090909,2559.272727,4272.151515,3449.454545,4471,3214.545454,4240.212121,8.242424242,4871.787878,2279.030303,4491.60606,3090.909091,42,42,?
53:41.4,4583.818181,2472.727272,4268.545454,873.6969696,3963.575757,3713.212121,3934.727272,16.48484848,4336.545454,4042.909091,5809.878787,3424.727272,4225.272727,3086.787878,4358.181818,2860.121212,5042.30303,2559.272727,4241.757575,3449.454545,4477.181818,3214.545454,4237.121212,8.242424242,4883.121212,2279.030303,4502.424242,3090.909091,42,42,?
53:41.4,4578.151515,2472.727272,4250.515151,873.6969696,3979.545454,3713.212121,3958.424242,16.48484848,4360.242424,4042.909091,5849.545454,3424.727272,4270.60606,3086.787878,4382.90909,2860.121212,5065.999999,2518.060606,4255.666666,3449.454545,4494.181818,3214.545454,4234.545454,8.242424242,4888.787878,2279.030303,4511.696969,3090.909091,42,42,?
53:41.4,4559.60606,2472.727272,4279.363636,873.6969696,3979.545454,3713.212121,3939.878787,16.48484848,4338.60606,4042.909091,5829.969696,3424.727272,4253.60606,3086.787878,4361.787878,2860.121212,5042.818181,2518.060606,4247.424242,3482.424242,4466.878787,3214.545454,4236.090909,8.242424242,4866.121212,2279.030303,4484.90909,3090.909091,42,42,?
53:41.4,4560.121212,2472.727272,4245.363636,873.6969696,3998.090909,3713.212121,3954.818181,16.48484848,4360.242424,4042.909091,5832.030302,3424.727272,4260.818181,3086.787878,4379.818181,2860.121212,5058.787878,2518.060606,4276.787878,3482.424242,4476.151515,3218.666666,4230.424242,8.242424242,4865.60606,2279.030303,4481.818181,3090.909091,42,42,?
53:41.4,4554.969697,2472.727272,4262.878787,873.6969696,3981.090909,3713.212121,3932.666666,16.48484848,4346.848484,4042.909091,5825.848484,3424.727272,4245.878787,3086.787878,4372.090909,2860.121212,5037.151515,2518.060606,4262.363636,3482.424242,4463.272727,3218.666666,4235.575757,4.121212121,4869.212121,2279.030303,4467.90909,3090.909091,42,42,?
53:41.4,4557.545454,2472.727272,4265.969697,873.6969696,3954.30303,3713.212121,3925.969697,16.48484848,4339.636363,4042.909091,5834.60606,3424.727272,4231.969697,3086.787878,4356.636363,2860.121212,5025.818181,2518.060606,4242.787878,3482.424242,4455.030303,3218.666666,4233.515151,4.121212121,4861.484848,2299.636363,4470.484848,3090.909091,42,42,?
53:41.4,4580.727272,2472.727272,4248.454545,873.6969696,3971.30303,3713.212121,3960.484848,16.48484848,4369,4042.909091,5856.757575,3424.727272,4255.666666,3086.787878,4384.969697,2860.121212,5073.727272,2518.060606,4257.727272,3482.424242,4483.363636,3218.666666,4230.424242,4.121212121,4870.242424,2299.636363,4502.939393,3090.909091,42,42,?
53:41.4,4575.060606,2472.727272,4282.454545,873.6969696,3978,3713.212121,3932.151515,16.48484848,4338.60606,4042.909091,5830.484848,3424.727272,4234.030303,3086.787878,4363.333333,2860.121212,5050.545454,2518.060606,4223.212121,3482.424242,4465.333333,3222.787878,4236.60606,4.121212121,4869.212121,2299.636363,4484.393939,3090.909091,42,42,?
53:41.4,4559.090909,2472.727272,4252.575757,873.6969696,4022.30303,3713.212121,3954.30303,16.48484848,4356.636363,4042.909091,5862.424242,3424.727272,4264.939394,3086.787878,4378.272727,2860.121212,5054.151515,2518.060606,4253.090909,3482.424242,4467.90909,3222.787878,4235.060606,4.121212121,4867.666666,2299.636363,4477.696969,3090.909091,42,42,?
53:41.4,4569.90909,2472.727272,4260.30303,873.6969696,4001.696969,3713.212121,3952.757575,16.48484848,4357.666666,4042.909091,5869.636363,3424.727272,4276.272727,3086.787878,4378.787878,2860.121212,5055.696969,2518.060606,4260.30303,3482.424242,4463.787878,3222.787878,4236.090909,4.121212121,4863.030303,2299.636363,4484.90909,3090.909091,42,42,?
53:41.4,4572.484848,2472.727272,4271.121212,873.6969696,3979.545454,3713.212121,3931.121212,16.48484848,4344.272727,4042.909091,5851.60606,3424.727272,4257.727272,3086.787878,4358.696969,2860.121212,5044.363636,2518.060606,4228.363636,3482.424242,4451.424242,3222.787878,4229.393939,4.121212121,4853.757575,2299.636363,4479.757575,3090.909091,42,42,?
53:41.4,4578.151515,2472.727272,4251.030303,873.6969696,4008.393939,3713.212121,3961.515151,16.48484848,4371.575757,4042.909091,5872.212121,3424.727272,4275.242424,3086.787878,4382.393939,2860.121212,5073.212121,2518.060606,4256.181818,3482.424242,4479.757575,3222.787878,4230.424242,4.121212121,4868.696969,2299.636363,4498.30303,3090.909091,42,42,?
53:41.4,4598.242424,2472.727272,4285.545454,873.6969696,3955.848484,3713.212121,3940.393939,16.48484848,4342.212121,4042.909091,5850.575757,3424.727272,4244.333333,3086.787878,4357.666666,2860.121212,5053.121212,2518.060606,4254.121212,3482.424242,4477.181818,3222.787878,4241.242424,4.121212121,4880.545454,2299.636363,4511.181818,3090.909091,42,42,?
53:41.5,4594.636363,2472.727272,4261.848484,873.6969696,3983.151515,3713.212121,3956.878787,16.48484848,4358.696969,4042.909091,5866.545454,3424.727272,4257.727272,3086.787878,4372.60606,2860.121212,5073.212121,2518.060606,4275.242424,3482.424242,4487.484848,3222.787878,4237.636363,4.121212121,4886.212121,2299.636363,4519.424242,3090.909091,42,42,?
53:41.5,4573.515151,2472.727272,4263.393939,873.6969696,4029,3713.212121,3958.939394,16.48484848,4360.757575,4042.909091,5873.757575,3424.727272,4248.969697,3086.787878,4373.636363,2860.121212,5079.393939,2518.060606,4273.181818,3482.424242,4482.333333,3222.787878,4236.090909,4.121212121,4877.454545,2299.636363,4497.787878,3090.909091,42,42,?
53:41.5,4569.90909,2472.727272,4278.333333,873.6969696,3998.090909,3713.212121,3931.636363,16.48484848,4328.818181,4042.909091,5853.151515,3424.727272,4214.969697,3086.787878,4339.121212,2860.121212,5051.575757,2518.060606,4243.818181,3482.424242,4464.818181,3222.787878,4234.545454,4.121212121,4868.696969,2299.636363,4480.787878,3090.909091,42,42,?
53:41.5,4588.454545,2472.727272,4250,873.6969696,4005.30303,3713.212121,3959.454545,16.48484848,4359.212121,4042.909091,5875.818181,3424.727272,4254.121212,3086.787878,4373.121212,2860.121212,5090.727272,2518.060606,4263.90909,3482.424242,4495.212121,3222.787878,4233.515151,4.121212121,4891.878787,2299.636363,4511.181818,3090.909091,42,42,?
53:41.5,4592.575757,2472.727272,4276.272727,873.6969696,3979.030303,3713.212121,3934.212121,16.48484848,4339.636363,4042.909091,5846.454545,3424.727272,4221.151515,3086.787878,4355.090909,2860.121212,5071.666666,2518.060606,4243.818181,3482.424242,4484.393939,3222.787878,4238.151515,4.121212121,4890.333333,2299.636363,4503.969697,3090.909091,42,42,?
53:41.5,4585.363636,2472.727272,4257.727272,873.6969696,3980.575757,3713.212121,3943.484848,16.48484848,4344.787878,4042.909091,5840.272727,3424.727272,4210.848484,3086.787878,4354.060606,2860.121212,5071.666666,2518.060606,4262.363636,3482.424242,4482.848484,3222.787878,4232.484848,4.121212121,4880.030303,2299.636363,4501.393939,3090.909091,42,42,?
53:41.5,4589.484848,2472.727272,4259.272727,873.6969696,4008.393939,3713.212121,3965.121212,16.48484848,4361.787878,4042.909091,5858.818181,3424.727272,4251.030303,3086.787878,4385.484848,2860.121212,5103.090909,2518.060606,4287.090909,3482.424242,4498.818181,3222.787878,4235.060606,4.121212121,4892.90909,2299.636363,4511.181818,3090.909091,42,42,?
53:41.5,4583.818181,2472.727272,4280.90909,873.6969696,4007.878787,3713.212121,3939.363636,16.48484848,4339.121212,4042.909091,5849.545454,3424.727272,4251.030303,3086.787878,4376.212121,2860.121212,5088.666666,2518.060606,4251.030303,3482.424242,4485.939393,3222.787878,4238.151515,4.121212121,4891.878787,2299.636363,4493.666666,3090.909091,42,42,?
53:41.5,4585.363636,2472.727272,4246.90909,873.6969696,4012.515151,3713.212121,3960.484848,16.48484848,4360.242424,4042.909091,5870.151515,3424.727272,4281.424242,3086.787878,4401.454545,2860.121212,5108.242424,2518.060606,4255.666666,3482.424242,4500.363636,3222.787878,4234.030303,4.121212121,4894.969696,2299.636363,4507.060606,3090.909091,42,42,?
53:41.5,4591.030303,2472.727272,4273.181818,873.6969696,3958.939394,3713.212121,3935.757575,16.48484848,4339.636363,4042.909091,5849.030302,3424.727272,4259.787878,3086.787878,4379.30303,2860.121212,5085.575757,2518.060606,4247.939394,3482.424242,4478.212121,3222.787878,4237.121212,4.121212121,4881.575757,2299.636363,4503.969697,3090.909091,42,42,?
53:41.5,4573.515151,2472.727272,4264.424242,873.6969696,3968.727272,3713.212121,3933.181818,16.48484848,4347.363636,4042.909091,5855.727272,3424.727272,4245.878787,3086.787878,4368.484848,2860.121212,5084.030303,2518.060606,4262.878787,3482.424242,4463.787878,3222.787878,4233.515151,4.121212121,4862,2299.636363,4482.848484,3090.909091,42,42,?
53:41.5,4563.727272,2472.727272,4254.636363,873.6969696,3999.121212,3713.212121,3955.333333,16.48484848,4369.515151,4042.909091,5885.60606,3424.727272,4270.090909,3086.787878,4388.060606,2860.121212,5110.818181,2518.060606,4270.090909,3482.424242,4485.939393,3222.787878,4235.575757,4.121212121,4875.393939,2299.636363,4481.818181,3090.909091,42,42,?
53:41.5,4580.727272,2472.727272,4278.848484,873.6969696,3962.030303,3713.212121,3931.121212,16.48484848,4340.151515,4042.909091,5869.636363,3424.727272,4256.696969,3086.787878,4369.515151,2860.121212,5091.757575,2518.060606,4243.818181,3482.424242,4493.666666,3222.787878,4240.212121,4.121212121,4894.969696,2299.636363,4493.666666,3090.909091,42,42,?
53:41.6,4597.212121,2472.727272,4247.939394,873.6969696,4002.212121,3713.212121,3959.969697,16.48484848,4366.939394,4042.909091,5888.181818,3424.727272,4281.424242,3086.787878,4397.333333,2860.121212,5121.636363,2518.060606,4282.454545,3482.424242,4519.424242,3222.787878,4237.121212,4.121212121,4906.818181,2299.636363,4520.969697,3090.909091,42,42,?
53:41.6,4587.939393,2472.727272,4273.181818,873.6969696,4014.575757,3713.212121,3952.757575,16.48484848,4354.575757,4042.909091,5868.090909,3424.727272,4270.090909,3086.787878,4386.515151,2860.121212,5110.30303,2518.060606,4267.515151,3482.424242,4492.121212,3222.787878,4241.242424,4.121212121,4889.818181,2299.636363,4502.424242,3090.909091,42,42,?
53:41.6,4577.636363,2472.727272,4270.090909,873.6969696,3987.787878,3713.212121,3941.424242,16.48484848,4346.848484,4042.909091,5853.151515,3424.727272,4253.090909,3086.787878,4371.060606,2860.121212,5096.90909,2518.060606,4251.030303,3482.424242,4469.969697,3222.787878,4235.575757,4.121212121,4874.878787,2299.636363,4487.484848,3090.909091,42,42,?
53:41.6,4578.151515,2472.727272,4249.484848,873.6969696,3980.060606,3713.212121,3952.242424,16.48484848,4364.878787,4042.909091,5869.636363,3424.727272,4255.151515,3086.787878,4387.030303,2860.121212,5113.393939,2518.060606,4272.666666,3482.424242,4485.424242,3222.787878,4231.969697,4.121212121,4877.969696,2299.636363,4497.272727,3090.909091,42,42,?
53:41.6,4563.727272,2472.727272,4277.30303,873.6969696,3961,3713.212121,3922.363636,16.48484848,4329.333333,4042.909091,5846.454545,3424.727272,4222.181818,3086.787878,4356.636363,2860.121212,5073.727272,2518.060606,4232.484848,3482.424242,4456.060606,3222.787878,4236.090909,4.121212121,4863.545454,2299.636363,4473.575757,3090.909091,42,42,?
53:41.6,4578.666666,2472.727272,4265.454545,873.6969696,3976.969697,3713.212121,3943.484848,16.48484848,4352,4042.909091,5861.393939,3424.727272,4251.030303,3086.787878,4372.60606,2860.121212,5085.060606,2518.060606,4235.060606,3482.424242,4466.878787,3222.787878,4238.151515,4.121212121,4870.757575,2299.636363,4477.696969,3090.909091,42,42,?
53:41.6,4578.666666,2472.727272,4265.454545,873.6969696,3976.969697,3713.212121,3943.484848,16.48484848,4352,4042.909091,5858.30303,3424.727272,4238.151515,3086.787878,4372.60606,2860.121212,5085.060606,2518.060606,4235.060606,3482.424242,4466.878787,3222.787878,4238.151515,4.121212121,4868.696969,2299.636363,4479.242424,3090.909091,42,42,?
53:41.6,4570.939393,2472.727272,4271.121212,873.6969696,3973.363636,3713.212121,3936.787878,16.48484848,4365.393939,4042.909091,5852.636363,3424.727272,4230.424242,3086.787878,4359.212121,2860.121212,5078.363636,2518.060606,4223.727272,3482.424242,4456.060606,3222.787878,4230.939394,4.121212121,4857.363636,2299.636363,4474.090909,3090.909091,42,42,?
53:41.6,4564.757575,2472.727272,4277.30303,873.6969696,3972.848484,3713.212121,3927.515151,16.48484848,4336.030303,4042.909091,5842.848484,3424.727272,4252.575757,3086.787878,4369.515151,2860.121212,5073.727272,2518.060606,4250.515151,3482.424242,4459.151515,3222.787878,4235.575757,4.121212121,4864.060606,2299.636363,4494.696969,3090.909091,42,42,?
53:41.6,4564.757575,2472.727272,4277.30303,873.6969696,3972.848484,3713.212121,3927.515151,16.48484848,4336.030303,4042.909091,5842.848484,3424.727272,4252.575757,3086.787878,4369.515151,2860.121212,5073.727272,2518.060606,4250.515151,3482.424242,4459.151515,3222.787878,4235.575757,4.121212121,4864.060606,2299.636363,4481.30303,3090.909091,42,42,?
53:41.6,4557.030303,2472.727272,4253.60606,873.6969696,4004.787878,3713.212121,3948.636363,16.48484848,4355.090909,4042.909091,5868.090909,3424.727272,4252.060606,3086.787878,4374.666666,2860.121212,5086.60606,2518.060606,4257.727272,3482.424242,4465.848484,3222.787878,4232.484848,4.121212121,4863.030303,2299.636363,4479.242424,3090.909091,42,42,?
53:41.6,4578.151515,2472.727272,4265.969697,873.6969696,4013.545454,3713.212121,3958.939394,16.48484848,4362.818181,4042.909091,5875.818181,3424.727272,4263.393939,3086.787878,4382.90909,2860.121212,5100.515151,2518.060606,4249.484848,3482.424242,4491.60606,3222.787878,4239.696969,4.121212121,4888.787878,2299.636363,4498.818181,3090.909091,42,42,?
53:41.6,4593.090909,2472.727272,4278.848484,873.6969696,3986.757575,3713.212121,3946.060606,16.48484848,4345.818181,4042.909091,5851.60606,3424.727272,4250.515151,3086.787878,4370.030303,2860.121212,5089.696969,2518.060606,4249.484848,3482.424242,4495.212121,3222.787878,4240.727272,4.121212121,4890.848484,2299.636363,4510.666666,3090.909091,42,42,?
53:41.7,4591.030303,2472.727272,4250.515151,873.6969696,4015.090909,3713.212121,3978,16.48484848,4372.090909,4042.909091,5866.030302,3424.727272,4270.60606,3086.787878,4397.333333,2860.121212,5117.515151,2518.060606,4287.60606,3482.424242,4501.393939,3222.787878,4235.575757,4.121212121,4882.090909,2299.636363,4522.515151,3090.909091,42,42,?
53:41.7,4594.121212,2472.727272,4278.333333,873.6969696,3993.454545,3713.212121,3950.696969,16.48484848,4346.848484,4042.909091,5840.272727,3424.727272,4236.090909,3086.787878,4371.575757,2860.121212,5085.575757,2518.060606,4246.90909,3482.424242,4474.090909,3222.787878,4238.151515,4.121212121,4874.878787,2299.636363,4503.454545,3090.909091,42,42,?
53:41.7,4588.969697,2472.727272,4256.696969,873.6969696,3990.363636,3713.212121,3956.878787,16.48484848,4360.242424,4042.909091,5842.333333,3424.727272,4234.030303,3086.787878,4371.060606,2860.121212,5083.515151,2518.060606,4240.727272,3482.424242,4476.666666,3222.787878,4234.030303,4.121212121,4875.90909,2299.636363,4494.696969,3090.909091,42,42,?
53:41.7,4565.787878,2472.727272,4259.787878,873.6969696,3992.939394,3713.212121,3962.545454,16.48484848,4370.545454,4042.909091,5853.666666,3424.727272,4248.969697,3086.787878,4377.757575,2860.121212,5098.454545,2518.060606,4250,3482.424242,4466.363636,3222.787878,4235.575757,4.121212121,4863.030303,2299.636363,4482.333333,3090.909091,42,42,?
53:41.7,4554.454545,2472.727272,4278.333333,873.6969696,3977.484848,3713.212121,3940.909091,16.48484848,4350.454545,4042.909091,5847.999999,3424.727272,4243.818181,3086.787878,4360.757575,2860.121212,5088.151515,2518.060606,4234.545454,3482.424242,4438.030303,3222.787878,4234.030303,4.121212121,4846.545454,2299.636363,4470.484848,3090.909091,42,42,?
53:41.7,4572.484848,2472.727272,4250,873.6969696,4015.090909,3713.212121,3976.454545,16.48484848,4389.090909,4042.909091,5875.30303,3424.727272,4285.030303,3086.787878,4405.060606,2860.121212,5124.727272,2518.060606,4274.212121,3482.424242,4479.757575,3222.787878,4232.484848,4.121212121,4875.90909,2299.636363,4500.363636,3090.909091,42,42,?
53:41.7,4582.272727,2472.727272,4277.30303,873.6969696,4000.151515,3713.212121,3955.848484,16.48484848,4373.636363,4042.909091,5853.151515,3424.727272,4276.787878,3086.787878,4398.363636,2860.121212,5107.212121,2518.060606,4260.818181,3482.424242,4485.424242,3222.787878,4240.727272,4.121212121,4889.818181,2299.636363,4495.212121,3090.909091,42,42,?
53:41.7,4580.727272,2472.727272,4261.848484,873.6969696,3991.909091,3713.212121,3954.30303,16.48484848,4374.666666,4042.909091,5863.454545,3424.727272,4284.515151,3086.787878,4399.393939,2860.121212,5113.90909,2518.060606,4256.181818,3482.424242,4486.969697,3222.787878,4237.636363,4.121212121,4885.696969,2299.636363,4491.090909,3090.909091,42,42,?
53:41.7,4589.484848,2472.727272,4258.242424,873.6969696,4002.727272,3713.212121,3972.848484,16.48484848,4394.757575,4042.909091,5890.242424,3424.727272,4309.242424,3086.787878,4427.212121,2860.121212,5146.363636,2518.060606,4271.636363,3482.424242,4505.515151,3222.787878,4237.636363,4.121212121,4900.121212,2299.636363,4509.121212,3090.909091,42,42,?
53:41.7,4589.484848,2472.727272,4277.818181,873.6969696,3997.060606,3713.212121,3955.333333,16.48484848,4376.212121,4042.909091,5867.575757,3424.727272,4290.696969,3086.787878,4414.333333,2860.121212,5129.878787,2518.060606,4265.454545,3482.424242,4491.60606,3222.787878,4240.727272,4.121212121,4898.060606,2299.636363,4505,3090.909091,42,42,?
53:41.7,4590.515151,2472.727272,4248.969697,873.6969696,4026.424242,3713.212121,3983.151515,16.48484848,4401.454545,4042.909091,5884.575757,3424.727272,4309.757575,3086.787878,4435.454545,2860.121212,5153.575757,2518.060606,4306.151515,3482.424242,4505.515151,3222.787878,4238.666666,4.121212121,4896.515151,2299.636363,4519.939393,3090.909091,42,42,?
53:41.7,4604.939393,2472.727272,4282.969697,873.6969696,3993.454545,3713.212121,3962.545454,16.48484848,4383.939394,4042.909091,5870.151515,3424.727272,4288.636363,3086.787878,4414.848484,2860.121212,5135.545454,2518.060606,4293.787878,3482.424242,4501.90909,3222.787878,4243.818181,4.121212121,4900.121212,2299.636363,4522,3090.909091,42,42,?
53:41.8,4602.878787,2472.727272,4273.696969,873.6969696,3997.575757,3713.212121,3962.030303,16.48484848,4380.848484,4042.909091,5859.848484,3424.727272,4280.393939,3086.787878,4403.515151,2860.121212,5127.30303,2518.060606,4281.424242,3482.424242,4501.393939,3222.787878,4237.121212,4.121212121,4905.272727,2299.636363,4514.787878,3090.909091,42,42,?
53:41.8,4591.545454,2472.727272,4252.575757,873.6969696,4033.636363,3713.212121,3989.848484,16.48484848,4395.272727,4042.909091,5873.757575,3424.727272,4292.757575,3086.787878,4423.60606,2860.121212,5147.90909,2518.060606,4297.393939,3482.424242,4515.818181,3222.787878,4236.090909,4.121212121,4910.424242,2299.636363,4520.969697,3090.909091,42,42,?
53:41.8,4595.151515,2472.727272,4279.363636,873.6969696,3994.484848,3713.212121,3961,16.48484848,4365.90909,4042.909091,5858.30303,3424.727272,4260.818181,3086.787878,4395.272727,2860.121212,5113.393939,2518.060606,4273.181818,3482.424242,4497.272727,3222.787878,4241.757575,4.121212121,4896.515151,2299.636363,4518.393939,3090.909091,42,42,?
53:41.8,4598.242424,2472.727272,4252.575757,873.6969696,4001.181818,3713.212121,3975.424242,16.48484848,4389.090909,4042.909091,5879.424242,3424.727272,4286.060606,3086.787878,4406.090909,2860.121212,5118.030303,2518.060606,4272.666666,3482.424242,4497.272727,3222.787878,4236.090909,4.121212121,4883.636363,2299.636363,4523.545454,3090.909091,42,42,?
53:41.8,4582.272727,2472.727272,4273.696969,873.6969696,3992.939394,3713.212121,3961,16.48484848,4371.060606,4042.909091,5867.060605,3424.727272,4266.484848,3086.787878,4381.363636,2860.121212,5096.393939,2518.060606,4247.424242,3482.424242,4472.545454,3222.787878,4237.121212,4.121212121,4868.181818,2299.636363,4498.818181,3090.909091,42,42,?
53:41.8,4575.060606,2349.090909,4271.636363,873.6969696,3979.545454,3713.212121,3947.60606,16.48484848,4358.696969,4042.909091,5865.515151,3424.727272,4244.848484,3086.787878,4364.363636,2860.121212,5082.999999,2518.060606,4250,3482.424242,4468.939393,3222.787878,4235.575757,4.121212121,4870.242424,2299.636363,4493.666666,3090.909091,42,42,?
53:41.8,4590,2349.090909,4251.545454,848.9696969,4003.242424,3713.212121,3968.727272,16.48484848,4388.575757,4042.909091,5879.939393,3424.727272,4289.666666,3086.787878,4401.454545,2860.121212,5114.424242,2518.060606,4272.151515,3482.424242,4500.363636,3222.787878,4234.030303,4.121212121,4893.424242,2299.636363,4517.878787,3090.909091,42,42,?
53:41.8,4586.393939,2349.090909,4280.90909,848.9696969,3991.393939,3713.212121,3946.060606,16.48484848,4362.818181,4042.909091,5824.818181,3424.727272,4274.212121,3086.787878,4384.969697,2860.121212,5093.30303,2518.060606,4236.60606,3482.424242,4474.60606,3222.787878,4236.60606,4.121212121,4880.030303,2299.636363,4495.212121,2996.121212,42,42,?
53:41.8,4580.727272,2349.090909,4253.60606,848.9696969,3999.636363,3799.757575,3971.30303,16.48484848,4374.666666,4042.909091,5813.999999,3424.727272,4284.515151,3086.787878,4406.60606,2860.121212,5120.090909,2518.060606,4275.757575,3482.424242,4476.151515,3222.787878,4234.545454,4.121212121,4871.272727,2299.636363,4494.696969,2996.121212,42,42,?
53:41.8,4590.515151,2349.090909,4267,848.9696969,3976.969697,3799.757575,3966.151515,16.48484848,4369,4042.909091,5796.484848,3424.727272,4288.121212,3086.787878,4412.787878,2860.121212,5130.393939,2518.060606,4291.727272,3482.424242,4483.363636,3222.787878,4242.272727,4.121212121,4880.030303,2299.636363,4507.575757,2996.121212,42,42,?
53:41.8,4583.818181,2349.090909,4275.757575,848.9696969,3987.272727,3799.757575,3952.757575,16.48484848,4356.121212,3997.575757,5764.545454,3424.727272,4277.30303,3086.787878,4393.212121,2860.121212,5111.333333,2518.060606,4256.696969,3482.424242,4477.696969,3222.787878,4239.181818,4.121212121,4881.575757,2299.636363,4502.939393,2996.121212,42,42,?
53:41.8,4599.272727,2349.090909,4282.454545,848.9696969,4050.636363,3799.757575,3989.333333,16.48484848,4345.818181,3997.575757,5773.30303,3375.272727,4299.969697,3086.787878,4420.515151,2860.121212,5117.515151,2518.060606,4278.848484,3482.424242,4500.363636,3222.787878,4238.666666,4.121212121,4894.969696,2299.636363,4514.787878,2996.121212,42,42,?
53:41.8,4599.272727,2349.090909,4282.454545,848.9696969,4021.787878,3799.757575,3965.121212,16.48484848,4345.818181,3997.575757,5743.424242,3375.272727,4269.060606,3037.333333,4402.484848,2860.121212,5117.515151,2518.060606,4273.696969,3482.424242,4495.727272,3222.787878,4238.666666,4.121212121,4900.636363,2299.636363,4517.363636,2996.121212,42,42,?
53:41.9,4599.272727,2349.090909,4258.242424,848.9696969,4033.636363,3799.757575,3978,16.48484848,4366.424242,3997.575757,5727.969696,3375.272727,4279.878787,3037.333333,4406.090909,2839.515151,5128.848484,2485.090909,4315.939394,3482.424242,4508.60606,3222.787878,4242.787878,4.121212121,4898.060606,2299.636363,4529.727272,2996.121212,42,42,?
53:41.9,4599.272727,2349.090909,4258.242424,848.9696969,4033.636363,3799.757575,3978,16.48484848,4366.424242,3997.575757,5727.969696,3375.272727,4279.878787,3037.333333,4406.090909,2839.515151,5128.848484,2485.090909,4315.939394,3482.424242,4508.60606,3222.787878,4242.787878,4.121212121,4898.060606,2299.636363,4529.727272,2996.121212,42,42,?
53:41.9,4585.363636,2349.090909,4271.636363,848.9696969,4019.212121,3799.757575,3962.030303,16.48484848,4353.030303,3997.575757,5711.999999,3375.272727,4256.181818,3037.333333,4380.848484,2839.515151,5109.787878,2485.090909,4293.272727,3379.393939,4488,3222.787878,4235.060606,4.121212121,4883.636363,2299.636363,4516.848484,2996.121212,42,42,?
53:41.9,4575.575757,2349.090909,4255.666666,848.9696969,4013.545454,3799.757575,3976.969697,16.48484848,4371.575757,3997.575757,5722.30303,3375.272727,4267,3037.333333,4392.181818,2839.515151,5119.060606,2485.090909,4280.90909,3379.393939,4484.393939,3247.515151,4226.818181,4.121212121,4882.60606,2299.636363,4510.666666,2996.121212,42,42,?
53:41.9,4575.575757,2349.090909,4238.666666,848.9696969,4027.454545,3799.757575,3998.60606,16.48484848,4391.151515,3997.575757,5719.727272,3375.272727,4294.30303,3037.333333,4415.878787,2839.515151,5132.454545,2485.090909,4282.969697,3379.393939,4500.878787,3247.515151,4234.545454,12.36363636,4898.060606,2299.636363,4511.696969,2996.121212,42,42,?
53:41.9,4554.969697,2349.090909,4318.515151,848.9696969,3967.181818,3799.757575,3927,16.48484848,4311.818181,3997.575757,5640.393939,3375.272727,4237.636363,3037.333333,4355.60606,2839.515151,5063.939393,2485.090909,4213.939394,3379.393939,4446.787878,3247.515151,4242.787878,12.36363636,4869.212121,2262.545454,4463.272727,2996.121212,42,42,?
53:41.9,4546.727272,2349.090909,4283.484848,848.9696969,3953.787878,3799.757575,3913.090909,16.48484848,4299.454545,3997.575757,5623.393939,3375.272727,4222.696969,3037.333333,4332.939394,2839.515151,5045.393939,2485.090909,4210.333333,3379.393939,4424.121212,3247.515151,4230.424242,12.36363636,4841.90909,2262.545454,4462.242424,2996.121212,42,42,?
53:41.9,4611.636363,2349.090909,4090.818181,848.9696969,4156.757575,3799.757575,4129.969697,16.48484848,4520.454545,3997.575757,5801.636363,3375.272727,4439.575757,3037.333333,4549.30303,2839.515151,5265.363636,2485.090909,4415.878787,3379.393939,4606.484848,3255.757575,4222.181818,12.36363636,4942.878787,2262.545454,4607,2996.121212,42,42,?
53:41.9,4542.60606,2349.090909,4573,848.9696969,3780.696969,3799.757575,3729.696969,16.48484848,4121.727272,3997.575757,5461.121212,3375.272727,4073.818181,3037.333333,4203.636363,2839.515151,4905.787878,2485.090909,4032.090909,3379.393939,4308.212121,3255.757575,4260.30303,4.121212121,4812.545454,2262.545454,4369,2996.121212,42,42,?
53:41.9,4438.030303,2349.090909,4738.878787,848.9696969,3456.151515,3799.757575,3381.454545,16.48484848,3767.30303,3997.575757,5155.636363,3375.272727,3692.60606,3037.333333,3812.636363,2839.515151,4528.181818,2485.090909,3710.636363,3379.393939,4007.363636,3255.757575,4250,4.121212121,4620.90909,2262.545454,4161.90909,2996.121212,42,42,?
53:41.9,4570.424242,2349.090909,4061.969697,848.9696969,4073.818181,3799.757575,4027.454545,16.48484848,4403,3997.575757,5687.787878,3375.272727,4298.424242,3037.333333,4399.393939,2839.515151,5148.939393,2485.090909,4340.666666,3379.393939,4513.242424,3255.757575,4209.30303,4.121212121,4856.333333,2262.545454,4560.636363,2996.121212,42,42,?
53:41.9,4632.242424,2349.090909,4157.272727,848.9696969,4151.090909,3799.757575,4117.090909,16.48484848,4498.30303,3997.575757,5769.181818,3375.272727,4431.848484,3037.333333,4551.363636,2839.515151,5293.181818,2485.090909,4428.242424,3379.393939,4620.393939,3255.757575,4230.424242,4.121212121,4952.151515,2262.545454,4635.848484,2996.121212,42,42,?
53:41.9,4570.424242,2349.090909,4370.545454,848.9696969,3870.848484,3799.757575,3838.393939,16.48484848,4219.090909,3997.575757,5530.151515,3375.272727,4155.212121,3037.333333,4279.878787,2839.515151,5009.848484,2485.090909,4152.636363,3379.393939,4398.363636,3255.757575,4233.515151,4.121212121,4843.969696,2262.545454,4473.575757,2996.121212,42,42,?
53:42.0,4594.121212,2349.090909,4161.90909,848.9696969,4041.363636,3799.757575,4023.848484,16.48484848,4396.818181,3997.575757,5665.121212,3375.272727,4314.393939,3037.333333,4438.545454,2839.515151,5172.636363,2485.090909,4327.272727,3379.393939,4536.424242,3255.757575,4220.636363,4.121212121,4906.30303,2262.545454,4570.939393,2996.121212,42,42,?
53:42.0,4602.363636,2349.090909,4231.454545,848.9696969,4037.757575,3799.757575,4010.969697,16.48484848,4392.181818,3997.575757,5644.515151,3375.272727,4312.848484,3037.333333,4440.60606,2839.515151,5170.060606,2485.090909,4319.545454,3379.393939,4542.090909,3255.757575,4230.424242,4.121212121,4922.272727,2262.545454,4564.757575,2996.121212,42,42,?
53:42.0,4588.969697,2349.090909,4243.818181,848.9696969,4002.727272,3799.757575,3969.242424,16.48484848,4354.575757,3997.575757,5608.969696,3375.272727,4286.575757,3037.333333,4404.030303,2839.515151,5134.515151,2485.090909,4289.151515,3379.393939,4508.60606,3255.757575,4227.848484,4.121212121,4901.666666,2262.545454,4537.454545,2996.121212,42,42,?
53:42.0,4595.151515,2349.090909,4223.727272,848.9696969,4018.696969,3799.757575,3991.393939,16.48484848,4370.030303,3997.575757,5621.333333,3375.272727,4301.515151,3037.333333,4428.242424,2839.515151,5162.848484,2485.090909,4317.484848,3379.393939,4525.090909,3255.757575,4227.848484,4.121212121,4907.333333,2262.545454,4549.818181,2996.121212,42,42,?
53:42.0,4601.333333,2349.090909,4247.939394,848.9696969,3993.969697,3799.757575,3967.696969,16.48484848,4344.272727,3997.575757,5595.575757,3375.272727,4259.787878,3037.333333,4397.333333,2839.515151,5130.393939,2485.090909,4276.787878,3379.393939,4513.242424,3255.757575,4230.424242,4.121212121,4905.787878,2262.545454,4542.60606,2996.121212,42,42,?
53:42.0,4596.181818,2349.090909,4227.333333,848.9696969,4015.60606,3799.757575,3981.60606,16.48484848,4366.939394,3997.575757,5615.151515,3375.272727,4285.030303,3037.333333,4412.787878,2839.515151,5144.818181,2485.090909,4279.878787,3379.393939,4518.393939,3255.757575,4227.333333,4.121212121,4908.363636,2262.545454,4547.757575,2996.121212,42,42,?
53:42.0,4594.636363,2349.090909,4240.727272,848.9696969,4001.181818,3799.757575,3968.727272,16.48484848,4357.151515,3997.575757,5611.030302,3375.272727,4282.969697,3037.333333,4405.060606,2839.515151,5139.151515,2485.090909,4285.030303,3379.393939,4497.272727,3255.757575,4228.878787,4.121212121,4896.515151,2262.545454,4542.090909,2996.121212,42,42,?
53:42.0,4601.848484,2349.090909,4236.60606,848.9696969,3984.696969,3799.757575,3974.393939,16.48484848,4354.575757,3997.575757,5605.878787,3375.272727,4278.333333,3037.333333,4401.454545,2839.515151,5134.515151,2485.090909,4284,3379.393939,4492.121212,3255.757575,4228.878787,4.121212121,4888.272727,2262.545454,4541.060606,2996.121212,42,42,?
53:42.0,4593.090909,2349.090909,4233.515151,848.9696969,3990.878787,3799.757575,3983.151515,16.48484848,4362.818181,3997.575757,5605.878787,3375.272727,4290.181818,3037.333333,4411.242424,2839.515151,5137.60606,2485.090909,4268.545454,3379.393939,4501.90909,3255.757575,4227.333333,4.121212121,4890.333333,2262.545454,4539.515151,2996.121212,42,42,?
53:42.0,4580.212121,2349.090909,4243.818181,848.9696969,3992.424242,3799.757575,3963.060606,16.48484848,4349.424242,3997.575757,5594.545454,3375.272727,4270.090909,3037.333333,4394.242424,2839.515151,5124.727272,2485.090909,4261.333333,3379.393939,4492.121212,3255.757575,4225.272727,4.121212121,4889.30303,2262.545454,4531.787878,2996.121212,42,42,?
53:42.0,4583.30303,2349.090909,4230.939394,848.9696969,3990.878787,3799.757575,3970.787878,16.48484848,4355.090909,3997.575757,5607.939393,3375.272727,4270.090909,3037.333333,4390.121212,2839.515151,5126.272727,2485.090909,4273.696969,3379.393939,4486.969697,3255.757575,4221.666666,4.121212121,4885.696969,2262.545454,4533.848484,2996.121212,42,42,?
53:42.0,4593.090909,2349.090909,4238.151515,848.9696969,3969.242424,3799.757575,3970.272727,16.48484848,4354.575757,3997.575757,5608.969696,3375.272727,4274.212121,3037.333333,4383.939394,2839.515151,5120.60606,2485.090909,4254.636363,3379.393939,4482.333333,3255.757575,4227.333333,4.121212121,4885.181818,2262.545454,4530.242424,2996.121212,42,42,?
53:42.0,4573.515151,2349.090909,4240.212121,848.9696969,3967.181818,3799.757575,3963.060606,16.48484848,4350.969697,3997.575757,5595.575757,3375.272727,4265.969697,3037.333333,4379.818181,2839.515151,5110.818181,2485.090909,4244.333333,3379.393939,4470.484848,3255.757575,4227.333333,4.121212121,4875.393939,2262.545454,4508.090909,2996.121212,42,42,?
53:42.1,4550.333333,2349.090909,4228.878787,848.9696969,3979.545454,3799.757575,3972.333333,16.48484848,4358.181818,3997.575757,5599.696969,3375.272727,4270.60606,3037.333333,4393.727272,2839.515151,5114.424242,2485.090909,4255.666666,3379.393939,4466.878787,3255.757575,4224.242424,4.121212121,4867.666666,2262.545454,4497.787878,2996.121212,42,42,?
53:42.1,4562.696969,2349.090909,4237.636363,848.9696969,3955.333333,3799.757575,3959.454545,16.48484848,4345.30303,3997.575757,5596.090909,3375.272727,4257.727272,3037.333333,4379.818181,2839.515151,5104.121212,2485.090909,4237.636363,3379.393939,4466.363636,3255.757575,4227.333333,4.121212121,4874.363636,2262.545454,4503.969697,2996.121212,42,42,?
53:42.1,4577.636363,2349.090909,4230.424242,848.9696969,3958.939394,3799.757575,3966.666666,16.48484848,4357.666666,3997.575757,5604.333333,3375.272727,4256.181818,3037.333333,4380.333333,2839.515151,5114.939393,2485.090909,4240.727272,3379.393939,4475.121212,3255.757575,4224.757575,4.121212121,4877.969696,2262.545454,4515.30303,2996.121212,42,42,?
53:42.1,4583.818181,2349.090909,4237.121212,848.9696969,3966.666666,3799.757575,3972.333333,16.48484848,4359.212121,3997.575757,5613.090909,3375.272727,4268.545454,3037.333333,4394.242424,2839.515151,5128.333333,2485.090909,4261.333333,3379.393939,4478.212121,3255.757575,4228.363636,4.121212121,4879.515151,2262.545454,4525.090909,2996.121212,42,42,?
53:42.1,4583.30303,2349.090909,4245.878787,848.9696969,3957.909091,3799.757575,3954.818181,16.48484848,4340.666666,3997.575757,5614.121212,3375.272727,4278.848484,3037.333333,4397.333333,2839.515151,5126.787878,2485.090909,4261.848484,3379.393939,4478.212121,3255.757575,4229.393939,4.121212121,4885.181818,2262.545454,4528.181818,2996.121212,42,42,?
53:42.1,4576.090909,2349.090909,4240.212121,848.9696969,3959.969697,3799.757575,3952.757575,16.48484848,4343.242424,3997.575757,5616.696969,3375.272727,4261.333333,3037.333333,4380.333333,2839.515151,5107.727272,2485.090909,4239.696969,3379.393939,4486.454545,3255.757575,4226.818181,4.121212121,4897.030303,2262.545454,4533.333333,2996.121212,42,42,?
53:42.1,4576.090909,2349.090909,4240.212121,848.9696969,3959.969697,3799.757575,3952.757575,16.48484848,4343.242424,3997.575757,5593.515151,3375.272727,4261.333333,3037.333333,4380.333333,2839.515151,5107.727272,2485.090909,4239.696969,3379.393939,4486.454545,3255.757575,4226.818181,4.121212121,4897.030303,2262.545454,4524.575757,2996.121212,42,42,?
53:42.1,4558.060606,2349.090909,4233.515151,848.9696969,3958.939394,3799.757575,3953.787878,16.48484848,4342.727272,3997.575757,5597.636363,3375.272727,4253.090909,3037.333333,4372.60606,2839.515151,5095.363636,2485.090909,4230.939394,3379.393939,4463.787878,3255.757575,4224.757575,4.121212121,4874.878787,2262.545454,4507.575757,2996.121212,42,42,?
53:42.1,4579.181818,2349.090909,4241.757575,848.9696969,3957.909091,3799.757575,3964.60606,16.48484848,4342.212121,3997.575757,5617.727272,3375.272727,4270.090909,3037.333333,4386.515151,2839.515151,5123.696969,2485.090909,4263.90909,3379.393939,4462.757575,3255.757575,4226.818181,4.121212121,4870.242424,2262.545454,4514.787878,2996.121212,42,42,?
53:42.1,4579.181818,2349.090909,4241.757575,848.9696969,3957.909091,3799.757575,3964.60606,16.48484848,4342.212121,3997.575757,5611.030302,3375.272727,4274.212121,3037.333333,4387.030303,2839.515151,5123.696969,2485.090909,4263.90909,3379.393939,4474.60606,3255.757575,4226.818181,4.121212121,4883.636363,2262.545454,4530.757575,2996.121212,42,42,?
53:42.1,4574.030303,2349.090909,4247.424242,848.9696969,3980.575757,3799.757575,3968.727272,16.48484848,4346.848484,3997.575757,5615.666666,3375.272727,4275.242424,3037.333333,4388.060606,2839.515151,5113.90909,2485.090909,4243.818181,3379.393939,4490.060606,3255.757575,4230.939394,4.121212121,4897.030303,2262.545454,4533.333333,2996.121212,42,42,?
53:42.1,4574.030303,2349.090909,4247.424242,848.9696969,3980.575757,3799.757575,3968.727272,16.48484848,4346.848484,3997.575757,5619.272727,3375.272727,4257.727272,3037.333333,4388.060606,2839.515151,5113.90909,2485.090909,4243.818181,3379.393939,4490.060606,3255.757575,4230.939394,4.121212121,4897.030303,2262.545454,4530.757575,2996.121212,42,42,?
53:42.1,4581.242424,2349.090909,4240.212121,848.9696969,3979.030303,3799.757575,3968.212121,16.48484848,4347.878787,3997.575757,5628.545454,3375.272727,4265.969697,3037.333333,4392.696969,2839.515151,5129.878787,2485.090909,4258.757575,3379.393939,4498.818181,3255.757575,4229.90909,4.121212121,4902.181818,2262.545454,4534.878787,2996.121212,42,42,?
53:42.2,4576.090909,2349.090909,4233.515151,848.9696969,3990.878787,3799.757575,3974.909091,16.48484848,4350.969697,3997.575757,5635.757575,3375.272727,4284.515151,3037.333333,4406.090909,2839.515151,5154.60606,2485.090909,4287.60606,3379.393939,4505.515151,3255.757575,4228.878787,4.121212121,4905.787878,2262.545454,4534.878787,2996.121212,42,42,?
53:42.2,4580.727272,2349.090909,4243.818181,848.9696969,3978,3799.757575,3963.575757,16.48484848,4344.787878,3997.575757,5634.727272,3375.272727,4270.60606,3037.333333,4398.878787,2839.515151,5146.878787,2485.090909,4285.030303,3379.393939,4499.848484,3255.757575,4229.393939,4.121212121,4898.575757,2262.545454,4534.878787,2996.121212,42,42,?
53:42.2,4591.545454,2349.090909,4233.515151,848.9696969,3963.575757,3799.757575,3965.636363,16.48484848,4354.575757,3997.575757,5646.575757,3375.272727,4272.151515,3037.333333,4401.454545,2839.515151,5145.333333,2485.090909,4270.60606,3379.393939,4511.181818,3255.757575,4226.30303,4.121212121,4903.212121,2262.545454,4548.272727,2996.121212,42,42,?
53:42.2,4584.333333,2349.090909,4243.30303,848.9696969,3965.636363,3799.757575,3958.424242,16.48484848,4348.90909,3997.575757,5643.484848,3375.272727,4268.030303,3037.333333,4395.272727,2839.515151,5136.060606,2485.090909,4257.212121,3379.393939,4512.727272,3255.757575,4230.939394,4.121212121,4910.424242,2262.545454,4545.181818,2996.121212,42,42,?
53:42.2,4578.666666,2349.090909,4242.787878,848.9696969,3983.666666,3799.757575,3959.969697,16.48484848,4350.454545,3997.575757,5655.848484,3375.272727,4275.242424,3037.333333,4400.424242,2839.515151,5137.60606,2485.090909,4274.212121,3379.393939,4502.939393,3255.757575,4229.90909,4.121212121,4900.636363,2262.545454,4538.484848,2996.121212,42,42,?
53:42.2,4597.212121,2349.090909,4238.666666,848.9696969,3986.242424,3799.757575,3971.30303,16.48484848,4358.696969,3997.575757,5669.757575,3375.272727,4292.242424,3037.333333,4414.333333,2839.515151,5147.90909,2485.090909,4287.090909,3379.393939,4506.030303,3255.757575,4226.818181,4.121212121,4900.121212,2262.545454,4552.90909,2996.121212,42,42,?
53:42.2,4603.90909,2349.090909,4249.484848,848.9696969,3981.090909,3799.757575,3966.151515,16.48484848,4348.393939,3997.575757,5655.333333,3375.272727,4275.242424,3037.333333,4399.393939,2839.515151,5137.60606,2485.090909,4261.848484,3379.393939,4507.575757,3255.757575,4229.393939,4.121212121,4907.848484,2262.545454,4556,2996.121212,42,42,?
53:42.2,4588.969697,2349.090909,4234.030303,848.9696969,3987.272727,3799.757575,3972.333333,16.48484848,4354.575757,3997.575757,5658.424242,3375.272727,4264.424242,3037.333333,4395.787878,2839.515151,5137.60606,2485.090909,4264.939394,3379.393939,4504.484848,3255.757575,4224.757575,4.121212121,4897.030303,2262.545454,4543.121212,2996.121212,42,42,?
53:42.2,4584.333333,2349.090909,4237.121212,848.9696969,3958.939394,3799.757575,3958.424242,16.48484848,4347.878787,3997.575757,5652.242424,3375.272727,4255.151515,3037.333333,4382.393939,2839.515151,5122.666666,2485.090909,4272.666666,3379.393939,4490.060606,3255.757575,4226.818181,4.121212121,4884.666666,2262.545454,4530.757575,2996.121212,42,42,?
53:42.2,4577.636363,2349.090909,4243.818181,848.9696969,3959.454545,3799.757575,3952.757575,16.48484848,4347.363636,3997.575757,5639.363636,3375.272727,4259.787878,3037.333333,4372.60606,2839.515151,5114.424242,2485.090909,4274.212121,3379.393939,4477.181818,3255.757575,4227.848484,4.121212121,4882.090909,2262.545454,4529.212121,2996.121212,42,42,?
53:42.2,4574.030303,2349.090909,4240.212121,848.9696969,4002.212121,3799.757575,3971.30303,16.48484848,4355.60606,3997.575757,5637.30303,3375.272727,4269.060606,3037.333333,4387.030303,2839.515151,5131.424242,2485.090909,4275.757575,3379.393939,4485.939393,3255.757575,4226.818181,4.121212121,4890.333333,2262.545454,4535.90909,2996.121212,42,42,?
53:42.2,4598.242424,2349.090909,4248.969697,848.9696969,3984.696969,3799.757575,3963.060606,16.48484848,4337.060606,3997.575757,5626.484848,3375.272727,4258.242424,3037.333333,4386,2839.515151,5124.212121,2485.090909,4248.969697,3379.393939,4504.484848,3255.757575,4231.969697,4.121212121,4913,2262.545454,4541.575757,2996.121212,42,42,?
53:42.3,4607.515151,2349.090909,4237.121212,848.9696969,3965.636363,3799.757575,3964.60606,16.48484848,4342.727272,3997.575757,5627.515151,3375.272727,4278.333333,3037.333333,4397.333333,2839.515151,5135.545454,2485.090909,4252.060606,3379.393939,4511.181818,3255.757575,4229.393939,4.121212121,4913.515151,2262.545454,4542.090909,2996.121212,42,42,?
53:42.3,4590,2349.090909,4238.151515,848.9696969,3966.666666,3799.757575,3959.454545,16.48484848,4342.212121,3997.575757,5613.60606,3375.272727,4277.30303,3037.333333,4394.242424,2839.515151,5145.848484,2485.090909,4274.727272,3379.393939,4492.636363,3255.757575,4229.90909,4.121212121,4891.878787,2262.545454,4529.727272,2996.121212,42,42,?
53:42.3,4572.484848,2349.090909,4239.181818,848.9696969,3958.939394,3799.757575,3950.181818,16.48484848,4332.939394,3997.575757,5596.60606,3375.272727,4251.545454,3037.333333,4383.939394,2839.515151,5132.969696,2485.090909,4277.30303,3379.393939,4483.878787,3255.757575,4231.969697,4.121212121,4887.757575,2262.545454,4515.30303,2996.121212,42,42,?
53:42.3,4565.787878,2349.090909,4232.484848,848.9696969,3957.393939,3799.757575,3959.454545,16.48484848,4345.818181,3997.575757,5604.848484,3375.272727,4265.969697,3037.333333,4400.939394,2839.515151,5136.060606,2485.090909,4270.090909,3379.393939,4490.060606,3255.757575,4227.848484,4.121212121,4892.90909,2262.545454,4510.666666,2996.121212,42,42,?
53:42.3,4573,2349.090909,4247.424242,848.9696969,3940.393939,3799.757575,3946.060606,16.48484848,4337.060606,3997.575757,5596.60606,3375.272727,4271.636363,3037.333333,4392.696969,2839.515151,5130.393939,2485.090909,4244.848484,3379.393939,4480.787878,3255.757575,4226.818181,4.121212121,4887.757575,2262.545454,4507.060606,2996.121212,42,42,?
53:42.3,4572.484848,2349.090909,4238.666666,848.9696969,3951.212121,3799.757575,3952.757575,16.48484848,4341.181818,3997.575757,5592.484848,3375.272727,4266.484848,3037.333333,4387.545454,2839.515151,5127.818181,2485.090909,4233.515151,3379.393939,4480.787878,3255.757575,4225.272727,4.121212121,4883.121212,2262.545454,4505,2996.121212,42,42,?
53:42.3,4570.939393,2534.545454,4236.090909,848.9696969,3966.666666,3799.757575,3965.636363,16.48484848,4352,3997.575757,5589.90909,3375.272727,4255.666666,3037.333333,4394.242424,2839.515151,5126.272727,2485.090909,4246.90909,3379.393939,4477.696969,3255.757575,4230.939394,4.121212121,4877.454545,2262.545454,4505.515151,2996.121212,42,42,?
53:42.3,4582.272727,2534.545454,4241.242424,902.5454545,3942.969697,3799.757575,3953.787878,16.48484848,4346.333333,3997.575757,5581.666666,3375.272727,4252.060606,3037.333333,4388.575757,2839.515151,5124.212121,2485.090909,4256.696969,3379.393939,4469.454545,3255.757575,4229.393939,4.121212121,4872.30303,2262.545454,4509.121212,2996.121212,42,42,?
53:42.3,4580.727272,2534.545454,4234.545454,902.5454545,3941.939394,3799.757575,3954.30303,16.48484848,4349.424242,3997.575757,5591.454545,3375.272727,4272.151515,3037.333333,4390.636363,2839.515151,5133.484848,2485.090909,4247.939394,3379.393939,4478.212121,3255.757575,4224.242424,4.121212121,4876.939393,2262.545454,4513.757575,3206.30303,42,42,?
53:42.3,4571.969697,2534.545454,4247.939394,902.5454545,3959.969697,3886.30303,3952.757575,16.48484848,4338.60606,3997.575757,5583.727272,3375.272727,4259.787878,3037.333333,4379.30303,2839.515151,5115.969696,2485.090909,4226.30303,3379.393939,4468.939393,3255.757575,4229.393939,4.121212121,4870.757575,2262.545454,4506.545454,3206.30303,42,42,?
53:42.3,4569.393939,2534.545454,4239.181818,902.5454545,3976.454545,3886.30303,3962.030303,53.57575757,4342.212121,3997.575757,5580.636363,3375.272727,4253.090909,3037.333333,4378.787878,2839.515151,5114.424242,2485.090909,4246.90909,3379.393939,4456.575757,3255.757575,4226.30303,4.121212121,4858.393939,2262.545454,4501.90909,3206.30303,42,42,?
53:42.3,4590,2534.545454,4236.60606,902.5454545,3971.30303,3886.30303,3968.212121,53.57575757,4349.939394,4125.333333,5586.818181,3375.272727,4265.969697,3037.333333,4386.515151,2839.515151,5124.727272,2485.090909,4259.272727,3379.393939,4481.818181,3255.757575,4225.787878,4.121212121,4880.030303,2262.545454,4524.060606,3206.30303,42,42,?
53:42.3,4601.848484,2534.545454,4248.454545,902.5454545,3969.242424,3886.30303,3964.090909,53.57575757,4345.30303,4125.333333,5584.757575,3564.848484,4263.393939,3037.333333,4387.545454,2839.515151,5121.636363,2485.090909,4241.242424,3379.393939,4501.393939,3255.757575,4229.393939,4.121212121,4897.545454,2262.545454,4542.60606,3206.30303,42,42,?
53:42.4,4585.878787,2534.545454,4235.575757,902.5454545,3983.151515,3886.30303,3972.848484,53.57575757,4359.727272,4125.333333,5592.484848,3564.848484,4272.151515,3132.121212,4404.030303,2839.515151,5142.242424,2485.090909,4256.181818,3379.393939,4483.363636,3255.757575,4225.787878,4.121212121,4880.545454,2262.545454,4532.818181,3206.30303,42,42,?
53:42.4,4577.121212,2534.545454,4242.272727,902.5454545,3968.727272,3886.30303,3957.909091,53.57575757,4351.484848,4125.333333,5582.696969,3564.848484,4264.939394,3132.121212,4394.242424,2971.393939,5136.060606,2485.090909,4246.393939,3379.393939,4460.696969,3255.757575,4228.363636,4.121212121,4872.818181,2262.545454,4513.757575,3206.30303,42,42,?
53:42.4,4571.454545,2534.545454,4241.242424,902.5454545,3973.363636,3886.30303,3955.848484,53.57575757,4343.242424,4125.333333,5577.030302,3564.848484,4257.212121,3132.121212,4385.484848,2971.393939,5123.696969,2596.363636,4236.60606,3379.393939,4461.727272,3255.757575,4226.818181,4.121212121,4870.757575,2262.545454,4506.545454,3206.30303,42,42,?
53:42.4,4579.181818,2534.545454,4238.151515,902.5454545,3976.454545,3886.30303,3962.030303,53.57575757,4349.939394,4125.333333,5582.181818,3564.848484,4268.545454,3132.121212,4399.393939,2971.393939,5136.575757,2596.363636,4260.818181,3395.878788,4479.757575,3255.757575,4228.878787,4.121212121,4878.484848,2262.545454,4518.393939,3206.30303,42,42,?
53:42.4,4585.878787,2534.545454,4247.424242,902.5454545,3946.575757,3886.30303,3948.636363,53.57575757,4344.272727,4125.333333,5575.484848,3564.848484,4267,3132.121212,4395.787878,2971.393939,5141.727272,2596.363636,4255.666666,3395.878788,4497.272727,3523.636363,4233,4.121212121,4903.212121,2262.545454,4519.424242,3206.30303,42,42,?
53:42.4,4570.424242,2534.545454,4238.666666,902.5454545,3957.909091,3886.30303,3962.030303,53.57575757,4350.454545,4125.333333,5577.030302,3564.848484,4274.212121,3132.121212,4401.454545,2971.393939,5153.060606,2596.363636,4252.060606,3395.878788,4499.848484,3523.636363,4226.30303,8.242424242,4898.575757,2262.545454,4511.181818,3206.30303,42,42,?
53:42.4,4574.545454,2534.545454,4247.939394,902.5454545,3959.454545,3886.30303,3957.909091,53.57575757,4341.181818,4125.333333,5569.30303,3564.848484,4274.212121,3132.121212,4398.878787,2971.393939,5139.151515,2596.363636,4259.787878,3395.878788,4475.636363,3523.636363,4226.818181,8.242424242,4875.90909,2419.151515,4516.333333,3206.30303,42,42,?
53:42.4,4589.484848,2534.545454,4245.363636,902.5454545,3948.636363,3886.30303,3947.090909,53.57575757,4335.515151,4125.333333,5570.848484,3564.848484,4275.242424,3132.121212,4391.151515,2971.393939,5124.727272,2596.363636,4263.393939,3404.121212,4473.060606,3523.636363,4228.363636,8.242424242,4878.484848,2419.151515,4526.121212,3206.30303,42,42,?
53:42.4,4583.818181,2534.545454,4236.60606,902.5454545,3969.757575,3886.30303,3953.787878,53.57575757,4341.181818,4125.333333,5574.969696,3564.848484,4274.212121,3132.121212,4389.60606,2971.393939,5134.515151,2596.363636,4249.484848,3404.121212,4495.727272,3519.515151,4227.848484,8.242424242,4893.939393,2419.151515,4523.030303,3206.30303,42,42,?
53:42.4,4569.393939,2534.545454,4249.484848,902.5454545,3974.393939,3886.30303,3947.090909,53.57575757,4330.878787,4125.333333,5556.424242,3564.848484,4251.030303,3132.121212,4372.090909,2971.393939,5126.787878,2596.363636,4232.484848,3404.121212,4487.484848,3519.515151,4229.393939,8.242424242,4885.181818,2419.151515,4508.60606,3206.30303,42,42,?
53:42.4,4568.878787,2534.545454,4239.696969,902.5454545,3973.878787,3886.30303,3956.363636,53.57575757,4342.212121,4125.333333,5568.272727,3564.848484,4257.727272,3132.121212,4375.696969,2971.393939,5120.60606,2596.363636,4247.939394,3404.121212,4478.727272,3519.515151,4226.30303,8.242424242,4872.30303,2419.151515,4513.757575,3206.30303,42,42,?
53:42.4,4586.90909,2534.545454,4244.333333,902.5454545,3974.909091,3886.30303,3955.848484,53.57575757,4345.30303,4125.333333,5577.030302,3564.848484,4263.90909,3132.121212,4376.727272,2971.393939,5116.484848,2596.363636,4254.636363,3404.121212,4483.878787,3519.515151,4230.424242,8.242424242,4882.090909,2419.151515,4527.151515,3206.30303,42,42,?
53:42.4,4602.878787,2534.545454,4245.363636,902.5454545,3970.272727,3886.30303,3952.242424,53.57575757,4338.60606,4125.333333,5569.30303,3564.848484,4262.878787,3132.121212,4374.666666,2971.393939,5124.212121,2596.363636,4244.848484,3404.121212,4489.545454,3519.515151,4229.90909,8.242424242,4891.878787,2419.151515,4530.242424,3206.30303,42,42,?
53:42.5,4599.272727,2534.545454,4234.545454,902.5454545,3972.333333,3886.30303,3965.121212,53.57575757,4346.848484,4125.333333,5573.939393,3564.848484,4268.545454,3132.121212,4389.090909,2971.393939,5141.212121,2596.363636,4247.939394,3404.121212,4496.242424,3519.515151,4227.333333,8.242424242,4892.90909,2419.151515,4531.787878,3206.30303,42,42,?
53:42.5,4582.787878,2534.545454,4248.454545,902.5454545,3976.969697,3886.30303,3955.333333,53.57575757,4338.090909,4125.333333,5566.212121,3564.848484,4248.454545,3132.121212,4378.272727,2971.393939,5125.242424,2596.363636,4246.90909,3404.121212,4491.090909,3519.515151,4230.939394,8.242424242,4891.363636,2419.151515,4522,3206.30303,42,42,?
53:42.5,4582.272727,2534.545454,4241.757575,902.5454545,3988.818181,3886.30303,3959.969697,53.57575757,4344.272727,4125.333333,5572.393939,3564.848484,4255.666666,3132.121212,4380.333333,2971.393939,5127.30303,2596.363636,4257.727272,3404.121212,4496.242424,3519.515151,4228.363636,8.242424242,4888.787878,2419.151515,4523.030303,3206.30303,42,42,?
53:42.5,4598.757575,2534.545454,4243.818181,902.5454545,3984.696969,3886.30303,3967.181818,53.57575757,4348.90909,4125.333333,5578.575757,3564.848484,4264.939394,3132.121212,4388.575757,2971.393939,5140.181818,2596.363636,4256.696969,3404.121212,4502.424242,3519.515151,4230.939394,8.242424242,4890.333333,2419.151515,4536.424242,3206.30303,42,42,?
53:42.5,4592.575757,2534.545454,4248.454545,902.5454545,3977.484848,3886.30303,3964.090909,53.57575757,4341.696969,4125.333333,5571.363636,3564.848484,4253.090909,3132.121212,4385.484848,2971.393939,5131.424242,2596.363636,4240.212121,3404.121212,4493.666666,3519.515151,4231.454545,8.242424242,4896,2419.151515,4528.181818,3206.30303,42,42,?
53:42.5,4576.60606,2534.545454,4235.060606,902.5454545,3981.090909,3886.30303,3973.878787,53.57575757,4352.515151,4125.333333,5578.060606,3564.848484,4264.939394,3132.121212,4397.848484,2971.393939,5136.575757,2596.363636,4249.484848,3404.121212,4491.090909,3519.515151,4227.333333,8.242424242,4897.545454,2419.151515,4514.787878,3206.30303,42,42,?
53:42.5,4581.242424,2534.545454,4245.363636,902.5454545,3954.30303,3886.30303,3958.939394,53.57575757,4342.727272,4125.333333,5578.060606,3564.848484,4259.272727,3132.121212,4385.484848,2971.393939,5131.424242,2596.363636,4253.60606,3404.121212,4480.272727,3519.515151,4230.939394,8.242424242,4886.212121,2419.151515,4516.333333,3206.30303,42,42,?
53:42.5,4579.696969,2534.545454,4239.696969,902.5454545,3955.333333,3886.30303,3960.484848,53.57575757,4347.363636,4125.333333,5587.848484,3564.848484,4263.393939,3132.121212,4386.515151,2971.393939,5134.515151,2596.363636,4249.484848,3404.121212,4472.030303,3519.515151,4229.90909,8.242424242,4877.454545,2419.151515,4521.484848,3206.30303,42,42,?
53:42.5,4576.090909,2534.545454,4238.151515,902.5454545,3981.60606,3886.30303,3975.939394,53.57575757,4359.212121,4125.333333,5589.90909,3564.848484,4281.939394,3132.121212,4405.060606,2971.393939,5145.848484,2596.363636,4241.242424,3404.121212,4478.727272,3519.515151,4230.939394,8.242424242,4885.696969,2419.151515,4515.818181,3206.30303,42,42,?
53:42.5,4576.090909,2534.545454,4248.969697,902.5454545,3984.696969,3886.30303,3964.090909,53.57575757,4345.818181,4125.333333,5576.515151,3564.848484,4274.727272,3132.121212,4397.848484,2971.393939,5137.090909,2596.363636,4226.818181,3404.121212,4478.727272,3519.515151,4230.424242,8.242424242,4886.212121,2419.151515,4503.969697,3206.30303,42,42,?
53:42.5,4581.757575,2534.545454,4234.545454,902.5454545,3982.636363,3886.30303,3965.636363,53.57575757,4351.484848,4125.333333,5593.515151,3564.848484,4277.818181,3132.121212,4404.030303,2971.393939,5144.30303,2596.363636,4232.484848,3404.121212,4486.969697,3519.515151,4227.333333,8.242424242,4888.787878,2419.151515,4513.757575,3206.30303,42,42,?
53:42.5,4598.242424,2534.545454,4243.30303,902.5454545,3955.333333,3886.30303,3967.181818,53.57575757,4349.424242,4125.333333,5596.090909,3564.848484,4270.090909,3132.121212,4407.121212,2971.393939,5145.333333,2596.363636,4234.030303,3404.121212,4492.121212,3519.515151,4231.969697,8.242424242,4900.636363,2419.151515,4523.545454,3206.30303,42,42,?
53:42.6,4591.030303,2534.545454,4246.393939,902.5454545,3962.030303,3886.30303,3976.969697,53.57575757,4355.090909,4125.333333,5591.969696,3564.848484,4267,3132.121212,4407.636363,2971.393939,5152.545454,2596.363636,4256.181818,3404.121212,4491.090909,3519.515151,4229.393939,8.242424242,4892.90909,2419.151515,4512.727272,3206.30303,42,42,?
53:42.6,4578.666666,2534.545454,4240.212121,902.5454545,3994.484848,3886.30303,3979.030303,53.57575757,4360.757575,4125.333333,5599.181818,3564.848484,4272.666666,3132.121212,4405.060606,2971.393939,5150.484848,2596.363636,4259.787878,3404.121212,4494.696969,3519.515151,4227.848484,8.242424242,4887.242424,2419.151515,4514.272727,3206.30303,42,42,?
53:42.6,4582.787878,2534.545454,4245.878787,902.5454545,3983.666666,3886.30303,3959.969697,53.57575757,4343.757575,4125.333333,5591.454545,3564.848484,4259.787878,3132.121212,4384.454545,2971.393939,5124.212121,2596.363636,4218.060606,3404.121212,4482.848484,3519.515151,4228.878787,8.242424242,4886.727272,2419.151515,4517.363636,3206.30303,42,42,?
53:42.6,4594.121212,2534.545454,4231.454545,902.5454545,3980.575757,3886.30303,3977.484848,53.57575757,4361.272727,4125.333333,5600.212121,3564.848484,4272.151515,3132.121212,4400.424242,2971.393939,5146.878787,2596.363636,4231.969697,3404.121212,4490.060606,3519.515151,4227.333333,8.242424242,4893.939393,2419.151515,4525.60606,3206.30303,42,42,?
53:42.6,4605.969697,2534.545454,4241.757575,902.5454545,3983.151515,3886.30303,3981.090909,53.57575757,4365.393939,4125.333333,5604.333333,3564.848484,4275.757575,3132.121212,4410.212121,2971.393939,5163.878787,2596.363636,4259.272727,3404.121212,4510.666666,3519.515151,4237.121212,8.242424242,4913.515151,2419.151515,4536.939393,3206.30303,42,42,?
53:42.6,4593.60606,2534.545454,4246.393939,902.5454545,3990.878787,3886.30303,3974.393939,53.57575757,4356.636363,4125.333333,5611.030302,3564.848484,4270.090909,3132.121212,4399.90909,2971.393939,5148.939393,2596.363636,4250.515151,3404.121212,4508.60606,3519.515151,4236.090909,8.242424242,4910.939393,2419.151515,4533.333333,3206.30303,42,42,?
53:42.6,4587.939393,2534.545454,4236.60606,902.5454545,3996.545454,3886.30303,3985.727272,53.57575757,4365.90909,4125.333333,5627.515151,3564.848484,4281.939394,3132.121212,4408.666666,2971.393939,5150.999999,2596.363636,4255.666666,3404.121212,4502.424242,3519.515151,4227.848484,8.242424242,4899.090909,2419.151515,4534.878787,3206.30303,42,42,?
53:42.6,4595.151515,2534.545454,4248.969697,902.5454545,3985.727272,3886.30303,3975.939394,53.57575757,4354.575757,4125.333333,5620.30303,3564.848484,4272.151515,3132.121212,4403.515151,2971.393939,5146.878787,2596.363636,4261.848484,3404.121212,4492.636363,3519.515151,4230.424242,8.242424242,4893.424242,2419.151515,4531.272727,3206.30303,42,42,?
53:42.6,4593.60606,2534.545454,4239.696969,902.5454545,3991.909091,3886.30303,3974.393939,53.57575757,4351.484848,4125.333333,5629.060606,3564.848484,4272.666666,3132.121212,4401.454545,2971.393939,5148.424242,2596.363636,4250.515151,3404.121212,4501.90909,3519.515151,4228.878787,8.242424242,4899.60606,2419.151515,4528.696969,3206.30303,42,42,?
53:42.6,4602.878787,2534.545454,4244.333333,902.5454545,3974.393939,3886.30303,3968.212121,53.57575757,4348.393939,4125.333333,5634.212121,3564.848484,4278.848484,3132.121212,4394.242424,2971.393939,5138.636363,2596.363636,4228.878787,3404.121212,4506.545454,3519.515151,4231.969697,8.242424242,4908.878787,2419.151515,4535.393939,3206.30303,42,42,?
53:42.6,4595.666666,2534.545454,4248.969697,902.5454545,3961,3886.30303,3958.939394,53.57575757,4349.939394,4125.333333,5633.696969,3564.848484,4269.060606,3132.121212,4386.515151,2971.393939,5125.757575,2596.363636,4230.424242,3404.121212,4484.393939,3519.515151,4229.90909,8.242424242,4890.848484,2419.151515,4523.545454,3206.30303,42,42,?
53:42.6,4571.454545,2534.545454,4236.60606,902.5454545,3991.909091,3886.30303,3964.60606,53.57575757,4361.272727,4125.333333,5643.999999,3564.848484,4256.696969,3132.121212,4391.666666,2971.393939,5130.393939,2596.363636,4238.151515,3404.121212,4475.636363,3519.515151,4225.787878,8.242424242,4876.424242,2419.151515,4503.969697,3206.30303,42,42,?
53:42.6,4581.757575,2534.545454,4246.90909,902.5454545,3984.696969,3886.30303,3954.30303,53.57575757,4343.757575,4125.333333,5635.757575,3564.848484,4242.272727,3132.121212,4376.212121,2971.393939,5119.060606,2596.363636,4227.848484,3404.121212,4473.060606,3519.515151,4231.454545,8.242424242,4878.484848,2419.151515,4505,3206.30303,42,42,?
53:42.7,4604.939393,2534.545454,4241.242424,902.5454545,3965.121212,3886.30303,3962.030303,53.57575757,4344.272727,4125.333333,5640.393939,3564.848484,4255.151515,3132.121212,4380.848484,2971.393939,5125.242424,2596.363636,4235.060606,3404.121212,4482.848484,3519.515151,4230.939394,8.242424242,4885.181818,2419.151515,4526.121212,3206.30303,42,42,?
53:42.7,4607,2534.545454,4244.848484,902.5454545,3966.666666,3886.30303,3965.121212,53.57575757,4348.90909,4125.333333,5647.090909,3564.848484,4255.666666,3132.121212,4386,2971.393939,5132.969696,2596.363636,4223.727272,3404.121212,4494.181818,3519.515151,4230.424242,8.242424242,4898.575757,2419.151515,4529.727272,3206.30303,42,42,?
53:42.7,4602.363636,2534.545454,4251.030303,902.5454545,3975.424242,3886.30303,3962.030303,53.57575757,4352,4125.333333,5653.787878,3564.848484,4257.212121,3132.121212,4387.030303,2971.393939,5130.90909,2596.363636,4219.60606,3404.121212,4492.636363,3519.515151,4230.939394,8.242424242,4896,2419.151515,4524.060606,3206.30303,42,42,?
53:42.7,4598.242424,2534.545454,4240.727272,902.5454545,3998.60606,3886.30303,3981.60606,53.57575757,4372.60606,4125.333333,5673.878787,3564.848484,4284,3132.121212,4409.181818,2971.393939,5146.878787,2596.363636,4255.666666,3404.121212,4492.121212,3519.515151,4232.484848,8.242424242,4883.636363,2419.151515,4533.848484,3206.30303,42,42,?
53:42.7,4592.060606,2534.545454,4248.454545,902.5454545,3986.757575,3886.30303,3973.878787,53.57575757,4358.181818,4125.333333,5667.696969,3564.848484,4263.90909,3132.121212,4397.848484,2971.393939,5137.090909,2596.363636,4245.878787,3404.121212,4481.30303,3519.515151,4234.030303,8.242424242,4883.636363,2419.151515,4523.545454,3206.30303,42,42,?
53:42.7,4580.727272,2534.545454,4241.757575,902.5454545,3981.090909,3886.30303,3969.757575,53.57575757,4348.90909,4125.333333,5672.333333,3564.848484,4257.727272,3132.121212,4390.121212,2971.393939,5130.90909,2596.363636,4229.393939,3404.121212,4477.181818,3519.515151,4227.333333,8.242424242,4883.121212,2419.151515,4505.515151,3206.30303,42,42,?
53:42.7,4584.333333,2534.545454,4246.393939,902.5454545,3985.212121,3886.30303,3974.909091,53.57575757,4357.666666,4125.333333,5684.696969,3564.848484,4280.90909,3132.121212,4400.424242,2971.393939,5142.757575,2596.363636,4236.090909,3404.121212,4486.969697,3519.515151,4230.939394,8.242424242,4886.727272,2419.151515,4514.272727,3206.30303,42,42,?
53:42.7,4593.60606,2534.545454,4251.545454,902.5454545,3980.060606,3886.30303,3971.818181,53.57575757,4361.272727,4125.333333,5686.757575,3564.848484,4278.333333,3132.121212,4401.969697,2971.393939,5148.424242,2596.363636,4237.636363,3404.121212,4491.60606,3519.515151,4231.969697,8.242424242,4896,2419.151515,4524.575757,3206.30303,42,42,?
53:42.7,4592.575757,2534.545454,4238.666666,902.5454545,3987.787878,3886.30303,3976.969697,53.57575757,4371.060606,4125.333333,5700.666666,3564.848484,4281.424242,3132.121212,4411.757575,2971.393939,5154.60606,2596.363636,4251.030303,3404.121212,4492.121212,3519.515151,4227.848484,8.242424242,4894.454545,2419.151515,4522.515151,3206.30303,42,42,?
53:42.7,4592.575757,2534.545454,4252.060606,902.5454545,3968.727272,3886.30303,3961.515151,53.57575757,4355.090909,4125.333333,5701.696969,3564.848484,4283.484848,3132.121212,4404.030303,2971.393939,5133.999999,2596.363636,4247.939394,3404.121212,4492.121212,3519.515151,4235.060606,8.242424242,4897.545454,2419.151515,4522,3206.30303,42,42,?
53:42.7,4585.878787,2534.545454,4244.848484,902.5454545,3972.333333,3886.30303,3963.575757,53.57575757,4349.939394,4125.333333,5711.484848,3564.848484,4286.060606,3132.121212,4404.545454,2971.393939,5134.515151,2596.363636,4252.060606,3404.121212,4498.30303,3519.515151,4233.515151,8.242424242,4901.666666,2419.151515,4523.030303,3206.30303,42,42,?
53:42.7,4585.363636,2534.545454,4241.242424,902.5454545,3985.727272,3886.30303,3972.333333,53.57575757,4356.121212,4125.333333,5721.787878,3564.848484,4272.151515,3132.121212,4406.090909,2971.393939,5150.484848,2596.363636,4260.818181,3404.121212,4492.121212,3519.515151,4231.454545,8.242424242,4889.818181,2419.151515,4519.939393,3206.30303,42,42,?
53:42.7,4596.696969,2534.545454,4252.060606,902.5454545,3970.787878,3886.30303,3963.575757,53.57575757,4357.151515,4125.333333,5717.666666,3564.848484,4259.787878,3132.121212,4399.90909,2971.393939,5145.848484,2596.363636,4248.969697,3404.121212,4496.757575,3519.515151,4233,8.242424242,4896,2419.151515,4521.484848,3206.30303,42,42,?
53:42.7,4603.393939,2534.545454,4241.242424,902.5454545,3975.424242,3886.30303,3972.333333,53.57575757,4371.060606,4125.333333,5731.060605,3564.848484,4290.181818,3132.121212,4418.454545,2971.393939,5151.515151,2596.363636,4252.575757,3404.121212,4520.969697,3519.515151,4230.424242,8.242424242,4922.272727,2419.151515,4532.818181,3206.30303,42,42,?
53:42.8,4601.333333,2534.545454,4251.030303,902.5454545,3974.393939,3886.30303,3966.151515,53.57575757,4359.212121,4125.333333,5730.030302,3564.848484,4287.090909,3132.121212,4405.575757,2971.393939,5131.424242,2596.363636,4252.575757,3404.121212,4509.121212,3519.515151,4234.030303,8.242424242,4914.545454,2419.151515,4525.090909,3206.30303,42,42,?
53:42.8,4589.484848,2534.545454,4249.484848,902.5454545,3978,3886.30303,3971.30303,53.57575757,4364.363636,4125.333333,5730.545454,3564.848484,4274.727272,3132.121212,4391.666666,2971.393939,5122.666666,2596.363636,4251.545454,3404.121212,4494.181818,3519.515151,4230.939394,8.242424242,4890.333333,2419.151515,4513.757575,3206.30303,42,42,?
53:42.8,4597.212121,2534.545454,4246.90909,902.5454545,3981.60606,3886.30303,3982.121212,53.57575757,4381.363636,4125.333333,5740.848484,3564.848484,4289.666666,3132.121212,4407.121212,2971.393939,5141.212121,2596.363636,4251.545454,3404.121212,4504.484848,3519.515151,4228.363636,8.242424242,4900.121212,2419.151515,4526.636363,3206.30303,42,42,?
53:42.8,4607.515151,2534.545454,4253.090909,902.5454545,3971.30303,3886.30303,3962.545454,53.57575757,4361.787878,4125.333333,5730.545454,3564.848484,4289.151515,3132.121212,4401.454545,2971.393939,5135.030303,2596.363636,4234.030303,3404.121212,4496.242424,3519.515151,4229.90909,8.242424242,4902.181818,2419.151515,4534.363636,3206.30303,42,42,?
53:42.8,4592.060606,2534.545454,4239.181818,902.5454545,3974.393939,3886.30303,3959.454545,53.57575757,4352.515151,4125.333333,5722.818181,3564.848484,4280.393939,3132.121212,4393.727272,2971.393939,5131.939393,2596.363636,4236.60606,3404.121212,4484.90909,3519.515151,4228.878787,8.242424242,4882.090909,2419.151515,4525.60606,3206.30303,42,42,?
53:42.8,4587.939393,2353.212121,4251.545454,902.5454545,3970.272727,3886.30303,3954.818181,53.57575757,4347.363636,4125.333333,5711.484848,3564.848484,4258.242424,3132.121212,4381.878787,2971.393939,5121.636363,2596.363636,4237.636363,3404.121212,4484.90909,3519.515151,4231.969697,8.242424242,4885.181818,2419.151515,4517.363636,3206.30303,42,42,?
53:42.8,4588.969697,2353.212121,4251.545454,914.9090908,3984.181818,3886.30303,3962.030303,53.57575757,4354.060606,4125.333333,5717.151515,3564.848484,4260.818181,3132.121212,4383.939394,2971.393939,5121.121212,2596.363636,4234.545454,3404.121212,4486.969697,3519.515151,4228.363636,8.242424242,4888.787878,2419.151515,4516.333333,3206.30303,42,42,?
53:42.8,4587.424242,2353.212121,4242.272727,914.9090908,4002.212121,3886.30303,3973.878787,53.57575757,4359.727272,4125.333333,5728.484848,3564.848484,4271.121212,3132.121212,4394.242424,2971.393939,5131.424242,2596.363636,4243.818181,3404.121212,4489.030303,3519.515151,4228.363636,8.242424242,4883.121212,2419.151515,4524.575757,3115.636363,42,42,?
53:42.8,4600.30303,2353.212121,4254.121212,914.9090908,3981.090909,3993.454545,3957.393939,53.57575757,4342.727272,4125.333333,5718.696969,3564.848484,4243.30303,3132.121212,4378.787878,2971.393939,5117.515151,2596.363636,4230.424242,3404.121212,4486.454545,3519.515151,4233,8.242424242,4891.363636,2419.151515,4531.787878,3115.636363,42,42,?
53:42.8,4607.515151,2353.212121,4243.30303,914.9090908,3968.212121,3993.454545,3964.090909,119.5151515,4354.060606,4125.333333,5733.121212,3564.848484,4254.636363,3132.121212,4386.515151,2971.393939,5125.242424,2596.363636,4234.545454,3404.121212,4489.545454,3519.515151,4230.939394,8.242424242,4897.030303,2419.151515,4538.484848,3115.636363,42,42,?
53:42.8,4596.696969,2353.212121,4249.484848,914.9090908,3967.696969,3993.454545,3965.636363,119.5151515,4351.484848,4137.696969,5732.60606,3564.848484,4267,3132.121212,4390.121212,2971.393939,5126.272727,2596.363636,4250,3404.121212,4483.878787,3519.515151,4232.484848,8.242424242,4886.727272,2419.151515,4530.757575,3115.636363,42,42,?
53:42.8,4581.757575,2353.212121,4252.060606,914.9090908,3980.575757,3993.454545,3959.454545,119.5151515,4344.787878,4137.696969,5721.787878,3556.60606,4256.696969,3132.121212,4382.393939,2971.393939,5121.636363,2596.363636,4259.272727,3404.121212,4475.121212,3519.515151,4229.393939,8.242424242,4876.939393,2419.151515,4510.666666,3115.636363,42,42,?
53:42.9,4587.939393,2353.212121,4241.242424,914.9090908,3992.939394,3993.454545,3964.60606,119.5151515,4362.30303,4137.696969,5738.272727,3556.60606,4269.060606,3144.484848,4397.333333,2971.393939,5136.575757,2596.363636,4253.60606,3404.121212,4493.151515,3519.515151,4229.393939,8.242424242,4893.939393,2419.151515,4516.333333,3115.636363,42,42,?
53:42.9,4597.212121,2353.212121,4251.030303,914.9090908,3974.909091,3993.454545,3950.696969,119.5151515,4352.515151,4137.696969,5742.90909,3556.60606,4264.939394,3144.484848,4389.60606,2934.30303,5123.181818,2596.363636,4228.878787,3404.121212,4499.333333,3519.515151,4234.030303,8.242424242,4903.727272,2419.151515,4525.090909,3115.636363,42,42,?
53:42.9,4594.636363,2353.212121,4243.818181,914.9090908,3977.484848,3993.454545,3956.878787,119.5151515,4350.969697,4137.696969,5750.121212,3556.60606,4264.424242,3144.484848,4390.121212,2934.30303,5122.151515,2612.848485,4241.757575,3404.121212,4496.757575,3519.515151,4228.363636,8.242424242,4892.90909,2419.151515,4523.545454,3115.636363,42,42,?
53:42.9,4596.696969,2353.212121,4248.969697,914.9090908,3986.242424,3993.454545,3963.060606,119.5151515,4351.484848,4137.696969,5749.090909,3556.60606,4270.60606,3144.484848,4396.30303,2934.30303,5128.848484,2612.848485,4254.121212,3560.727272,4497.272727,3519.515151,4229.90909,8.242424242,4894.969696,2419.151515,4525.090909,3115.636363,42,42,?
53:42.9,4593.090909,2353.212121,4253.090909,914.9090908,3979.545454,3993.454545,3954.30303,119.5151515,4347.878787,4137.696969,5745.484848,3556.60606,4272.666666,3144.484848,4394.242424,2934.30303,5122.151515,2612.848485,4247.424242,3560.727272,4485.939393,3383.515151,4228.878787,8.242424242,4891.363636,2419.151515,4522.515151,3115.636363,42,42,?
53:42.9,4592.060606,2353.212121,4242.787878,914.9090908,3972.848484,3993.454545,3956.363636,119.5151515,4356.121212,4137.696969,5754.242424,3556.60606,4274.727272,3144.484848,4401.454545,2934.30303,5121.636363,2612.848485,4245.878787,3560.727272,4489.030303,3383.515151,4225.787878,8.242424242,4891.363636,2419.151515,4523.545454,3115.636363,42,42,?
53:42.9,4595.666666,2353.212121,4255.666666,914.9090908,3959.454545,3993.454545,3946.060606,119.5151515,4338.60606,4137.696969,5746.515151,3556.60606,4255.666666,3144.484848,4387.545454,2934.30303,5103.090909,2612.848485,4225.787878,3560.727272,4494.181818,3383.515151,4230.939394,8.242424242,4898.575757,2303.757576,4519.424242,3115.636363,42,42,?
