Timestamp,F3 Value,F3 Quality,FC5 Value,FC5 Quality,F7 Value,F7 Quality,T7 Value,T7 Quality,P7 Value,P7 Quality,O1 Value,O1 Quality,O2 Value,O2 Quality,P8 Value,P8 Quality,T8 Value,T8 Quality,F8 Value,F8 Quality,AF4 Value,AF4 Quality,FC6 Value,FC6 Quality,F4 Value,F4 Quality,AF3 Value,AF3 Quality,X Value,Y Value,Z Value
2017-07-31 18:31:36.733370,4549.81818136,3552.48484813,4183.03030261,0,3947.60606021,0,3895.57575719,0,4355.60606017,0,5597.63636308,0,4210.84848443,0,4368.99999956,0,5025.81818132,0,4220.1212117,0,4406.09090865,0,4214.96969655,0,4829.03030255,0,4468.93939349,0,42.0,42.0,?
2017-07-31 18:31:36.735261,4431.84848441,3552.48484813,4183.54545413,0,3802.33333295,0,3761.12121175,0,4171.18181776,0,3800.78787841,0,4131.5151511,0,4234.03030261,0,4868.69696921,0,4046.51515111,0,4328.30302987,0,4191.27272685,8.2424242416,4740.93939347,0,4356.6363632,0,42.0,42.0,?
2017-07-31 18:31:36.738208,4447.30302986,3552.48484813,4185.09090867,0,3811.09090871,0,3763.69696932,0,4168.60606019,0,3794.09090871,0,4132.54545413,0,4242.78787836,0,4880.54545406,0,4059.39393899,3976.96969657,4331.90909048,0,4194.87878746,8.2424242416,4749.69696922,3016.72727243,4354.06060563,0,42.0,42.0,?
2017-07-31 18:31:36.741539,4447.30302986,3552.48484813,4185.09090867,0,3811.09090871,0,3763.69696932,0,4168.60606019,0,3794.09090871,0,4132.54545413,0,4242.78787836,0,4880.54545406,0,4059.39393899,3976.96969657,4331.90909048,0,4194.87878746,8.2424242416,4749.69696922,3016.72727243,4354.06060563,0,42.0,42.0,?
2017-07-31 18:31:36.744895,4447.30302986,3552.48484813,4190.75757534,0,3805.42424204,0,3764.21212084,0,4168.09090867,0,3789.45454508,0,4123.27272686,0,4243.30302988,0,4881.57575709,0,4053.21212081,3976.96969657,4328.30302987,3577.21212085,4192.30302988,8.2424242416,4750.72727225,3016.72727243,4350.96969653,0,42.0,42.0,?
2017-07-31 18:31:36.755035,4443.18181774,3552.48484813,4185.60606019,0,3805.42424204,0,3770.90909053,0,4173.24242383,0,3794.09090871,0,4120.69696928,0,4243.30302988,0,4878.99999951,0,4049.09090869,3976.96969657,4321.60606017,3577.21212085,4191.78787837,4.1212121208,4742.99999953,3016.72727243,4347.87878744,0,42.0,42.0,?
2017-07-31 18:31:36.759813,4428.75757531,3552.48484813,4187.15151473,0,3796.66666629,0,3770.90909053,0,4176.33333292,0,3800.27272689,0,4122.75757535,0,4238.66666624,0,4872.81818133,0,4038.27272687,3976.96969657,4303.57575715,3577.21212085,4193.33333291,4.1212121208,4730.63636316,3016.72727243,4338.09090866,0,42.0,42.0,?
2017-07-31 18:31:36.766746,4423.09090865,3552.48484813,4185.60606019,0,3788.42424205,0,3770.90909053,0,4186.1212117,0,3803.8787875,0,4121.72727232,0,4235.06060564,0,4869.21212073,0,4028.9999996,3976.96969657,4292.24242381,3577.21212085,4189.72727231,4.1212121208,4724.45454498,3016.72727243,4331.90909048,0,42.0,42.0,?
2017-07-31 18:31:36.769692,4431.33333289,3552.48484813,4176.84848443,0,3789.45454508,0,3771.42424205,0,4195.39393897,0,3808.51515113,0,4126.36363595,0,4239.69696927,0,4872.30302982,0,4027.45454505,3976.96969657,4296.36363593,3577.21212085,4187.15151473,4.1212121208,4724.45454498,3016.72727243,4333.45454502,0,42.0,42.0,?
2017-07-31 18:31:36.773921,4432.87878744,3552.48484813,4181.48484807,0,3785.33333295,0,3761.63636326,0,4186.63636322,0,3802.84848447,0,4131.5151511,0,4238.66666624,0,4866.12121163,0,4021.27272687,3976.96969657,4289.66666624,3577.21212085,4190.75757534,4.1212121208,4723.93939347,3016.72727243,4330.87878745,0,42.0,42.0,?
2017-07-31 18:31:36.778585,4431.84848441,3552.48484813,4180.45454504,0,3787.90909053,0,3763.18181781,0,4183.54545413,0,3795.12121174,0,4137.69696928,0,4236.09090867,0,4866.12121163,0,4019.72727233,3976.96969657,4278.33333291,3577.21212085,4192.30302988,4.1212121208,4725.48484801,3016.72727243,4325.21212078,0,42.0,42.0,?
2017-07-31 18:31:36.781742,4431.84848441,3552.48484813,4184.06060564,0,3789.45454508,0,3767.30302993,0,4186.63636322,0,3783.27272689,0,4134.09090868,0,4233.51515109,0,4869.72727224,0,4021.78787839,3976.96969657,4277.81818139,3577.21212085,4191.78787837,4.1212121208,4725.99999953,3016.72727243,4324.69696926,0,42.0,42.0,?
2017-07-31 18:31:36.786193,4431.84848441,3552.48484813,4185.60606019,0,3784.81818144,0,3763.18181781,0,4181.99999958,0,3769.36363599,0,4126.87878747,0,4236.60606018,0,4868.69696921,0,4024.36363596,3976.96969657,4282.45454503,3577.21212085,4190.24242382,4.1212121208,4727.03030256,3016.72727243,4325.72727229,0,42.0,42.0,?
2017-07-31 18:31:36.788191,4429.27272683,3552.48484813,4175.30302989,0,3783.78787841,0,3761.63636326,0,4177.87878746,0,3759.06060568,0,4127.39393898,0,4241.24242382,0,4876.93939345,0,4028.9999996,3976.96969657,4279.36363594,3577.21212085,4188.18181776,4.1212121208,4730.12121165,3016.72727243,4321.09090866,0,42.0,42.0,?
2017-07-31 18:31:36.791177,4422.06060562,3552.48484813,4178.90909049,0,3780.1818178,0,3760.60606023,0,4175.8181814,0,3749.2727269,0,4119.66666625,0,4233.51515109,0,4878.484848,0,4021.27272687,3976.96969657,4266.99999957,3577.21212085,4188.18181776,4.1212121208,4724.45454498,3016.72727243,4313.36363593,0,42.0,42.0,?
2017-07-31 18:31:36.794011,4421.5454541,3552.48484813,4178.90909049,0,3778.63636326,0,3758.54545417,0,4177.36363595,0,3739.99999963,0,4109.87878747,0,4224.75757534,0,4867.15151466,0,4013.03030263,3976.96969657,4259.27272685,3577.21212085,4187.15151473,4.1212121208,4713.12121165,3016.72727243,4309.75757533,0,42.0,42.0,?
2017-07-31 18:31:36.797014,4425.15151471,3552.48484813,4179.93939352,0,3778.12121174,0,3753.39393902,0,4175.8181814,0,3723.51515114,0,4102.66666626,0,4218.06060564,0,4849.12121164,0,4007.36363596,3976.96969657,4258.24242382,3577.21212085,4189.21212079,4.1212121208,4707.9696965,3016.72727243,4314.39393896,0,42.0,42.0,?
2017-07-31 18:31:36.799960,4424.12121168,3552.48484813,4181.48484807,0,3779.15151477,0,3752.8787875,0,4172.72727231,0,3713.21212084,0,4095.45454505,0,4211.87878746,0,4842.93939346,0,4001.6969693,3976.96969657,4257.21212079,3577.21212085,4192.30302988,4.1212121208,4707.9696965,3016.72727243,4322.12121169,0,42.0,42.0,?
2017-07-31 18:31:36.805380,4420.51515107,3552.48484813,4175.8181814,0,3782.75757538,0,3758.54545417,0,4174.27272686,0,3718.36363599,0,4094.93939353,0,4211.36363594,0,4852.21212073,0,4007.36363596,3976.96969657,4256.69696927,3577.21212085,4189.72727231,4.1212121208,4708.48484801,3016.72727243,4321.09090866,0,42.0,42.0,?
2017-07-31 18:31:36.812955,4419.99999956,3552.48484813,4186.63636322,0,3779.15151477,0,3755.96969659,0,4171.18181776,0,3715.2727269,0,4094.93939353,0,4207.24242382,0,4849.63636315,0,4007.87878748,3976.96969657,4253.09090867,3577.21212085,4189.21212079,4.1212121208,4711.06060559,3016.72727243,4314.90909048,0,42.0,42.0,?
2017-07-31 18:31:36.820835,4431.84848441,3552.48484813,4187.66666625,0,3789.96969659,0,3763.69696932,0,4177.36363595,0,3721.9696966,0,4101.12121171,0,4209.8181814,0,4850.66666618,0,4006.84848445,3976.96969657,4254.63636321,3577.21212085,4191.78787837,4.1212121208,4717.75757529,3016.72727243,4322.6363632,0,42.0,42.0,?
2017-07-31 18:31:36.828676,4440.60606016,3552.48484813,4184.06060564,0,3804.39393901,0,3772.96969659,0,4184.06060564,0,3732.78787841,0,4109.36363595,0,4220.1212117,0,4864.06060557,0,4011.9999996,3976.96969657,4258.24242382,3577.21212085,4191.78787837,4.1212121208,4722.39393892,3016.72727243,4338.09090866,0,42.0,42.0,?
2017-07-31 18:31:36.836368,4435.45454501,3552.48484813,4190.75757534,0,3796.15151477,0,3764.21212084,0,4176.84848443,0,3713.72727236,0,4111.42424201,0,4220.1212117,0,4867.15151466,0,4014.57575717,3976.96969657,4253.60606018,3577.21212085,4191.27272685,4.1212121208,4721.36363589,3016.72727243,4337.57575714,0,42.0,42.0,?
2017-07-31 18:31:36.845911,4431.84848441,3552.48484813,4179.42424201,0,3787.39393902,0,3759.5757572,0,4175.8181814,0,3705.99999963,0,4112.45454504,0,4217.03030261,0,4861.484848,0,4018.18181778,3976.96969657,4247.93939351,3577.21212085,4190.24242382,4.1212121208,4717.75757529,3016.72727243,4327.78787836,0,42.0,42.0,?
2017-07-31 18:31:36.852382,4427.72727228,3552.48484813,4182.5151511,0,3784.81818144,0,3755.45454508,0,4173.75757534,0,3702.39393902,0,4107.30302989,0,4210.84848443,0,4851.69696921,0,4014.06060566,3976.96969657,4242.27272685,3577.21212085,4192.30302988,4.1212121208,4712.09090862,3016.72727243,4326.24242381,0,42.0,42.0,?
2017-07-31 18:31:36.861427,4431.84848441,3552.48484813,4169.63636322,0,3794.09090871,0,3766.2727269,0,4186.1212117,0,3599.363636,0,4121.72727232,0,4227.84848443,0,4869.21212073,0,4026.93939354,3976.96969657,4253.60606018,3577.21212085,4189.72727231,4.1212121208,4720.33333286,3016.72727243,4334.48484805,0,42.0,42.0,?
2017-07-31 18:31:36.868825,4434.9393935,3552.48484813,4159.84848443,0,3801.30302992,0,3773.48484811,0,4191.27272685,0,3349.51515118,0,4136.15151474,0,4247.424242,0,4891.87878739,0,4042.39393899,3976.96969657,4222.18181776,3577.21212085,4197.96969655,4.1212121208,4703.33333286,3016.72727243,4324.18181775,0,42.0,42.0,?
2017-07-31 18:31:36.875258,4406.60606017,3552.48484813,4254.1212117,0,3762.15151478,0,3718.87878751,0,4128.93939353,0,3057.42424212,0,4084.63636323,0,4186.63636322,0,4831.09090861,0,3987.78787839,3976.96969657,4222.18181776,3577.21212085,4197.96969655,4.1212121208,4703.33333286,3016.72727243,4324.18181775,0,42.0,42.0,?
2017-07-31 18:31:36.883712,4453.99999955,3552.48484813,4108.33333292,0,3830.15151477,0,3797.69696932,0,4191.78787837,0,2999.72727243,0,4140.78787837,0,4249.99999958,0,4889.81818133,0,4058.87878747,3976.96969657,4277.30302988,3577.21212085,4180.96969655,4.1212121208,4738.8787874,3016.72727243,4359.21212078,0,42.0,42.0,?
2017-07-31 18:31:36.891008,4452.45454501,3552.48484813,4100.09090868,0,3839.42424204,0,3816.24242386,0,4206.72727231,0,2934.81818152,0,4168.09090867,0,4291.21212078,0,4929.48484799,0,4086.69696929,3976.96969657,4305.63636321,3577.21212085,4186.1212117,4.1212121208,4751.75757528,3016.72727243,4343.75757532,0,42.0,42.0,?
2017-07-31 18:31:36.901226,4303.57575715,3552.48484813,4527.66666621,0,3626.6666663,0,3566.39393904,0,3971.81818142,0,2650.45454519,0,3955.84848445,0,4042.9090905,0,4680.15151468,0,3839.93939356,3976.96969657,4104.72727232,3577.21212085,4233.51515109,4.1212121208,4626.0606056,3016.72727243,4258.24242382,0,42.0,42.0,?
2017-07-31 18:31:36.906545,4389.60606017,3552.48484813,4244.84848442,0,3735.87878751,0,3699.30302993,0,4090.30302989,0,2753.99999972,0,4051.15151475,0,4140.78787837,0,4785.24242376,0,3955.33333294,3976.96969657,4188.69696928,3577.21212085,4197.45454503,4.1212121208,4677.57575711,3016.72727243,4332.42424199,0,42.0,42.0,?
2017-07-31 18:31:36.914052,4500.87878743,3552.48484813,3914.12121173,0,3903.30302991,0,3905.87878749,0,4283.48484806,0,2936.36363607,0,4234.54545412,0,4366.42424199,0,5010.36363586,0,4162.42424201,3976.96969657,4359.21212078,3577.21212085,4161.90909049,4.1212121208,4772.8787874,3016.72727243,4381.87878744,0,42.0,42.0,?
2017-07-31 18:31:36.923907,4402.99999956,3552.48484813,4217.54545412,0,3767.81818144,0,3745.15151478,0,4139.75757534,0,2797.78787851,0,4100.6060602,0,4215.48484806,0,4858.39393891,0,4006.33333293,3976.96969657,4235.06060564,3577.21212085,4194.87878746,4.1212121208,4701.78787832,3016.72727243,4314.39393896,0,42.0,42.0,?
2017-07-31 18:31:36.930550,4418.45454501,3552.48484813,4169.1212117,0,3785.33333295,0,3762.66666629,0,4156.24242383,0,2826.63636335,0,4105.24242383,0,4213.424242,0,4865.60606012,0,4019.72727233,3976.96969657,4244.84848442,3577.21212085,4189.72727231,4.1212121208,4719.30302983,3016.72727243,4338.09090866,0,42.0,42.0,?
2017-07-31 18:31:36.938017,4442.15151471,3552.48484813,4099.57575717,0,3827.06060568,0,3811.60606022,0,4198.99999958,0,2880.72727244,0,4149.03030262,0,4270.60606018,0,4916.60606011,0,4067.63636323,3976.96969657,4287.60606018,3577.21212085,4184.06060564,4.1212121208,4744.54545407,3016.72727243,4350.45454502,0,42.0,42.0,?
2017-07-31 18:31:36.944978,4416.90909047,3552.48484813,4176.84848443,0,3796.15151477,0,3767.81818144,0,4157.78787837,0,2854.45454517,0,4118.63636322,0,4232.48484806,0,4871.7878783,0,4028.48484808,3976.96969657,4247.424242,3577.21212085,4190.75757534,4.1212121208,4719.30302983,3016.72727243,4336.54545411,0,42.0,42.0,?
2017-07-31 18:31:36.954440,4429.27272683,3552.48484813,4137.69696928,0,3813.66666629,0,3783.78787841,0,4174.78787837,0,2878.15151486,0,4137.69696928,0,4249.48484806,0,4892.3939389,0,4054.75757535,3976.96969657,4262.87878745,3577.21212085,4186.63636322,4.1212121208,4729.09090862,3016.72727243,4344.78787835,0,42.0,42.0,?
2017-07-31 18:31:36.961701,4421.03030259,3552.48484813,4158.8181814,0,3801.30302992,0,3771.42424205,0,4164.48484807,0,2869.39393911,0,4124.30302989,0,4235.57575715,0,4878.484848,0,4043.42424202,3976.96969657,4260.30302988,3577.21212085,4189.21212079,4.1212121208,4725.48484801,3016.72727243,4336.54545411,0,42.0,42.0,?
2017-07-31 18:31:36.968999,4424.63636319,3552.48484813,4156.24242383,0,3803.36363598,0,3771.93939356,0,4166.03030261,0,2878.15151486,0,4127.39393898,0,4237.1212117,0,4880.03030254,0,4038.27272687,3976.96969657,4261.33333291,3577.21212085,4187.15151473,4.1212121208,4725.48484801,3016.72727243,4339.12121169,0,42.0,42.0,?
2017-07-31 18:31:36.977989,4425.15151471,3552.48484813,4156.24242383,0,3801.30302992,0,3770.39393902,0,4161.39393898,0,2885.87878759,0,4125.33333292,0,4237.63636321,0,4885.18181769,0,4034.66666626,3976.96969657,4254.1212117,3577.21212085,4183.03030261,4.1212121208,4720.84848438,3016.72727243,4336.0303026,0,42.0,42.0,?
2017-07-31 18:31:36.985832,4423.60606016,3552.48484813,4159.33333292,0,3800.27272689,0,3768.84848447,0,4156.75757534,0,2892.06060577,0,4111.93939353,0,4225.78787837,0,4882.0909086,0,4033.12121172,3976.96969657,4248.96969654,3577.21212085,4185.09090867,4.1212121208,4720.84848438,3016.72727243,4331.39393896,0,42.0,42.0,?
2017-07-31 18:31:36.991943,4429.27272683,3552.48484813,4156.24242383,0,3810.06060568,0,3775.03030265,0,4161.39393898,0,2908.54545425,0,4113.48484807,0,4226.8181814,0,4883.12121163,0,4039.3030299,3976.96969657,4260.81818139,3577.21212085,4191.27272685,4.1212121208,4729.60606013,3016.72727243,4338.60606017,0,42.0,42.0,?
2017-07-31 18:31:37.002946,4430.81818138,3552.48484813,4164.99999958,0,3810.57575719,0,3773.48484811,0,4156.75757534,0,2921.42424213,0,4115.03030262,0,4230.424242,0,4876.42424194,0,4041.87878747,3976.96969657,4263.90909048,3577.21212085,4191.78787837,4.1212121208,4727.54545407,3016.72727243,4343.75757532,0,42.0,42.0,?
2017-07-31 18:31:37.008107,4433.39393895,3552.48484813,4161.39393898,0,3815.72727235,0,3779.15151477,0,4161.39393898,0,2937.90909062,0,4118.12121171,0,4238.15151473,0,4876.42424194,0,4049.6060602,3976.96969657,4265.96969654,3577.21212085,4189.21212079,4.1212121208,4725.99999953,3016.72727243,4343.75757532,0,42.0,42.0,?
2017-07-31 18:31:37.016072,4429.78787834,3552.48484813,4164.48484807,0,3817.27272689,0,3780.1818178,0,4162.93939352,0,2949.24242395,0,4115.54545413,0,4233.51515109,0,4882.0909086,0,4040.84848444,3976.96969657,4259.27272685,3577.21212085,4190.75757534,4.1212121208,4726.51515104,3016.72727243,4343.75757532,0,42.0,42.0,?
2017-07-31 18:31:37.026135,4428.2424238,3552.48484813,4166.54545413,0,3817.78787841,0,3775.54545417,0,4161.39393898,0,2961.09090879,0,4115.03030262,0,4227.84848443,0,4891.36363587,0,4035.69696929,3976.96969657,4256.69696927,3577.21212085,4189.72727231,4.1212121208,4725.48484801,3016.72727243,4348.90909047,0,42.0,42.0,?
2017-07-31 18:31:37.031449,4438.03030259,3552.48484813,4164.99999958,0,3822.93939356,0,3778.63636326,0,4166.54545413,0,2977.06060576,0,4118.12121171,0,4234.03030261,0,4888.7878783,0,4051.66666626,3976.96969657,4273.18181775,3577.21212085,4188.69696928,4.1212121208,4731.15151468,3016.72727243,4358.18181775,0,42.0,42.0,?
2017-07-31 18:31:37.038944,4443.18181774,3552.48484813,4164.48484807,0,3822.42424204,0,3781.72727235,0,4167.57575716,0,2984.78787849,0,4112.45454504,0,4232.99999958,0,4873.84848436,0,4057.33333293,3976.96969657,4279.36363594,3577.21212085,4190.75757534,4.1212121208,4735.2727268,3016.72727243,4358.69696926,0,42.0,42.0,?
2017-07-31 18:31:37.048506,4439.06060562,3552.48484813,4159.84848443,0,3814.1818178,0,3776.5757572,0,4164.48484807,0,2987.87878758,0,4103.69696929,0,4223.21212079,0,4871.27272679,0,4047.03030263,3976.96969657,4270.60606018,3577.21212085,4190.75757534,4.1212121208,4732.18181771,3016.72727243,4352.51515108,0,42.0,42.0,?
2017-07-31 18:31:37.055017,4435.45454501,3552.48484813,4163.96969655,0,3814.1818178,0,3771.42424205,0,4164.99999958,0,2996.12121182,0,4103.69696929,0,4220.63636321,0,4881.57575709,0,4044.96969657,3976.96969657,4266.99999957,3577.21212085,4189.72727231,4.1212121208,4731.15151468,3016.72727243,4355.09090866,0,42.0,42.0,?
2017-07-31 18:31:37.062975,4439.06060562,3552.48484813,4167.57575716,0,3820.8787875,0,3775.03030265,0,4170.15151473,0,3008.48484818,0,4113.48484807,0,4227.84848443,0,4884.66666618,0,4054.24242384,3976.96969657,4272.15151472,3577.21212085,4191.27272685,4.1212121208,4736.81818134,3016.72727243,4360.24242381,0,42.0,42.0,?
2017-07-31 18:31:37.072014,4443.18181774,3552.48484813,4162.93939352,0,3818.81818144,0,3779.15151477,0,4171.69696928,0,3018.78787849,0,4123.27272686,0,4237.1212117,0,4881.06060557,0,4056.81818141,3976.96969657,4275.24242381,3577.21212085,4191.78787837,4.1212121208,4741.45454498,3016.72727243,4361.27272684,0,42.0,42.0,?
2017-07-31 18:31:37.079033,4442.15151471,3552.48484813,4162.93939352,0,3814.1818178,0,3779.15151477,0,4172.72727231,0,3030.12121182,0,4128.42424201,0,4241.75757533,0,4885.18181769,0,4055.27272687,3976.96969657,4273.69696927,3577.21212085,4190.24242382,4.1212121208,4739.90909044,3016.72727243,4362.30302987,0,42.0,42.0,?
2017-07-31 18:31:37.086846,4443.69696925,3531.87878753,4163.45454504,0,3821.90909053,0,3782.24242386,0,4180.45454504,0,3046.09090879,0,4130.99999959,0,4245.36363594,0,4893.42424193,0,4060.42424202,3976.96969657,4277.30302988,3577.21212085,4189.72727231,4.1212121208,4741.9696965,3016.72727243,4371.06060562,0,42.0,42.0,?
2017-07-31 18:31:37.094473,4446.78787834,3531.87878753,4163.96969655,1100.36363625,3825.51515113,0,3784.81818144,0,4181.48484807,0,3055.36363606,0,4127.39393898,0,4243.81818139,0,4898.06060557,0,4060.93939353,3976.96969657,4281.93939351,3577.21212085,4189.21212079,4.1212121208,4744.54545407,3016.72727243,4378.27272683,0,42.0,42.0,?
2017-07-31 18:31:37.104204,4440.60606016,3531.87878753,4162.93939352,1100.36363625,3818.30302992,0,3788.93939356,0,4178.39393898,0,3064.63636333,0,4122.24242383,0,4241.24242382,0,4897.03030254,0,4054.75757535,3976.96969657,4276.27272685,3577.21212085,4188.18181776,4.1212121208,4734.75757528,3016.72727243,4371.57575714,2921.93939365,42.0,42.0,?
2017-07-31 18:31:37.110697,4430.30302986,3531.87878753,4160.87878746,1100.36363625,3818.30302992,3902.7878784,3793.5757572,0,4184.06060564,0,3080.09090878,0,4120.18181777,0,4241.24242382,0,4889.81818133,0,4057.84848444,3976.96969657,4271.12121169,3577.21212085,4190.75757534,4.1212121208,4728.06060559,3016.72727243,4365.90909047,2921.93939365,42.0,42.0,?
2017-07-31 18:31:37.119223,4434.42424198,3531.87878753,4165.5151511,1100.36363625,3824.4848481,3902.7878784,3794.09090871,391.515151476,4190.24242382,0,3090.39393908,0,4121.72727232,0,4242.78787836,0,4891.36363587,0,4068.66666626,3976.96969657,4278.84848442,3577.21212085,4191.78787837,4.1212121208,4736.30302983,3016.72727243,4374.15151471,2921.93939365,42.0,42.0,?
2017-07-31 18:31:37.125995,4447.81818137,3531.87878753,4168.60606019,1100.36363625,3832.72727234,3902.7878784,3797.1818178,391.515151476,4192.8181814,28.8484848456,3102.75757545,0,4133.57575716,0,4254.1212117,0,4910.42424193,0,4076.39393899,3976.96969657,4293.78787836,3577.21212085,4192.8181814,4.1212121208,4749.18181771,3016.72727243,4385.48484805,2921.93939365,42.0,42.0,?
2017-07-31 18:31:37.134882,4451.42424198,3531.87878753,4167.57575716,1100.36363625,3836.33333295,3902.7878784,3802.33333295,391.515151476,4199.5151511,28.8484848456,3123.36363605,556.363636308,4145.42424201,0,4262.87878745,0,4918.66666617,0,4075.87878747,3976.96969657,4296.36363593,3577.21212085,4194.36363594,4.1212121208,4751.24242377,3016.72727243,4390.6363632,2921.93939365,42.0,42.0,?
2017-07-31 18:31:37.143430,4444.72727228,3531.87878753,4166.54545413,1100.36363625,3832.21212083,3902.7878784,3803.36363598,391.515151476,4208.78787837,28.8484848456,3140.87878756,556.363636308,4143.36363595,3317.57575724,4262.36363594,0,4907.33333284,0,4068.66666626,3976.96969657,4286.06060563,3577.21212085,4191.27272685,4.1212121208,4741.9696965,3016.72727243,4385.48484805,2921.93939365,42.0,42.0,?
2017-07-31 18:31:37.149497,4440.09090865,3531.87878753,4165.5151511,1100.36363625,3825.51515113,3902.7878784,3800.78787841,391.515151476,4213.93939352,28.8484848456,3154.27272696,556.363636308,4138.72727231,3317.57575724,4263.39393897,2946.66666637,4903.21212072,0,4065.57575717,3976.96969657,4285.0303026,3577.21212085,4190.24242382,4.1212121208,4738.36363589,3016.72727243,4378.78787835,2921.93939365,42.0,42.0,?
2017-07-31 18:31:37.159369,4439.57575713,3531.87878753,4164.99999958,1100.36363625,3823.45454507,3902.7878784,3799.75757538,391.515151476,4211.36363594,28.8484848456,3159.93939362,556.363636308,4136.66666625,3317.57575724,4264.424242,2946.66666637,4904.24242375,2909.57575728,4069.18181777,3976.96969657,4288.63636321,3577.21212085,4192.8181814,4.1212121208,4742.48484801,3016.72727243,4379.81818138,2921.93939365,42.0,42.0,?
2017-07-31 18:31:37.164813,4442.66666622,3531.87878753,4166.54545413,1100.36363625,3830.15151477,3902.7878784,3802.33333295,391.515151476,4203.63636322,28.8484848456,3154.27272696,556.363636308,4128.42424201,3317.57575724,4258.75757533,2946.66666637,4901.66666618,2909.57575728,4073.3030299,4001.6969693,4286.57575715,3577.21212085,4191.78787837,4.1212121208,4745.5757571,3016.72727243,4385.99999956,2921.93939365,42.0,42.0,?
2017-07-31 18:31:37.173777,4449.36363592,3531.87878753,4168.09090867,1100.36363625,3838.90909053,3902.7878784,3804.39393901,391.515151476,4198.99999958,28.8484848456,3154.78787847,556.363636308,4121.72727232,3317.57575724,4253.09090867,2946.66666637,4903.21212072,2909.57575728,4078.45454505,4001.6969693,4294.30302987,3610.18181782,4190.24242382,4.1212121208,4750.21212074,3016.72727243,4393.72727229,2921.93939365,42.0,42.0,?
2017-07-31 18:31:37.180462,4452.96969652,3531.87878753,4167.57575716,1100.36363625,3839.93939356,3902.7878784,3805.93939356,391.515151476,4202.09090867,28.8484848456,3171.27272696,556.363636308,4127.9090905,3317.57575724,4256.69696927,2946.66666637,4906.30302981,2909.57575728,4083.09090868,4001.6969693,4304.60606018,3610.18181782,4190.75757534,0.0,4755.36363589,3016.72727243,4395.27272683,2921.93939365,42.0,42.0,?
2017-07-31 18:31:37.188034,4451.93939349,3531.87878753,4166.54545413,1100.36363625,3837.87878749,3902.7878784,3810.06060568,391.515151476,4205.69696928,28.8484848456,3183.63636332,556.363636308,4135.63636322,3317.57575724,4263.90909048,2946.66666637,4909.3939389,2909.57575728,4083.6060602,4001.6969693,4308.7272723,3610.18181782,4193.84848443,0.0,4759.48484801,3033.21212091,4393.72727229,2921.93939365,42.0,42.0,?
2017-07-31 18:31:37.198068,4453.48484804,3531.87878753,4168.60606019,1100.36363625,3841.99999962,3902.7878784,3811.60606022,391.515151476,4206.72727231,28.8484848456,3190.33333301,556.363636308,4135.12121171,3317.57575724,4266.99999957,2946.66666637,4913.51515102,2909.57575728,4083.09090868,3993.45454506,4311.30302987,3610.18181782,4192.8181814,0.0,4763.60606013,3033.21212091,4397.84848441,2921.93939365,42.0,42.0,?
2017-07-31 18:31:37.204330,4452.45454501,3531.87878753,4169.1212117,1100.36363625,3839.93939356,3902.7878784,3811.60606022,391.515151476,4208.27272685,28.8484848456,3205.27272695,556.363636308,4131.5151511,3317.57575724,4265.45454503,2946.66666637,4914.03030254,2909.57575728,4082.57575717,3993.45454506,4306.66666624,3618.42424206,4188.69696928,0.0,4761.54545407,3033.21212091,4395.27272683,2921.93939365,42.0,42.0,?
2017-07-31 18:31:37.213112,4445.75757531,3531.87878753,4166.03030261,1100.36363625,3828.09090871,3902.7878784,3810.57575719,391.515151476,4208.27272685,28.8484848456,3217.1212118,556.363636308,4129.96969656,3317.57575724,4262.87878745,2946.66666637,4914.54545405,2909.57575728,4076.39393899,3993.45454506,4295.84848442,3618.42424206,4190.24242382,0.0,4753.81818134,3033.21212091,4385.48484805,2921.93939365,42.0,42.0,?
2017-07-31 18:31:37.219701,4443.18181774,3531.87878753,4164.48484807,1100.36363625,3827.06060568,3902.7878784,3810.06060568,391.515151476,4207.24242382,28.8484848456,3221.24242392,556.363636308,4135.12121171,3317.57575724,4264.93939351,2946.66666637,4924.33333284,2909.57575728,4073.81818141,3993.45454506,4291.21212078,3618.42424206,4192.8181814,0.0,4751.75757528,3033.21212091,4384.45454502,2921.93939365,42.0,42.0,?
2017-07-31 18:31:37.228479,4447.30302986,3531.87878753,4165.5151511,1100.36363625,3833.24242386,3902.7878784,3812.12121174,391.515151476,4209.30302988,28.8484848456,3231.03030271,556.363636308,4146.96969656,3317.57575724,4270.60606018,2946.66666637,4931.54545405,2909.57575728,4077.93939353,3993.45454506,4296.36363593,3618.42424206,4192.8181814,0.0,4759.48484801,3033.21212091,4393.21212077,2921.93939365,42.0,42.0,?
2017-07-31 18:31:37.235903,4449.36363592,3531.87878753,4167.06060564,1100.36363625,3832.21212083,3902.7878784,3813.66666629,391.515151476,4209.30302988,28.8484848456,3243.39393907,556.363636308,4150.06060565,3317.57575724,4273.18181775,2946.66666637,4922.7878783,2909.57575728,4075.36363596,3993.45454506,4301.51515109,3618.42424206,4192.30302988,0.0,4765.15151467,3033.21212091,4396.30302986,2921.93939365,42.0,42.0,?
2017-07-31 18:31:37.246599,4452.96969652,3531.87878753,4168.09090867,1100.36363625,3832.72727234,3902.7878784,3819.84848447,391.515151476,4211.87878746,28.8484848456,3253.18181786,556.363636308,4149.54545413,3317.57575724,4277.30302988,2946.66666637,4921.24242375,2909.57575728,4077.42424202,3993.45454506,4306.15151472,3618.42424206,4191.78787837,0.0,4769.78787831,3033.21212091,4395.78787835,2921.93939365,42.0,42.0,?
2017-07-31 18:31:37.250985,4463.27272683,3531.87878753,4171.18181776,1100.36363625,3839.42424204,3902.7878784,3827.06060568,391.515151476,4217.03030261,28.8484848456,3261.4242421,556.363636308,4147.99999959,3317.57575724,4281.93939351,2946.66666637,4937.21212072,2909.57575728,4088.75757535,3993.45454506,4310.27272684,3618.42424206,4191.78787837,0.0,4777.51515104,3033.21212091,4400.42424198,2921.93939365,42.0,42.0,?
2017-07-31 18:31:37.258294,4464.30302986,3531.87878753,4171.18181776,1100.36363625,3838.90909053,3902.7878784,3823.45454507,391.515151476,4214.45454503,28.8484848456,3259.36363604,556.363636308,4136.66666625,3317.57575724,4277.30302988,2946.66666637,4940.30302981,2909.57575728,4087.72727232,3993.45454506,4305.63636321,3618.42424206,4189.21212079,0.0,4774.42424195,3033.21212091,4400.9393935,2921.93939365,42.0,42.0,?
2017-07-31 18:31:37.266717,4453.99999955,3531.87878753,4168.09090867,1100.36363625,3834.7878784,3902.7878784,3813.66666629,391.515151476,4210.84848443,28.8484848456,3253.18181786,556.363636308,4125.84848444,3317.57575724,4269.06060563,2946.66666637,4921.24242375,2909.57575728,4077.42424202,3993.45454506,4298.93939351,3618.42424206,4187.66666625,0.0,4764.63636316,3033.21212091,4394.2424238,2921.93939365,42.0,42.0,?
2017-07-31 18:31:37.275197,4458.63636319,3531.87878753,4168.60606019,1100.36363625,3831.1818178,3902.7878784,3813.66666629,391.515151476,4212.90909049,28.8484848456,3255.75757543,556.363636308,4123.78787838,3317.57575724,4262.87878745,2946.66666637,4907.33333284,2909.57575728,4071.24242384,3993.45454506,4295.84848442,3618.42424206,4187.66666625,0.0,4763.60606013,3033.21212091,4393.21212077,2921.93939365,42.0,42.0,?
2017-07-31 18:31:37.283038,4468.93939349,3531.87878753,4169.63636322,1100.36363625,3832.72727234,3902.7878784,3821.39393901,391.515151476,4215.99999958,28.8484848456,3269.66666634,556.363636308,4132.03030262,3317.57575724,4260.81818139,2946.66666637,4912.99999951,2909.57575728,4070.72727232,3993.45454506,4290.18181775,3618.42424206,4187.66666625,0.0,4761.54545407,3033.21212091,4398.36363592,2921.93939365,42.0,42.0,?
2017-07-31 18:31:37.290655,4469.45454501,3531.87878753,4168.09090867,1100.36363625,3835.30302992,3902.7878784,3819.33333295,391.515151476,4215.99999958,28.8484848456,3284.60606028,556.363636308,4145.93939352,3317.57575724,4266.99999957,2946.66666637,4920.72727224,2909.57575728,4075.36363596,3993.45454506,4286.57575715,3618.42424206,4189.72727231,0.0,4759.48484801,3033.21212091,4401.96969653,2921.93939365,42.0,42.0,?
2017-07-31 18:31:37.297034,4474.09090864,3531.87878753,4169.1212117,1100.36363625,3836.84848446,3902.7878784,3813.15151477,391.515151476,4220.63636321,28.8484848456,3296.45454512,556.363636308,4159.33333292,3317.57575724,4279.87878745,2946.66666637,4926.3939389,2909.57575728,4082.06060565,3993.45454506,4293.78787836,3618.42424206,4190.24242382,0.0,4767.21212074,3033.21212091,4406.09090865,2921.93939365,42.0,42.0,?
2017-07-31 18:31:37.305037,4470.99999955,3531.87878753,4172.72727231,1100.36363625,3847.15151477,3902.7878784,3818.30302992,391.515151476,4221.66666624,28.8484848456,3305.7272724,556.363636308,4163.96969655,3317.57575724,4285.54545412,2946.66666637,4936.18181769,2909.57575728,4092.36363595,3993.45454506,4307.18181775,3618.42424206,4189.72727231,0.0,4774.42424195,3033.21212091,4407.6363632,2921.93939365,42.0,42.0,?
2017-07-31 18:31:37.314646,4454.51515107,3531.87878753,4172.21212079,1100.36363625,3856.93939355,3902.7878784,3820.8787875,391.515151476,4210.84848443,28.8484848456,3307.78787846,556.363636308,4154.18181777,3317.57575724,4279.87878745,2946.66666637,4938.75757526,2909.57575728,4104.2121208,3993.45454506,4314.90909048,3618.42424206,4190.75757534,0.0,4776.48484801,3033.21212091,4402.99999956,2921.93939365,42.0,42.0,?
2017-07-31 18:31:37.321121,4455.5454541,3531.87878753,4167.57575716,1100.36363625,3851.27272689,3902.7878784,3811.09090871,391.515151476,4203.63636322,28.8484848456,3310.87878755,556.363636308,4136.66666625,3317.57575724,4271.12121169,2946.66666637,4932.57575708,2909.57575728,4109.36363595,3993.45454506,4319.0303026,3618.42424206,4187.66666625,0.0,4775.45454498,3033.21212091,4396.81818138,2921.93939365,42.0,42.0,?
2017-07-31 18:31:37.328975,4473.57575713,3531.87878753,4167.06060564,1100.36363625,3835.30302992,3902.7878784,3805.42424204,391.515151476,4206.72727231,28.8484848456,3327.36363603,556.363636308,4117.60606019,3317.57575724,4263.39393897,2946.66666637,4925.87878739,2909.57575728,4106.27272686,3993.45454506,4320.06060563,3618.42424206,4187.66666625,0.0,4773.39393892,3033.21212091,4386.51515108,2921.93939365,42.0,42.0,?
2017-07-31 18:31:37.336709,4473.06060561,3531.87878753,4168.09090867,1100.36363625,3832.72727234,3902.7878784,3807.4848481,391.515151476,4211.87878746,28.8484848456,3351.57575724,556.363636308,4110.9090905,3317.57575724,4262.36363594,2946.66666637,4920.72727224,2909.57575728,4109.87878747,3993.45454506,4317.99999957,3618.42424206,4188.18181776,0.0,4770.81818134,3033.21212091,4373.12121168,2921.93939365,42.0,42.0,?
2017-07-31 18:31:37.344986,4465.8484844,3531.87878753,4165.5151511,1100.36363625,3839.93939356,3902.7878784,3811.60606022,391.515151476,4214.96969655,28.8484848456,3364.45454512,556.363636308,4126.87878747,3317.57575724,4269.57575715,2946.66666637,4919.6969692,2909.57575728,4120.69696928,3993.45454506,4320.57575714,3618.42424206,4186.1212117,0.0,4765.66666619,3033.21212091,4366.9393935,2921.93939365,42.0,42.0,?
2017-07-31 18:31:37.352009,4474.60606016,3531.87878753,4166.54545413,1100.36363625,3846.12121174,3902.7878784,3817.27272689,391.515151476,4219.09090867,28.8484848456,3371.66666633,556.363636308,4154.18181777,3317.57575724,4281.424242,2946.66666637,4924.84848436,2909.57575728,4128.42424201,3993.45454506,4332.42424199,3618.42424206,4190.75757534,0.0,4768.75757528,3033.21212091,4373.6363632,2921.93939365,42.0,42.0,?
2017-07-31 18:31:37.361425,4487.99999955,3531.87878753,4170.15151473,1100.36363625,3854.36363598,3902.7878784,3821.39393901,391.515151476,4223.21212079,28.8484848456,3389.18181784,556.363636308,4178.39393898,3317.57575724,4295.3333329,2946.66666637,4938.75757526,2909.57575728,4138.2121208,3993.45454506,4342.72727229,3618.42424206,4194.87878746,0.0,4780.60606013,3033.21212091,4378.78787835,2921.93939365,42.0,42.0,?
2017-07-31 18:31:37.369719,4493.1515147,3531.87878753,4172.72727231,1100.36363625,3861.57575719,3902.7878784,3824.99999962,391.515151476,4223.21212079,28.8484848456,3405.66666633,556.363636308,4188.69696928,3317.57575724,4303.57575715,2946.66666637,4953.6969692,2909.57575728,4152.63636322,3993.45454506,4351.48484805,3618.42424206,4192.30302988,0.0,4791.42424195,3033.21212091,4379.81818138,2921.93939365,42.0,42.0,?
2017-07-31 18:31:37.376731,4484.90909046,3531.87878753,4173.24242383,1100.36363625,3867.24242386,3902.7878784,3831.1818178,391.515151476,4223.7272723,28.8484848456,3415.96969663,556.363636308,4185.09090867,3317.57575724,4304.60606018,2946.66666637,4954.21212072,2909.57575728,4158.8181814,3993.45454506,4355.60606017,3618.42424206,4190.75757534,0.0,4793.48484801,3033.21212091,4382.39393896,2921.93939365,42.0,42.0,?
2017-07-31 18:31:37.383961,4480.27272682,3531.87878753,4170.66666625,1100.36363625,3866.72727234,3902.7878784,3832.21212083,391.515151476,4228.36363594,28.8484848456,3428.33333299,556.363636308,4172.21212079,3317.57575724,4297.39393896,2946.66666637,4948.54545405,2909.57575728,4153.15151474,3993.45454506,4347.87878744,3618.42424206,4189.21212079,0.0,4783.69696922,3033.21212091,4377.75757532,2921.93939365,42.0,42.0,?
2017-07-31 18:31:37.394157,4484.39393895,3531.87878753,4170.66666625,1100.36363625,3862.0909087,3902.7878784,3826.03030265,391.515151476,4229.90909049,28.8484848456,3437.60606026,556.363636308,4153.66666625,3317.57575724,4281.93939351,2946.66666637,4944.93939344,2909.57575728,4149.54545413,3993.45454506,4341.69696926,3618.42424206,4189.72727231,0.0,4776.48484801,3033.21212091,4374.15151471,2921.93939365,42.0,42.0,?
2017-07-31 18:31:37.399006,4480.78787834,3531.87878753,4167.06060564,1100.36363625,3856.93939355,3902.7878784,3822.42424204,391.515151476,4228.36363594,28.8484848456,3442.75757541,556.363636308,4144.90909049,3317.57575724,4277.30302988,2946.66666637,4934.63636314,2909.57575728,4147.48484807,3993.45454506,4338.09090866,3618.42424206,4190.75757534,0.0,4775.45454498,3033.21212091,4374.15151471,2921.93939365,42.0,42.0,?
2017-07-31 18:31:37.407841,4476.66666622,3531.87878753,4164.99999958,1100.36363625,3855.39393901,3902.7878784,3823.96969659,391.515151476,4229.39393897,28.8484848456,3454.60606026,556.363636308,4150.57575716,3317.57575724,4290.69696927,2946.66666637,4929.99999951,2909.57575728,4142.84848443,3993.45454506,4336.54545411,3618.42424206,4189.21212079,0.0,4773.39393892,3033.21212091,4370.03030259,2921.93939365,42.0,42.0,?
2017-07-31 18:31:37.415143,4482.8484844,3531.87878753,4170.15151473,1100.36363625,3857.96969658,3902.7878784,3824.4848481,391.515151476,4235.57575715,28.8484848456,3465.93939359,556.363636308,4158.30302989,3317.57575724,4296.87878745,2946.66666637,4948.54545405,2909.57575728,4142.33333292,3993.45454506,4339.6363632,3618.42424206,4188.18181776,0.0,4771.84848437,3033.21212091,4368.99999956,2921.93939365,42.0,42.0,?
2017-07-31 18:31:37.422884,4482.33333289,3531.87878753,4170.15151473,1100.36363625,3858.4848481,3902.7878784,3826.03030265,391.515151476,4239.18181776,28.8484848456,3467.99999965,556.363636308,4160.87878746,3317.57575724,4292.24242381,2946.66666637,4953.6969692,2909.57575728,4140.78787837,3993.45454506,4333.96969654,3618.42424206,4187.66666625,0.0,4765.66666619,3033.21212091,4370.54545411,2921.93939365,42.0,42.0,?
2017-07-31 18:31:37.430929,4474.60606016,3531.87878753,4169.63636322,1100.36363625,3860.03030264,3902.7878784,3830.15151477,391.515151476,4238.15151473,28.8484848456,3471.60606026,556.363636308,4164.48484807,3317.57575724,4290.69696927,2946.66666637,4933.0909086,2909.57575728,4138.72727231,3993.45454506,4325.72727229,3618.42424206,4188.18181776,0.0,4762.5757571,3033.21212091,4371.57575714,2921.93939365,42.0,42.0,?
2017-07-31 18:31:37.439022,4476.1515147,3531.87878753,4170.66666625,1100.36363625,3867.24242386,3902.7878784,3832.21212083,391.515151476,4240.21212079,28.8484848456,3480.36363602,556.363636308,4173.24242383,3317.57575724,4294.30302987,2946.66666637,4926.90909042,2909.57575728,4144.39393898,3993.45454506,4331.39393896,3618.42424206,4188.18181776,0.0,4768.24242377,3033.21212091,4372.09090865,2921.93939365,42.0,42.0,?
2017-07-31 18:31:37.446785,4485.93939349,3531.87878753,4171.69696928,1100.36363625,3874.45454507,3902.7878784,3829.63636325,391.515151476,4246.39393897,28.8484848456,3491.18181783,556.363636308,4176.84848443,3317.57575724,4296.87878745,2946.66666637,4940.30302981,2909.57575728,4151.60606019,3993.45454506,4342.72727229,3618.42424206,4189.21212079,0.0,4776.99999952,3033.21212091,4376.72727229,2921.93939365,42.0,42.0,?
2017-07-31 18:31:37.455075,4492.12121167,3531.87878753,4172.72727231,1100.36363625,3871.36363598,3902.7878784,3829.12121174,391.515151476,4244.84848442,28.8484848456,3504.06060571,556.363636308,4171.18181776,3317.57575724,4295.3333329,2946.66666637,4951.12121163,2909.57575728,4151.60606019,3993.45454506,4347.87878744,3618.42424206,4192.30302988,0.0,4783.69696922,3033.21212091,4383.42424199,2921.93939365,42.0,42.0,?
2017-07-31 18:31:37.463501,4485.42424198,3531.87878753,4172.21212079,1100.36363625,3868.27272689,3902.7878784,3833.75757537,391.515151476,4241.24242382,28.8484848456,3514.87878753,556.363636308,4167.06060564,3317.57575724,4293.27272684,2946.66666637,4953.6969692,2909.57575728,4151.60606019,3993.45454506,4345.30302987,3618.42424206,4191.78787837,0.0,4781.63636316,3033.21212091,4378.27272683,2921.93939365,42.0,42.0,?
2017-07-31 18:31:37.471412,4478.72727228,3531.87878753,4169.63636322,1100.36363625,3867.75757537,3902.7878784,3831.69696931,391.515151476,4242.78787836,28.8484848456,3521.57575722,556.363636308,4166.03030261,3317.57575724,4293.27272684,2946.66666637,4947.51515102,2909.57575728,4150.06060565,3993.45454506,4339.12121169,3618.42424206,4189.72727231,0.0,4776.48484801,3033.21212091,4369.51515108,2921.93939365,42.0,42.0,?
2017-07-31 18:31:37.477667,4483.36363592,3531.87878753,4168.09090867,1100.36363625,3863.12121173,3902.7878784,3830.15151477,391.515151476,4244.84848442,28.8484848456,3528.78787844,556.363636308,4161.90909049,3317.57575724,4290.18181775,2946.66666637,4939.27272678,2909.57575728,4142.33333292,3993.45454506,4332.93939351,3618.42424206,4189.21212079,0.0,4777.51515104,3033.21212091,4374.15151471,2921.93939365,42.0,42.0,?
2017-07-31 18:31:37.485051,4483.87878743,3531.87878753,4169.1212117,1100.36363625,3859.51515113,3902.7878784,3835.30302992,391.515151476,4245.87878745,28.8484848456,3534.96969662,556.363636308,4159.33333292,3317.57575724,4289.15151472,2946.66666637,4938.75757526,2909.57575728,4139.24242383,3993.45454506,4328.81818139,3618.42424206,4190.24242382,0.0,4779.5757571,3033.21212091,4378.27272683,2921.93939365,42.0,42.0,?
2017-07-31 18:31:37.496439,4478.21212076,3531.87878753,4170.66666625,1100.36363625,3862.60606022,3902.7878784,3835.81818143,391.515151476,4245.87878745,28.8484848456,3537.54545419,556.363636308,4167.57575716,3317.57575724,4294.81818139,2946.66666637,4939.78787829,2909.57575728,4145.93939352,3993.45454506,4330.36363593,3618.42424206,4192.30302988,0.0,4781.12121164,3033.21212091,4376.72727229,2921.93939365,42.0,42.0,?
2017-07-31 18:31:37.501735,4479.24242379,3531.87878753,4169.1212117,1100.36363625,3863.63636325,3902.7878784,3829.63636325,391.515151476,4241.24242382,28.8484848456,3536.51515116,556.363636308,4174.78787837,3317.57575724,4296.87878745,2946.66666637,4945.96969648,2909.57575728,4149.54545413,3993.45454506,4331.90909048,3618.42424206,4190.75757534,0.0,4782.15151467,3033.21212091,4376.21212077,2921.93939365,42.0,42.0,?
2017-07-31 18:31:37.508049,4474.60606016,3531.87878753,4168.60606019,1100.36363625,3852.81818143,3902.7878784,3819.84848447,391.515151476,4234.03030261,28.8484848456,3528.78787844,556.363636308,4170.66666625,3317.57575724,4287.09090866,2946.66666637,4947.51515102,2909.57575728,4136.15151474,3993.45454506,4322.6363632,3618.42424206,4188.69696928,0.0,4778.54545407,3033.21212091,4370.54545411,2921.93939365,42.0,42.0,?
2017-07-31 18:31:37.518245,4466.36363592,3531.87878753,4168.60606019,1100.36363625,3839.93939356,3902.7878784,3809.54545416,391.515151476,4227.84848443,28.8484848456,3522.60606025,556.363636308,4158.8181814,3317.57575724,4276.78787836,2946.66666637,4926.90909042,2909.57575728,4119.66666625,3993.45454506,4312.3333329,3618.42424206,4190.24242382,0.0,4769.2727268,3033.21212091,4362.30302987,2921.93939365,42.0,42.0,?
2017-07-31 18:31:37.525923,4466.36363592,3531.87878753,4168.09090867,1100.36363625,3838.90909053,3902.7878784,3803.36363598,391.515151476,4220.1212117,28.8484848456,3521.06060571,556.363636308,4149.54545413,3317.57575724,4275.24242381,2946.66666637,4906.81818133,2909.57575728,4118.63636322,3993.45454506,4308.7272723,3618.42424206,4189.72727231,0.0,4763.09090861,3033.21212091,4360.24242381,2921.93939365,42.0,42.0,?
2017-07-31 18:31:37.532063,4468.93939349,3531.87878753,4169.1212117,1100.36363625,3844.57575719,3902.7878784,3804.39393901,391.515151476,4213.424242,28.8484848456,3525.69696934,556.363636308,4147.99999959,3317.57575724,4276.78787836,2946.66666637,4908.87878739,2909.57575728,4122.24242383,3993.45454506,4310.27272684,3618.42424206,4190.75757534,0.0,4766.69696922,3033.21212091,4366.9393935,2921.93939365,42.0,42.0,?
2017-07-31 18:31:37.540000,4470.99999955,3531.87878753,4168.60606019,1100.36363625,3852.30302992,3902.7878784,3811.60606022,391.515151476,4219.09090867,28.8484848456,3537.54545419,556.363636308,4153.66666625,3317.57575724,4280.90909048,2946.66666637,4927.42424193,2909.57575728,4129.45454504,3993.45454506,4316.96969654,3618.42424206,4193.33333291,0.0,4772.8787874,3033.21212091,4372.60606017,2921.93939365,42.0,42.0,?
2017-07-31 18:31:37.548653,4474.60606016,3531.87878753,4169.1212117,1100.36363625,3858.4848481,3902.7878784,3815.72727235,391.515151476,4225.27272685,28.8484848456,3546.30302995,556.363636308,4159.33333292,3317.57575724,4284.51515109,2946.66666637,4938.75757526,2909.57575728,4138.72727231,3993.45454506,4322.12121169,3618.42424206,4192.8181814,0.0,4775.45454498,3033.21212091,4372.60606017,2921.93939365,42.0,42.0,?
2017-07-31 18:31:37.556134,4478.21212076,3531.87878753,4170.15151473,1100.36363625,3858.4848481,3902.7878784,3815.72727235,391.515151476,4222.69696927,28.8484848456,3549.90909055,556.363636308,4162.42424201,3317.57575724,4287.60606018,2946.66666637,4933.0909086,2909.57575728,4139.75757534,3993.45454506,4322.6363632,3618.42424206,4190.75757534,0.0,4776.99999952,3033.21212091,4376.21212077,2921.93939365,42.0,42.0,?
2017-07-31 18:31:37.566371,4477.69696925,3531.87878753,4169.1212117,1100.36363625,3857.45454507,3902.7878784,3816.75757538,391.515151476,4224.24242382,28.8484848456,3560.21212086,556.363636308,4165.5151511,3317.57575724,4289.66666624,2946.66666637,4927.42424193,2909.57575728,4136.15151474,3993.45454506,4321.09090866,3618.42424206,4189.72727231,0.0,4777.51515104,3033.21212091,4377.75757532,2921.93939365,42.0,42.0,?
2017-07-31 18:31:37.571843,4471.51515107,3531.87878753,4169.1212117,1100.36363625,3857.45454507,3902.7878784,3814.1818178,391.515151476,4230.93939352,28.8484848456,3573.09090873,556.363636308,4161.39393898,3317.57575724,4285.54545412,2946.66666637,4926.90909042,2909.57575728,4133.57575716,3993.45454506,4318.51515108,3618.42424206,4189.72727231,0.0,4772.36363589,3033.21212091,4374.66666623,2921.93939365,42.0,42.0,?
2017-07-31 18:31:37.579010,4463.78787834,3531.87878753,4167.06060564,1100.36363625,3851.27272689,3902.7878784,3810.06060568,391.515151476,4228.36363594,28.8484848456,3576.69696934,556.363636308,4153.66666625,3317.57575724,4279.36363594,2946.66666637,4924.84848436,2909.57575728,4134.09090868,3993.45454506,4315.42424199,3618.42424206,4189.72727231,0.0,4764.12121164,3033.21212091,4368.99999956,2921.93939365,42.0,42.0,?
2017-07-31 18:31:37.589415,4462.75757531,3527.7575754,4168.09090867,1100.36363625,3848.1818178,3902.7878784,3812.63636326,391.515151476,4221.66666624,28.8484848456,3583.39393904,556.363636308,4154.69696928,3317.57575724,4282.96969654,2946.66666637,4922.27272678,2909.57575728,4139.75757534,3993.45454506,4312.84848442,3618.42424206,4190.75757534,0.0,4766.18181771,3033.21212091,4369.51515108,2921.93939365,42.0,42.0,?
2017-07-31 18:31:37.598944,4467.90909046,3527.7575754,4171.69696928,1096.24242413,3855.39393901,3902.7878784,3814.69696932,391.515151476,4222.69696927,28.8484848456,3596.78787843,556.363636308,4154.18181777,3317.57575724,4285.54545412,2946.66666637,4924.84848436,2909.57575728,4142.33333292,3993.45454506,4316.45454502,3618.42424206,4192.8181814,0.0,4774.42424195,3033.21212091,4377.2424238,2921.93939365,42.0,42.0,?
2017-07-31 18:31:37.603109,4467.39393895,3527.7575754,4169.1212117,1096.24242413,3855.90909052,3902.7878784,3808.51515113,391.515151476,4221.15151473,28.8484848456,3601.93939358,556.363636308,4149.03030262,3317.57575724,4279.87878745,2946.66666637,4924.33333284,2909.57575728,4136.15151474,3993.45454506,4319.0303026,3618.42424206,4192.30302988,0.0,4770.30302983,3033.21212091,4377.75757532,2934.30303001,42.0,42.0,?
2017-07-31 18:31:37.612822,4463.78787834,3527.7575754,4167.57575716,1096.24242413,3848.1818178,3890.42424204,3804.90909053,391.515151476,4215.99999958,28.8484848456,3603.99999964,556.363636308,4149.03030262,3317.57575724,4277.81818139,2946.66666637,4922.27272678,2909.57575728,4133.57575716,3993.45454506,4314.39393896,3618.42424206,4190.75757534,0.0,4764.12121164,3033.21212091,4374.15151471,2934.30303001,42.0,42.0,?
2017-07-31 18:31:37.619169,4466.36363592,3527.7575754,4169.63636322,1096.24242413,3849.72727234,3890.42424204,3807.99999962,391.515151476,4218.06060564,28.8484848456,3615.84848449,556.363636308,4153.15151474,3317.57575724,4277.81818139,2946.66666637,4923.81818133,2909.57575728,4136.15151474,3993.45454506,4310.78787836,3618.42424206,4190.24242382,0.0,4768.24242377,3033.21212091,4377.75757532,2934.30303001,42.0,42.0,?
2017-07-31 18:31:37.628141,4468.93939349,3527.7575754,4169.1212117,1096.24242413,3853.33333295,3890.42424204,3805.93939356,391.515151476,4221.15151473,152.48484847,3627.18181782,556.363636308,4151.60606019,3317.57575724,4273.18181775,2946.66666637,4923.30302981,2909.57575728,4135.63636322,3993.45454506,4312.84848442,3618.42424206,4189.72727231,0.0,4771.84848437,3033.21212091,4379.81818138,2934.30303001,42.0,42.0,?
2017-07-31 18:31:37.634294,4466.36363592,3527.7575754,4167.06060564,1096.24242413,3843.54545416,3890.42424204,3798.72727235,391.515151476,4218.06060564,152.48484847,3630.27272691,539.878787825,4144.90909049,3317.57575724,4268.54545412,2946.66666637,4917.63636314,2909.57575728,4135.63636322,3993.45454506,4315.93939351,3618.42424206,4190.24242382,0.0,4771.84848437,3033.21212091,4373.12121168,2934.30303001,42.0,42.0,?
2017-07-31 18:31:37.644560,4462.2424238,3527.7575754,4165.5151511,1096.24242413,3837.87878749,3890.42424204,3797.69696932,391.515151476,4218.57575715,152.48484847,3634.90909055,539.878787825,4141.30302989,3379.39393906,4266.99999957,2946.66666637,4912.48484799,2909.57575728,4134.60606019,3993.45454506,4312.3333329,3618.42424206,4190.75757534,0.0,4767.72727225,3033.21212091,4366.9393935,2934.30303001,42.0,42.0,?
2017-07-31 18:31:37.649783,4460.69696925,3527.7575754,4169.63636322,1096.24242413,3847.66666628,3890.42424204,3801.81818144,391.515151476,4218.06060564,152.48484847,3641.60606024,539.878787825,4143.87878746,3379.39393906,4264.93939351,3037.33333303,4915.06060557,2909.57575728,4132.54545413,3993.45454506,4311.81818139,3618.42424206,4190.24242382,0.0,4766.18181771,3033.21212091,4371.57575714,2934.30303001,42.0,42.0,?
2017-07-31 18:31:37.659815,4464.30302986,3527.7575754,4172.72727231,1096.24242413,3854.87878749,3890.42424204,3802.84848447,391.515151476,4215.48484806,152.48484847,3657.06060569,539.878787825,4149.03030262,3379.39393906,4265.96969654,3037.33333303,4921.75757527,2946.66666637,4133.06060565,3993.45454506,4314.90909048,3618.42424206,4190.24242382,0.0,4769.2727268,3033.21212091,4379.81818138,2934.30303001,42.0,42.0,?
2017-07-31 18:31:37.665087,4470.48484804,3527.7575754,4168.60606019,1096.24242413,3853.33333295,3890.42424204,3803.8787875,391.515151476,4222.69696927,152.48484847,3678.18181781,539.878787825,4146.45454504,3379.39393906,4269.06060563,3037.33333303,4920.21212072,2946.66666637,4130.99999959,4022.3030299,4313.87878745,3618.42424206,4188.18181776,0.0,4769.78787831,3033.21212091,4379.81818138,2934.30303001,42.0,42.0,?
2017-07-31 18:31:37.673043,4473.06060561,3527.7575754,4167.06060564,1096.24242413,3854.36363598,3890.42424204,3806.45454507,391.515151476,4226.30302988,152.48484847,3688.48484812,539.878787825,4140.78787837,3379.39393906,4269.06060563,3037.33333303,4911.96969648,2946.66666637,4128.93939353,4022.3030299,4315.93939351,3626.6666663,4188.69696928,0.0,4770.81818134,3033.21212091,4380.84848441,2934.30303001,42.0,42.0,?
2017-07-31 18:31:37.681739,4472.03030258,3527.7575754,4169.1212117,1096.24242413,3857.96969658,3890.42424204,3806.96969659,391.515151476,4221.66666624,152.48484847,3695.69696933,539.878787825,4141.30302989,3379.39393906,4270.09090866,3037.33333303,4910.93939345,2946.66666637,4132.54545413,4022.3030299,4317.99999957,3626.6666663,4189.21212079,8.2424242416,4770.81818134,3033.21212091,4385.99999956,2934.30303001,42.0,42.0,?
2017-07-31 18:31:37.689930,4468.93939349,3527.7575754,4171.18181776,1096.24242413,3856.93939355,3890.42424204,3809.03030265,391.515151476,4227.84848443,152.48484847,3711.15151478,539.878787825,4143.87878746,3379.39393906,4269.06060563,3037.33333303,4917.12121163,2946.66666637,4129.45454504,4022.3030299,4310.78787836,3626.6666663,4189.72727231,8.2424242416,4765.15151467,3049.69696939,4387.54545411,2934.30303001,42.0,42.0,?
2017-07-31 18:31:37.697173,4466.87878743,3527.7575754,4169.63636322,1096.24242413,3854.87878749,3890.42424204,3813.15151477,391.515151476,4234.54545412,152.48484847,3724.03030266,539.878787825,4145.42424201,3379.39393906,4266.99999957,3037.33333303,4909.3939389,2946.66666637,4119.66666625,4026.42424202,4304.60606018,3626.6666663,4190.24242382,8.2424242416,4762.06060558,3049.69696939,4386.51515108,2934.30303001,42.0,42.0,?
2017-07-31 18:31:37.704485,4465.33333289,3527.7575754,4166.03030261,1096.24242413,3854.36363598,3890.42424204,3813.15151477,391.515151476,4228.87878746,152.48484847,3730.72727235,539.878787825,4146.96969656,3379.39393906,4268.54545412,3037.33333303,4899.60606012,2946.66666637,4118.12121171,4026.42424202,4304.60606018,3634.90909055,4187.15151473,8.2424242416,4763.09090861,3049.69696939,4381.87878744,2934.30303001,42.0,42.0,?
2017-07-31 18:31:37.719980,4463.78787834,3527.7575754,4168.60606019,1096.24242413,3850.75757537,3890.42424204,3806.96969659,391.515151476,4224.24242382,152.48484847,3747.72727235,539.878787825,4142.84848443,3379.39393906,4265.96969654,3037.33333303,4909.90909042,2946.66666637,4122.75757535,4026.42424202,4309.24242381,3634.90909055,4189.72727231,12.3636363624,4769.78787831,3049.69696939,4387.54545411,2934.30303001,42.0,42.0,?
2017-07-31 18:31:37.721425,4463.78787834,3527.7575754,4168.60606019,1096.24242413,3850.75757537,3890.42424204,3806.96969659,391.515151476,4224.24242382,152.48484847,3747.72727235,539.878787825,4142.84848443,3379.39393906,4265.96969654,3037.33333303,4909.90909042,2946.66666637,4122.75757535,4026.42424202,4309.24242381,3634.90909055,4189.72727231,12.3636363624,4769.78787831,3049.69696939,4387.54545411,2934.30303001,42.0,42.0,?
2017-07-31 18:31:37.732446,4471.51515107,3527.7575754,4168.60606019,1096.24242413,3853.33333295,3890.42424204,3807.99999962,391.515151476,4221.15151473,152.48484847,3756.99999962,539.878787825,4138.2121208,3379.39393906,4264.93939351,3037.33333303,4904.24242375,2946.66666637,4122.75757535,4026.42424202,4310.27272684,3634.90909055,4189.21212079,12.3636363624,4776.48484801,3049.69696939,4393.72727229,2934.30303001,42.0,42.0,?
2017-07-31 18:31:37.735553,4472.03030258,3527.7575754,4169.63636322,1096.24242413,3855.90909052,3890.42424204,3806.45454507,391.515151476,4223.21212079,152.48484847,3771.42424205,539.878787825,4133.06060565,3379.39393906,4264.93939351,3037.33333303,4910.42424193,2946.66666637,4123.78787838,4026.42424202,4312.3333329,3634.90909055,4188.69696928,12.3636363624,4779.06060558,3049.69696939,4394.75757532,2934.30303001,42.0,42.0,?
2017-07-31 18:31:37.747463,4463.27272683,3527.7575754,4168.60606019,1096.24242413,3856.42424204,3890.42424204,3805.93939356,391.515151476,4226.30302988,152.48484847,3782.24242386,539.878787825,4132.03030262,3379.39393906,4261.33333291,3037.33333303,4918.66666617,2946.66666637,4123.27272686,4026.42424202,4310.78787836,3634.90909055,4187.15151473,12.3636363624,4777.51515104,3049.69696939,4393.21212077,2934.30303001,42.0,42.0,?
2017-07-31 18:31:37.751739,4461.21212077,3527.7575754,4168.09090867,1096.24242413,3855.90909052,3890.42424204,3808.51515113,391.515151476,4222.69696927,152.48484847,3777.09090871,539.878787825,4136.66666625,3379.39393906,4263.39393897,3037.33333303,4914.03030254,2946.66666637,4129.45454504,4026.42424202,4311.81818139,3634.90909055,4188.69696928,12.3636363624,4776.48484801,3049.69696939,4398.36363592,2934.30303001,42.0,42.0,?
2017-07-31 18:31:37.762571,4467.90909046,3527.7575754,4171.69696928,1096.24242413,3857.45454507,3890.42424204,3811.09090871,391.515151476,4220.63636321,152.48484847,3788.42424205,539.878787825,4142.84848443,3379.39393906,4272.15151472,3037.33333303,4911.96969648,2946.66666637,4134.09090868,4026.42424202,4316.45454502,3634.90909055,4192.8181814,12.3636363624,4778.03030255,3049.69696939,4402.99999956,2934.30303001,42.0,42.0,?
2017-07-31 18:31:37.769207,4469.45454501,3527.7575754,4173.24242383,1096.24242413,3857.45454507,3890.42424204,3811.09090871,391.515151476,4222.18181776,152.48484847,3790.99999962,539.878787825,4147.48484807,3379.39393906,4273.69696927,3037.33333303,4918.15151466,2946.66666637,4127.39393898,4026.42424202,4316.96969654,3634.90909055,4193.33333291,12.3636363624,4779.5757571,3049.69696939,4400.9393935,2934.30303001,42.0,42.0,?
2017-07-31 18:31:37.774041,4467.90909046,3527.7575754,4171.18181776,1096.24242413,3855.90909052,3890.42424204,3814.1818178,391.515151476,4218.57575715,152.48484847,3680.24242387,539.878787825,4147.99999959,3379.39393906,4270.09090866,3037.33333303,4926.3939389,2946.66666637,4126.36363595,4026.42424202,4315.42424199,3634.90909055,4188.69696928,12.3636363624,4781.12121164,3049.69696939,4402.99999956,2934.30303001,42.0,42.0,?
2017-07-31 18:31:37.782490,4466.87878743,3527.7575754,4169.1212117,1096.24242413,3856.42424204,3890.42424204,3817.78787841,391.515151476,4212.39393897,152.48484847,3489.63636329,539.878787825,4145.93939352,3379.39393906,4271.12121169,3037.33333303,4928.45454496,2946.66666637,4134.09090868,4026.42424202,4313.36363593,3634.90909055,4187.66666625,12.3636363624,4778.03030255,3049.69696939,4405.06060562,2934.30303001,42.0,42.0,?
2017-07-31 18:31:37.791833,4465.8484844,3527.7575754,4169.1212117,1096.24242413,3856.42424204,3890.42424204,3816.75757538,391.515151476,4209.8181814,152.48484847,3357.75757542,539.878787825,4144.90909049,3379.39393906,4270.60606018,3037.33333303,4918.15151466,2946.66666637,4131.5151511,4026.42424202,4312.3333329,3634.90909055,4190.75757534,12.3636363624,4772.8787874,3049.69696939,4400.42424198,2934.30303001,42.0,42.0,?
2017-07-31 18:31:37.799870,4460.18181774,3527.7575754,4171.69696928,1096.24242413,3855.39393901,3890.42424204,3817.27272689,391.515151476,4209.8181814,152.48484847,3298.51515119,539.878787825,4146.45454504,3379.39393906,4268.0303026,3037.33333303,4913.51515102,2946.66666637,4130.48484807,4026.42424202,4315.93939351,3634.90909055,4190.75757534,12.3636363624,4776.99999952,3049.69696939,4394.75757532,2934.30303001,42.0,42.0,?
2017-07-31 18:31:37.807942,4450.39393895,3527.7575754,4172.21212079,1096.24242413,3854.36363598,3890.42424204,3817.78787841,391.515151476,4207.24242382,152.48484847,3248.03030271,539.878787825,4150.06060565,3379.39393906,4271.12121169,3037.33333303,4924.33333284,2946.66666637,4138.2121208,4026.42424202,4319.54545411,3634.90909055,4188.69696928,12.3636363624,4781.12121164,3049.69696939,4393.21212077,2934.30303001,42.0,42.0,?
2017-07-31 18:31:37.815581,4452.45454501,3527.7575754,4169.1212117,1096.24242413,3856.93939355,3890.42424204,3815.72727235,391.515151476,4204.15151473,152.48484847,3205.78787847,539.878787825,4151.09090868,3379.39393906,4274.21212078,3037.33333303,4929.99999951,2946.66666637,4138.72727231,4026.42424202,4317.99999957,3634.90909055,4189.21212079,12.3636363624,4782.15151467,3049.69696939,4400.9393935,2934.30303001,42.0,42.0,?
2017-07-31 18:31:37.821704,4458.63636319,3527.7575754,4165.5151511,1096.24242413,3853.84848446,3890.42424204,3819.33333295,391.515151476,4206.21212079,152.48484847,3184.15151483,539.878787825,4148.5151511,3379.39393906,4272.66666624,3037.33333303,4922.7878783,2946.66666637,4133.57575716,4026.42424202,4308.7272723,3634.90909055,4188.69696928,12.3636363624,4774.93939346,3049.69696939,4399.39393895,2934.30303001,42.0,42.0,?
2017-07-31 18:31:37.832158,4454.51515107,3527.7575754,4166.03030261,1096.24242413,3843.54545416,3890.42424204,3819.33333295,391.515151476,4212.90909049,152.48484847,3172.8181815,539.878787825,4147.99999959,3379.39393906,4271.63636321,3037.33333303,4916.0909086,2946.66666637,4128.93939353,4026.42424202,4300.99999957,3634.90909055,4187.66666625,12.3636363624,4764.63636316,3049.69696939,4388.06060562,2934.30303001,42.0,42.0,?
2017-07-31 18:31:37.840282,4454.51515107,3527.7575754,4169.1212117,1096.24242413,3843.03030265,3890.42424204,3810.57575719,391.515151476,4214.96969655,152.48484847,3166.63636332,539.878787825,4147.99999959,3379.39393906,4272.66666624,3037.33333303,4918.15151466,2946.66666637,4125.84848444,4026.42424202,4305.63636321,3634.90909055,4191.27272685,12.3636363624,4767.72727225,3049.69696939,4390.6363632,2934.30303001,42.0,42.0,?
2017-07-31 18:31:37.845912,4461.72727228,3527.7575754,4168.60606019,1096.24242413,3853.84848446,3890.42424204,3811.09090871,391.515151476,4208.27272685,152.48484847,3150.15151484,539.878787825,4147.99999959,3379.39393906,4274.7272723,3037.33333303,4925.87878739,2946.66666637,4131.5151511,4026.42424202,4316.45454502,3634.90909055,4193.33333291,12.3636363624,4776.99999952,3049.69696939,4403.51515107,2934.30303001,42.0,42.0,?
2017-07-31 18:31:37.854664,4462.2424238,3527.7575754,4167.57575716,1096.24242413,3858.99999961,3890.42424204,3819.33333295,391.515151476,4200.54545413,152.48484847,3132.12121181,539.878787825,4151.60606019,3379.39393906,4277.30302988,3037.33333303,4927.93939345,2946.66666637,4139.24242383,4026.42424202,4322.6363632,3634.90909055,4192.8181814,12.3636363624,4782.66666619,3049.69696939,4409.69696926,2934.30303001,42.0,42.0,?
2017-07-31 18:31:37.861257,4460.69696925,3527.7575754,4167.57575716,1096.24242413,3855.39393901,3890.42424204,3820.8787875,391.515151476,4201.06060564,152.48484847,3127.48484817,539.878787825,4153.15151474,3379.39393906,4277.81818139,3037.33333303,4927.42424193,2946.66666637,4138.72727231,4026.42424202,4322.12121169,3634.90909055,4192.30302988,12.3636363624,4782.66666619,3049.69696939,4407.12121168,2934.30303001,42.0,42.0,?
2017-07-31 18:31:37.870075,4461.72727228,3527.7575754,4168.60606019,1096.24242413,3852.81818143,3890.42424204,3817.27272689,391.515151476,4205.69696928,152.48484847,3125.42424211,539.878787825,4151.09090868,3379.39393906,4278.84848442,3037.33333303,4928.96969648,2946.66666637,4138.2121208,4026.42424202,4321.60606017,3634.90909055,4191.27272685,12.3636363624,4780.09090861,3049.69696939,4402.99999956,2934.30303001,42.0,42.0,?
2017-07-31 18:31:37.879601,4462.2424238,3527.7575754,4170.15151473,1096.24242413,3850.75757537,3890.42424204,3816.75757538,391.515151476,4200.54545413,152.48484847,3120.27272696,539.878787825,4148.5151511,3379.39393906,4275.24242381,3037.33333303,4925.87878739,2946.66666637,4140.27272686,4026.42424202,4323.66666623,3634.90909055,4192.30302988,12.3636363624,4781.12121164,3049.69696939,4404.03030259,2934.30303001,42.0,42.0,?
2017-07-31 18:31:37.886097,4467.90909046,3527.7575754,4170.66666625,1096.24242413,3855.39393901,3890.42424204,3818.30302992,391.515151476,4195.90909049,152.48484847,3117.69696939,539.878787825,4150.06060565,3379.39393906,4272.66666624,3037.33333303,4927.42424193,2946.66666637,4139.24242383,4026.42424202,4321.09090866,3634.90909055,4191.27272685,12.3636363624,4783.1818177,3049.69696939,4406.09090865,2934.30303001,42.0,42.0,?
2017-07-31 18:31:37.892675,4468.42424198,3527.7575754,4170.15151473,1096.24242413,3856.42424204,3890.42424204,3818.30302992,391.515151476,4197.45454503,152.48484847,3115.63636332,539.878787825,4152.12121171,3379.39393906,4273.69696927,3037.33333303,4927.42424193,2946.66666637,4135.12121171,4026.42424202,4314.39393896,3634.90909055,4188.69696928,12.3636363624,4782.66666619,3049.69696939,4407.12121168,2934.30303001,42.0,42.0,?
2017-07-31 18:31:37.904245,4463.78787834,3527.7575754,4169.1212117,1096.24242413,3847.66666628,3890.42424204,3817.27272689,391.515151476,4197.96969655,152.48484847,3117.69696939,539.878787825,4149.54545413,3379.39393906,4274.21212078,3037.33333303,4917.12121163,2946.66666637,4134.60606019,4026.42424202,4315.93939351,3634.90909055,4189.21212079,12.3636363624,4783.69696922,3049.69696939,4409.18181774,2934.30303001,42.0,42.0,?
2017-07-31 18:31:37.907863,4475.12121167,3527.7575754,4171.69696928,1096.24242413,3847.66666628,3890.42424204,3818.81818144,391.515151476,4200.03030261,152.48484847,3123.87878757,539.878787825,4146.45454504,3379.39393906,4275.24242381,3037.33333303,4918.66666617,2946.66666637,4140.27272686,4026.42424202,4324.18181775,3634.90909055,4190.24242382,12.3636363624,4788.84848437,3049.69696939,4411.2424238,2934.30303001,42.0,42.0,?
2017-07-31 18:31:37.915202,4479.24242379,3527.7575754,4174.27272686,1096.24242413,3855.39393901,3890.42424204,3820.8787875,391.515151476,4197.96969655,152.48484847,3126.45454514,539.878787825,4147.99999959,3379.39393906,4277.30302988,3037.33333303,4931.03030254,2946.66666637,4139.24242383,4026.42424202,4327.78787836,3634.90909055,4190.24242382,12.3636363624,4788.84848437,3049.69696939,4411.2424238,2934.30303001,42.0,42.0,?
2017-07-31 18:31:37.924480,4466.87878743,3527.7575754,4171.69696928,1096.24242413,3858.4848481,3890.42424204,3821.39393901,391.515151476,4193.33333291,152.48484847,3130.06060575,539.878787825,4150.06060565,3379.39393906,4279.87878745,3037.33333303,4929.48484799,2946.66666637,4136.66666625,4026.42424202,4323.15151472,3634.90909055,4191.78787837,12.3636363624,4783.69696922,3049.69696939,4414.84848441,2934.30303001,42.0,42.0,?
2017-07-31 18:31:37.933075,4468.93939349,3527.7575754,4171.69696928,1096.24242413,3861.57575719,3890.42424204,3825.51515113,391.515151476,4196.424242,152.48484847,3140.87878756,539.878787825,4149.03030262,3379.39393906,4276.78787836,3037.33333303,4921.75757527,2946.66666637,4139.75757534,4026.42424202,4321.60606017,3634.90909055,4194.87878746,12.3636363624,4784.21212073,3049.69696939,4421.03030259,2934.30303001,42.0,42.0,?
2017-07-31 18:31:37.939313,4482.33333289,3527.7575754,4173.75757534,1096.24242413,3866.21212083,3890.42424204,3827.06060568,391.515151476,4205.18181776,152.48484847,3153.24242393,539.878787825,4151.09090868,3379.39393906,4277.30302988,3037.33333303,4929.48484799,2946.66666637,4141.30302989,4026.42424202,4331.39393896,3634.90909055,4194.36363594,12.3636363624,4789.8787874,3049.69696939,4425.15151471,2934.30303001,42.0,42.0,?
2017-07-31 18:31:37.950464,4476.1515147,3527.7575754,4172.21212079,1096.24242413,3865.1818178,3890.42424204,3823.45454507,391.515151476,4207.24242382,152.48484847,3157.36363605,539.878787825,4156.75757534,3379.39393906,4285.0303026,3037.33333303,4935.66666617,2946.66666637,4141.8181814,4026.42424202,4338.09090866,3634.90909055,4191.27272685,12.3636363624,4797.09090861,3049.69696939,4426.18181774,2934.30303001,42.0,42.0,?
2017-07-31 18:31:37.957365,4464.30302986,3527.7575754,4170.15151473,1096.24242413,3858.99999961,3890.42424204,3822.42424204,391.515151476,4202.09090867,152.48484847,3156.84848453,539.878787825,4154.69696928,3379.39393906,4282.96969654,3037.33333303,4927.42424193,2946.66666637,4144.39393898,4026.42424202,4333.45454502,3634.90909055,4191.78787837,12.3636363624,4797.60606013,3049.69696939,4423.09090865,2934.30303001,42.0,42.0,?
2017-07-31 18:31:37.963824,4466.36363592,3527.7575754,4171.18181776,1096.24242413,3855.90909052,3890.42424204,3820.8787875,391.515151476,4201.57575716,152.48484847,3164.57575726,539.878787825,4150.06060565,3379.39393906,4277.30302988,3037.33333303,4920.21212072,2946.66666637,4139.75757534,4026.42424202,4323.15151472,3634.90909055,4190.75757534,12.3636363624,4786.27272679,3049.69696939,4415.36363592,2934.30303001,42.0,42.0,?
2017-07-31 18:31:37.970419,4466.87878743,3527.7575754,4173.75757534,1096.24242413,3857.45454507,3890.42424204,3816.75757538,391.515151476,4202.09090867,152.48484847,3176.93939362,539.878787825,4150.57575716,3379.39393906,4278.84848442,3037.33333303,4921.24242375,2946.66666637,4130.99999959,4026.42424202,4321.60606017,3634.90909055,4188.18181776,12.3636363624,4781.63636316,3049.69696939,4412.78787835,2934.30303001,42.0,42.0,?
2017-07-31 18:31:37.980953,4464.81818137,3527.7575754,4172.72727231,1096.24242413,3856.93939355,3890.42424204,3816.75757538,391.515151476,4201.06060564,152.48484847,3188.27272695,539.878787825,4149.54545413,3379.39393906,4280.39393897,3037.33333303,4933.0909086,2946.66666637,4133.06060565,4026.42424202,4327.78787836,3634.90909055,4189.21212079,12.3636363624,4787.30302982,3049.69696939,4416.39393895,2934.30303001,42.0,42.0,?
2017-07-31 18:31:37.987214,4465.33333289,3527.7575754,4168.09090867,1096.24242413,3848.1818178,3890.42424204,3818.30302992,391.515151476,4204.15151473,152.48484847,3205.78787847,539.878787825,4150.06060565,3379.39393906,4275.75757533,3037.33333303,4941.84848435,2946.66666637,4135.63636322,4026.42424202,4328.30302987,3634.90909055,4189.72727231,12.3636363624,4786.78787831,3049.69696939,4409.69696926,2934.30303001,42.0,42.0,?
2017-07-31 18:31:37.994997,4467.39393895,3527.7575754,4168.09090867,1096.24242413,3843.54545416,3890.42424204,3819.84848447,391.515151476,4207.75757534,152.48484847,3223.30302998,539.878787825,4159.84848443,3379.39393906,4279.87878745,3037.33333303,4931.54545405,2946.66666637,4132.54545413,4026.42424202,4336.54545411,3634.90909055,4190.75757534,12.3636363624,4788.33333285,3049.69696939,4404.03030259,2934.30303001,42.0,42.0,?
2017-07-31 18:31:38.004266,4466.36363592,3527.7575754,4171.69696928,1096.24242413,3846.63636325,3890.42424204,3823.45454507,391.515151476,4207.75757534,152.48484847,3233.09090877,539.878787825,4165.5151511,3379.39393906,4288.12121169,3037.33333303,4917.63636314,2946.66666637,4132.54545413,4026.42424202,4350.96969653,3634.90909055,4190.75757534,12.3636363624,4796.5757571,3049.69696939,4404.54545411,2934.30303001,42.0,42.0,?
2017-07-31 18:31:38.009089,4466.87878743,3527.7575754,4172.72727231,1096.24242413,3847.15151477,3890.42424204,3820.36363598,391.515151476,4209.8181814,152.48484847,3246.99999968,539.878787825,4163.45454504,3379.39393906,4286.06060563,3037.33333303,4921.75757527,2946.66666637,4136.15151474,4026.42424202,4357.66666623,3634.90909055,4190.75757534,12.3636363624,4798.63636316,3049.69696939,4396.30302986,2934.30303001,42.0,42.0,?
2017-07-31 18:31:38.020214,4477.18181773,3527.7575754,4171.69696928,1096.24242413,3845.09090871,3890.42424204,3815.72727235,391.515151476,4215.48484806,152.48484847,3270.18181785,539.878787825,4166.03030261,3379.39393906,4286.06060563,3037.33333303,4932.06060557,2946.66666637,4139.75757534,4026.42424202,4362.30302987,3634.90909055,4192.8181814,12.3636363624,4798.12121164,3049.69696939,4390.12121168,2934.30303001,42.0,42.0,?
2017-07-31 18:31:38.027615,4481.30302985,3527.7575754,4172.72727231,1096.24242413,3848.1818178,3890.42424204,3821.90909053,391.515151476,4217.54545412,152.48484847,3282.54545422,539.878787825,4170.15151473,3379.39393906,4295.84848442,3037.33333303,4938.24242375,2946.66666637,4140.78787837,4026.42424202,4365.90909047,3634.90909055,4192.30302988,12.3636363624,4796.06060558,3049.69696939,4386.51515108,2934.30303001,42.0,42.0,?
2017-07-31 18:31:38.032751,4477.18181773,3527.7575754,4170.66666625,1096.24242413,3849.21212083,3890.42424204,3824.4848481,391.515151476,4214.96969655,152.48484847,3282.0303027,539.878787825,4167.57575716,3379.39393906,4295.3333329,3037.33333303,4942.87878738,2946.66666637,4141.8181814,4026.42424202,4360.75757532,3634.90909055,4190.75757534,12.3636363624,4791.42424195,3049.69696939,4379.30302987,2934.30303001,42.0,42.0,?
2017-07-31 18:31:38.041389,4475.12121167,3527.7575754,4166.54545413,1096.24242413,3843.54545416,3890.42424204,3819.33333295,391.515151476,4212.90909049,152.48484847,3290.78787846,539.878787825,4166.54545413,3379.39393906,4285.0303026,3037.33333303,4937.72727223,2946.66666637,4138.2121208,4026.42424202,4353.03030259,3634.90909055,4190.24242382,12.3636363624,4788.33333285,3049.69696939,4371.57575714,2934.30303001,42.0,42.0,?
2017-07-31 18:31:38.048855,4477.69696925,3527.7575754,4168.09090867,1096.24242413,3843.03030265,3890.42424204,3822.42424204,391.515151476,4215.48484806,152.48484847,3312.93939361,539.878787825,4169.63636322,3379.39393906,4285.0303026,3037.33333303,4924.33333284,2946.66666637,4131.5151511,4026.42424202,4355.60606017,3634.90909055,4189.72727231,12.3636363624,4789.8787874,3049.69696939,4368.48484805,2934.30303001,42.0,42.0,?
2017-07-31 18:31:38.057950,4487.48484804,3527.7575754,4172.72727231,1096.24242413,3849.21212083,3890.42424204,3826.03030265,391.515151476,4218.06060564,152.48484847,3329.42424209,539.878787825,4171.18181776,3379.39393906,4287.09090866,3037.33333303,4921.75757527,2946.66666637,4133.06060565,4026.42424202,4362.30302987,3634.90909055,4190.24242382,12.3636363624,4793.48484801,3049.69696939,4375.69696926,2934.30303001,42.0,42.0,?
2017-07-31 18:31:38.066618,4496.75757531,3527.7575754,4171.18181776,1096.24242413,3850.75757537,3890.42424204,3821.90909053,391.515151476,4218.06060564,152.48484847,3339.72727239,539.878787825,4168.09090867,3379.39393906,4279.87878745,3037.33333303,4933.0909086,2946.66666637,4138.72727231,4026.42424202,4359.21212078,3634.90909055,4188.69696928,12.3636363624,4795.03030255,3049.69696939,4381.36363593,2934.30303001,42.0,42.0,?
2017-07-31 18:31:38.072761,4494.18181773,3527.7575754,4171.69696928,1096.24242413,3849.72727234,3890.42424204,3819.33333295,391.515151476,4215.48484806,152.48484847,3351.06060573,539.878787825,4161.90909049,3379.39393906,4275.75757533,3037.33333303,4932.57575708,2946.66666637,4137.18181777,4026.42424202,4351.99999956,3634.90909055,4189.21212079,12.3636363624,4795.03030255,3049.69696939,4380.3333329,2934.30303001,42.0,42.0,?
2017-07-31 18:31:38.082018,4482.8484844,3527.7575754,4173.75757534,1096.24242413,3845.09090871,3890.42424204,3820.8787875,391.515151476,4213.424242,152.48484847,3363.9393936,539.878787825,4159.33333292,3379.39393906,4278.33333291,3037.33333303,4919.6969692,2946.66666637,4128.93939353,4026.42424202,4346.84848441,3634.90909055,4191.27272685,12.3636363624,4791.93939346,3049.69696939,4376.72727229,2934.30303001,42.0,42.0,?
2017-07-31 18:31:38.088610,4478.72727228,3527.7575754,4168.60606019,1096.24242413,3837.87878749,3890.42424204,3820.8787875,391.515151476,4213.93939352,152.48484847,3381.45454512,539.878787825,4157.27272686,3379.39393906,4278.33333291,3037.33333303,4920.72727224,2946.66666637,4127.39393898,4026.42424202,4343.24242381,3634.90909055,4191.27272685,12.3636363624,4786.78787831,3049.69696939,4375.18181774,2934.30303001,42.0,42.0,?
2017-07-31 18:31:38.102658,4487.48484804,3535.99999965,4168.09090867,1096.24242413,3838.39393901,3890.42424204,3820.36363598,391.515151476,4218.57575715,152.48484847,3403.09090875,539.878787825,4155.72727231,3379.39393906,4279.87878745,3037.33333303,4930.51515102,2946.66666637,4133.57575716,4026.42424202,4347.87878744,3634.90909055,4190.24242382,12.3636363624,4789.8787874,3049.69696939,4380.3333329,2934.30303001,42.0,42.0,?
2017-07-31 18:31:38.107132,4492.63636319,3535.99999965,4172.72727231,1079.75757565,3845.60606022,3890.42424204,3824.4848481,391.515151476,4221.66666624,152.48484847,3421.63636329,539.878787825,4161.39393898,3379.39393906,4285.54545412,3037.33333303,4932.06060557,2946.66666637,4140.27272686,4026.42424202,4352.51515108,3634.90909055,4188.69696928,12.3636363624,4793.99999952,3049.69696939,4388.06060562,2934.30303001,42.0,42.0,?
2017-07-31 18:31:38.114864,4484.90909046,3535.99999965,4171.69696928,1079.75757565,3850.24242386,3890.42424204,3824.99999962,391.515151476,4220.1212117,152.48484847,3434.51515117,539.878787825,4162.93939352,3379.39393906,4285.54545412,3037.33333303,4929.48484799,2946.66666637,4141.8181814,4026.42424202,4348.39393896,3634.90909055,4188.18181776,12.3636363624,4790.39393891,3049.69696939,4388.06060562,2897.21212092,42.0,42.0,?
2017-07-31 18:31:38.120207,4481.81818137,3535.99999965,4169.1212117,1079.75757565,3852.30302992,3890.42424204,3823.45454507,391.515151476,4221.66666624,152.48484847,3449.45454511,539.878787825,4155.72727231,3379.39393906,4282.96969654,3037.33333303,4932.06060557,2946.66666637,4140.27272686,4026.42424202,4348.90909047,3634.90909055,4191.27272685,12.3636363624,4788.33333285,3049.69696939,4383.9393935,2897.21212092,42.0,42.0,?
2017-07-31 18:31:38.127156,4487.99999955,3535.99999965,4169.63636322,1079.75757565,3856.93939355,3890.42424204,3827.06060568,391.515151476,4224.75757534,152.48484847,3465.42424208,539.878787825,4154.69696928,3379.39393906,4286.06060563,3037.33333303,4933.60606011,2946.66666637,4138.72727231,4026.42424202,4353.03030259,3634.90909055,4191.78787837,12.3636363624,4787.81818134,3049.69696939,4388.57575714,2897.21212092,42.0,42.0,?
2017-07-31 18:31:38.134453,4486.96969652,3535.99999965,4171.18181776,1079.75757565,3852.30302992,3890.42424204,3826.54545416,391.515151476,4223.7272723,156.60606059,3479.33333299,539.878787825,4158.30302989,3379.39393906,4287.09090866,3037.33333303,4926.90909042,2946.66666637,4134.09090868,4026.42424202,4347.87878744,3634.90909055,4189.72727231,12.3636363624,4782.15151467,3049.69696939,4390.6363632,2897.21212092,42.0,42.0,?
2017-07-31 18:31:38.144405,4478.72727228,3535.99999965,4169.1212117,1079.75757565,3843.54545416,3890.42424204,3820.8787875,391.515151476,4220.1212117,156.60606059,3487.57575723,502.787878738,4152.12121171,3379.39393906,4278.84848442,3037.33333303,4922.27272678,2946.66666637,4127.39393898,4026.42424202,4339.12121169,3634.90909055,4188.69696928,12.3636363624,4776.48484801,3049.69696939,4380.3333329,2897.21212092,42.0,42.0,?
2017-07-31 18:31:38.150662,4477.69696925,3535.99999965,4168.09090867,1079.75757565,3847.66666628,3890.42424204,3823.45454507,391.515151476,4224.24242382,156.60606059,3497.36363601,502.787878738,4146.45454504,3416.48484814,4274.21212078,3037.33333303,4929.48484799,2946.66666637,4127.9090905,4026.42424202,4340.15151472,3634.90909055,4190.24242382,12.3636363624,4780.60606013,3049.69696939,4378.78787835,2897.21212092,42.0,42.0,?
2017-07-31 18:31:38.158190,4486.96969652,3535.99999965,4171.69696928,1079.75757565,3856.93939355,3890.42424204,3830.66666628,391.515151476,4231.45454503,156.60606059,3513.8484845,502.787878738,4151.09090868,3416.48484814,4281.93939351,3037.33333303,4931.54545405,2946.66666637,4136.66666625,4026.42424202,4346.3333329,3634.90909055,4191.27272685,12.3636363624,4788.33333285,3049.69696939,4389.09090865,2897.21212092,42.0,42.0,?
2017-07-31 18:31:38.165938,4496.24242379,3535.99999965,4172.72727231,1079.75757565,3853.33333295,3890.42424204,3828.09090871,391.515151476,4229.90909049,156.60606059,3527.7575754,502.787878738,4153.15151474,3416.48484814,4287.09090866,3037.33333303,4926.3939389,2934.30303001,4139.24242383,4026.42424202,4349.42424199,3634.90909055,4188.69696928,12.3636363624,4787.30302982,3049.69696939,4390.12121168,2897.21212092,42.0,42.0,?
2017-07-31 18:31:38.173245,4489.5454541,3535.99999965,4169.63636322,1079.75757565,3844.57575719,3890.42424204,3824.4848481,391.515151476,4220.63636321,156.60606059,3534.4545451,502.787878738,4149.54545413,3416.48484814,4281.424242,3037.33333303,4928.96969648,2934.30303001,4130.99999959,4059.39393899,4347.87878744,3634.90909055,4189.21212079,12.3636363624,4780.60606013,3049.69696939,4384.96969653,2897.21212092,42.0,42.0,?
2017-07-31 18:31:38.182947,4475.12121167,3535.99999965,4169.1212117,1079.75757565,3846.63636325,3890.42424204,3827.06060568,391.515151476,4218.57575715,156.60606059,3539.09090874,502.787878738,4153.66666625,3416.48484814,4279.36363594,3037.33333303,4929.48484799,2934.30303001,4129.96969656,4059.39393899,4339.6363632,3700.84848448,4190.75757534,12.3636363624,4774.42424195,3049.69696939,4383.42424199,2897.21212092,42.0,42.0,?
2017-07-31 18:31:38.189117,4474.60606016,3535.99999965,4171.18181776,1079.75757565,3855.39393901,3890.42424204,3830.15151477,391.515151476,4222.69696927,156.60606059,3553.51515116,502.787878738,4161.90909049,3416.48484814,4289.15151472,3037.33333303,4931.54545405,2934.30303001,4139.75757534,4059.39393899,4339.6363632,3700.84848448,4189.72727231,8.2424242416,4776.99999952,3049.69696939,4386.51515108,2897.21212092,42.0,42.0,?
2017-07-31 18:31:38.197151,4480.78787834,3535.99999965,4171.69696928,1079.75757565,3857.96969658,3890.42424204,3830.66666628,391.515151476,4224.24242382,156.60606059,3573.60606025,502.787878738,4163.96969655,3416.48484814,4295.3333329,3037.33333303,4944.42424193,2934.30303001,4143.36363595,4059.39393899,4347.36363593,3700.84848448,4190.24242382,8.2424242416,4786.27272679,3037.33333303,4391.15151471,2897.21212092,42.0,42.0,?
2017-07-31 18:31:38.204641,4474.60606016,3535.99999965,4167.06060564,1079.75757565,3852.30302992,3890.42424204,3827.06060568,391.515151476,4226.30302988,156.60606059,3592.15151479,502.787878738,4163.45454504,3416.48484814,4294.81818139,3037.33333303,4943.90909041,2934.30303001,4138.2121208,4059.39393899,4342.72727229,3700.84848448,4190.24242382,8.2424242416,4782.66666619,3037.33333303,4388.06060562,2897.21212092,42.0,42.0,?
2017-07-31 18:31:38.213811,4470.99999955,3535.99999965,4163.45454504,1079.75757565,3848.1818178,3890.42424204,3823.96969659,391.515151476,4225.78787837,156.60606059,3607.60606025,502.787878738,4164.48484807,3416.48484814,4293.27272684,3037.33333303,4930.51515102,2934.30303001,4138.72727231,4059.39393899,4337.06060563,3704.9696966,4188.18181776,8.2424242416,4775.96969649,3037.33333303,4387.03030259,2897.21212092,42.0,42.0,?
2017-07-31 18:31:38.220546,4483.87878743,3535.99999965,4169.1212117,1079.75757565,3854.87878749,3890.42424204,3829.63636325,391.515151476,4222.69696927,156.60606059,3624.09090873,502.787878738,4169.1212117,3416.48484814,4293.27272684,3037.33333303,4932.57575708,2934.30303001,4146.45454504,4059.39393899,4347.36363593,3704.9696966,4189.21212079,8.2424242416,4785.75757528,3037.33333303,4396.30302986,2897.21212092,42.0,42.0,?
2017-07-31 18:31:38.228160,4492.63636319,3535.99999965,4172.72727231,1079.75757565,3862.60606022,3890.42424204,3833.24242386,391.515151476,4223.7272723,156.60606059,3641.09090873,502.787878738,4173.24242383,3416.48484814,4298.93939351,3037.33333303,4942.87878738,2934.30303001,4150.06060565,4059.39393899,4355.60606017,3704.9696966,4193.84848443,8.2424242416,4793.99999952,3037.33333303,4402.48484804,2897.21212092,42.0,42.0,?
2017-07-31 18:31:38.237867,4486.96969652,3535.99999965,4170.66666625,1079.75757565,3860.54545416,3890.42424204,3829.12121174,391.515151476,4224.24242382,156.60606059,3652.93939357,502.787878738,4170.15151473,3416.48484814,4297.39393896,3037.33333303,4942.36363587,2934.30303001,4148.5151511,4059.39393899,4354.06060563,3704.9696966,4194.87878746,8.2424242416,4791.93939346,3037.33333303,4406.09090865,2897.21212092,42.0,42.0,?
2017-07-31 18:31:38.244669,4485.93939349,3535.99999965,4169.63636322,1079.75757565,3861.57575719,3890.42424204,3831.1818178,391.515151476,4226.30302988,156.60606059,3669.42424206,502.787878738,4163.96969655,3416.48484814,4290.18181775,3037.33333303,4940.30302981,2934.30303001,4149.54545413,4059.39393899,4356.6363632,3704.9696966,4191.78787837,8.2424242416,4792.45454498,3037.33333303,4408.66666623,2897.21212092,42.0,42.0,?
2017-07-31 18:31:38.251103,4492.12121167,3535.99999965,4170.66666625,1079.75757565,3870.84848446,3890.42424204,3834.7878784,391.515151476,4232.48484806,156.60606059,3694.15151478,502.787878738,4161.90909049,3416.48484814,4291.21212078,3037.33333303,4939.27272678,2934.30303001,4149.54545413,4059.39393899,4361.27272684,3704.9696966,4189.21212079,8.2424242416,4793.48484801,3037.33333303,4408.15151471,2897.21212092,42.0,42.0,?
2017-07-31 18:31:38.259458,4487.48484804,3535.99999965,4169.63636322,1079.75757565,3865.69696931,3890.42424204,3827.06060568,391.515151476,4229.90909049,156.60606059,3714.24242387,502.787878738,4157.78787837,3416.48484814,4287.60606018,3037.33333303,4927.93939345,2934.30303001,4139.24242383,4059.39393899,4351.48484805,3704.9696966,4187.66666625,8.2424242416,4784.21212073,3037.33333303,4404.03030259,2897.21212092,42.0,42.0,?
2017-07-31 18:31:38.267867,4480.78787834,3535.99999965,4167.57575716,1079.75757565,3851.27272689,3890.42424204,3820.8787875,391.515151476,4224.75757534,156.60606059,3729.69696932,502.787878738,4153.15151474,3416.48484814,4275.24242381,3037.33333303,4918.66666617,2934.30303001,4131.5151511,4059.39393899,4343.24242381,3704.9696966,4188.18181776,8.2424242416,4779.06060558,3037.33333303,4398.87878744,2897.21212092,42.0,42.0,?
2017-07-31 18:31:38.275014,4487.99999955,3535.99999965,4169.1212117,1079.75757565,3855.39393901,3890.42424204,3823.45454507,391.515151476,4230.93939352,156.60606059,3746.18181781,502.787878738,4151.60606019,3416.48484814,4274.7272723,3037.33333303,4922.27272678,2934.30303001,4135.12121171,4059.39393899,4353.54545411,3704.9696966,4190.75757534,8.2424242416,4790.39393891,3037.33333303,4403.51515107,2897.21212092,42.0,42.0,?
2017-07-31 18:31:38.284627,4492.12121167,3535.99999965,4170.66666625,1079.75757565,3858.99999961,3890.42424204,3817.78787841,391.515151476,4228.87878746,156.60606059,3759.06060568,502.787878738,4147.99999959,3416.48484814,4279.87878745,3037.33333303,4924.84848436,2934.30303001,4138.72727231,4059.39393899,4354.57575714,3704.9696966,4190.24242382,8.2424242416,4795.03030255,3037.33333303,4407.6363632,2897.21212092,42.0,42.0,?
2017-07-31 18:31:38.291398,4490.57575713,3535.99999965,4172.21212079,1079.75757565,3854.87878749,3890.42424204,3818.81818144,391.515151476,4222.69696927,156.60606059,3773.99999962,502.787878738,4153.66666625,3416.48484814,4283.48484806,3037.33333303,4928.96969648,2934.30303001,4140.78787837,4059.39393899,4348.90909047,3704.9696966,4188.69696928,8.2424242416,4789.36363588,3037.33333303,4405.06060562,2897.21212092,42.0,42.0,?
2017-07-31 18:31:38.299561,4496.75757531,3535.99999965,4172.21212079,1079.75757565,3866.21212083,3890.42424204,3835.81818143,391.515151476,4238.15151473,156.60606059,3799.24242386,502.787878738,4170.15151473,3416.48484814,4293.78787836,3037.33333303,4944.93939344,2934.30303001,4150.06060565,4059.39393899,4360.24242381,3704.9696966,4190.75757534,8.2424242416,4791.93939346,3037.33333303,4410.21212077,2897.21212092,42.0,42.0,?
2017-07-31 18:31:38.306073,4500.87878743,3535.99999965,4171.18181776,1079.75757565,3878.06060567,3890.42424204,3836.84848446,391.515151476,4251.54545412,156.60606059,3822.93939356,502.787878738,4172.72727231,3416.48484814,4299.45454502,3037.33333303,4958.33333284,2934.30303001,4156.24242383,4059.39393899,4366.42424199,3704.9696966,4190.24242382,8.2424242416,4795.54545407,3037.33333303,4416.90909047,2897.21212092,42.0,42.0,?
2017-07-31 18:31:38.314751,4498.30302985,3535.99999965,4171.18181776,1079.75757565,3872.39393901,3890.42424204,3824.99999962,391.515151476,4242.27272685,156.60606059,3830.66666628,502.787878738,4159.33333292,3416.48484814,4290.69696927,3037.33333303,4946.48484799,2934.30303001,4153.66666625,4059.39393899,4357.15151472,3704.9696966,4190.24242382,8.2424242416,4794.51515104,3037.33333303,4416.90909047,2897.21212092,42.0,42.0,?
2017-07-31 18:31:38.322098,4496.75757531,3535.99999965,4170.15151473,1079.75757565,3869.30302992,3890.42424204,3830.15151477,391.515151476,4234.54545412,156.60606059,3833.75757537,502.787878738,4156.75757534,3416.48484814,4283.99999957,3037.33333303,4929.99999951,2934.30303001,4154.18181777,4059.39393899,4352.51515108,3704.9696966,4191.27272685,8.2424242416,4794.51515104,3037.33333303,4415.36363592,2897.21212092,42.0,42.0,?
2017-07-31 18:31:38.331537,4498.30302985,3535.99999965,4168.09090867,1079.75757565,3873.42424204,3890.42424204,3840.45454507,391.515151476,4238.15151473,156.60606059,3841.99999962,502.787878738,4163.45454504,3416.48484814,4287.09090866,3037.33333303,4934.12121163,2934.30303001,4158.30302989,4059.39393899,4358.18181775,3704.9696966,4190.24242382,8.2424242416,4797.09090861,3037.33333303,4415.36363592,2897.21212092,42.0,42.0,?
2017-07-31 18:31:38.340438,4496.24242379,3535.99999965,4169.63636322,1079.75757565,3874.45454507,3890.42424204,3838.39393901,391.515151476,4240.21212079,156.60606059,3855.39393901,502.787878738,4164.48484807,3416.48484814,4293.78787836,3037.33333303,4941.84848435,2934.30303001,4158.30302989,4059.39393899,4363.3333329,3704.9696966,4190.75757534,8.2424242416,4801.72727225,3037.33333303,4420.51515107,2897.21212092,42.0,42.0,?
2017-07-31 18:31:38.348158,4493.1515147,3535.99999965,4169.63636322,1079.75757565,3871.36363598,3890.42424204,3835.30302992,391.515151476,4239.18181776,156.60606059,3869.30302992,502.787878738,4164.99999958,3416.48484814,4294.30302987,3037.33333303,4941.84848435,2934.30303001,4153.15151474,4059.39393899,4355.60606017,3704.9696966,4190.24242382,8.2424242416,4798.63636316,3037.33333303,4421.03030259,2897.21212092,42.0,42.0,?
2017-07-31 18:31:38.353879,4491.09090864,3535.99999965,4165.5151511,1079.75757565,3863.63636325,3890.42424204,3831.1818178,391.515151476,4235.57575715,156.60606059,3879.60606022,502.787878738,4162.93939352,3416.48484814,4285.54545412,3037.33333303,4937.72727223,2934.30303001,4146.45454504,4059.39393899,4343.75757532,3704.9696966,4189.72727231,8.2424242416,4787.30302982,3037.33333303,4413.30302986,2897.21212092,42.0,42.0,?
2017-07-31 18:31:38.363118,4485.93939349,3535.99999965,4167.06060564,1079.75757565,3860.54545416,3890.42424204,3827.06060568,391.515151476,4228.36363594,156.60606059,3889.393939,502.787878738,4158.8181814,3416.48484814,4283.48484806,3037.33333303,4933.60606011,2934.30303001,4144.39393898,4059.39393899,4344.78787835,3704.9696966,4189.72727231,8.2424242416,4785.75757528,3037.33333303,4411.2424238,2897.21212092,42.0,42.0,?
2017-07-31 18:31:38.369361,4481.81818137,3535.99999965,4172.72727231,1079.75757565,3862.0909087,3890.42424204,3826.03030265,391.515151476,4225.27272685,156.60606059,3903.81818143,502.787878738,4156.75757534,3416.48484814,4283.99999957,3037.33333303,4928.45454496,2934.30303001,4147.99999959,4059.39393899,4350.96969653,3704.9696966,4188.69696928,8.2424242416,4791.42424195,3037.33333303,4413.30302986,2897.21212092,42.0,42.0,?
2017-07-31 18:31:38.377216,4484.90909046,3535.99999965,4172.72727231,1079.75757565,3860.03030264,3890.42424204,3822.93939356,391.515151476,4231.45454503,156.60606059,3922.36363597,502.787878738,4157.78787837,3416.48484814,4277.30302988,3037.33333303,4927.93939345,2934.30303001,4149.54545413,4059.39393899,4348.39393896,3704.9696966,4188.69696928,8.2424242416,4790.39393891,3037.33333303,4415.87878744,2897.21212092,42.0,42.0,?
2017-07-31 18:31:38.384541,4487.48484804,3535.99999965,4169.1212117,1079.75757565,3858.99999961,3890.42424204,3823.45454507,391.515151476,4237.1212117,156.60606059,3935.75757536,502.787878738,4159.84848443,3416.48484814,4274.7272723,3037.33333303,4928.45454496,2934.30303001,4146.45454504,4059.39393899,4341.69696926,3704.9696966,4189.72727231,8.2424242416,4785.24242376,3037.33333303,4416.90909047,2897.21212092,42.0,42.0,?
2017-07-31 18:31:38.393231,4481.81818137,3535.99999965,4166.54545413,1079.75757565,3856.42424204,3890.42424204,3825.51515113,391.515151476,4233.51515109,156.60606059,3942.45454506,502.787878738,4157.27272686,3416.48484814,4277.30302988,3037.33333303,4924.84848436,2934.30303001,4142.33333292,4059.39393899,4336.54545411,3704.9696966,4191.27272685,8.2424242416,4782.66666619,3037.33333303,4414.33333289,2897.21212092,42.0,42.0,?
2017-07-31 18:31:38.400579,4478.21212076,3535.99999965,4164.99999958,1079.75757565,3853.33333295,3890.42424204,3823.96969659,391.515151476,4228.87878746,156.60606059,3947.0909087,502.787878738,4153.66666625,3416.48484814,4276.27272685,3037.33333303,4926.90909042,2934.30303001,4138.2121208,4059.39393899,4336.54545411,3704.9696966,4190.75757534,8.2424242416,4781.63636316,3037.33333303,4413.81818138,2897.21212092,42.0,42.0,?
2017-07-31 18:31:38.408476,4484.90909046,3535.99999965,4166.54545413,1079.75757565,3859.51515113,3890.42424204,3823.96969659,391.515151476,4230.93939352,156.60606059,3957.393939,502.787878738,4151.60606019,3416.48484814,4275.24242381,3037.33333303,4927.93939345,2934.30303001,4138.72727231,4059.39393899,4340.15151472,3704.9696966,4188.69696928,8.2424242416,4785.24242376,3037.33333303,4417.42424198,2897.21212092,42.0,42.0,?
2017-07-31 18:31:38.416830,4494.69696925,3535.99999965,4171.69696928,1079.75757565,3863.12121173,3890.42424204,3830.15151477,391.515151476,4233.51515109,156.60606059,3970.78787839,502.787878738,4152.12121171,3416.48484814,4278.84848442,3037.33333303,4926.3939389,2934.30303001,4147.48484807,4059.39393899,4346.84848441,3704.9696966,4189.72727231,8.2424242416,4794.51515104,3037.33333303,4424.63636319,2897.21212092,42.0,42.0,?
2017-07-31 18:31:38.424130,4493.66666622,3535.99999965,4171.69696928,1079.75757565,3861.57575719,3890.42424204,3835.30302992,391.515151476,4236.60606018,156.60606059,3984.18181778,502.787878738,4156.75757534,3416.48484814,4285.0303026,3037.33333303,4936.18181769,2934.30303001,4153.15151474,4059.39393899,4350.96969653,3704.9696966,4190.75757534,8.2424242416,4794.51515104,3037.33333303,4425.15151471,2897.21212092,42.0,42.0,?
2017-07-31 18:31:38.431156,4483.36363592,3535.99999965,4168.09090867,1079.75757565,3867.24242386,3890.42424204,3835.30302992,391.515151476,4243.30302988,156.60606059,4003.24242384,502.787878738,4167.06060564,3416.48484814,4292.24242381,3037.33333303,4948.03030254,2934.30303001,4153.66666625,4059.39393899,4353.03030259,3704.9696966,4190.75757534,8.2424242416,4788.33333285,3037.33333303,4425.66666622,2897.21212092,42.0,42.0,?
2017-07-31 18:31:38.440827,4481.81818137,3535.99999965,4168.60606019,1079.75757565,3875.4848481,3890.42424204,3835.30302992,391.515151476,4246.39393897,156.60606059,4019.72727233,502.787878738,4174.27272686,3416.48484814,4295.84848442,3037.33333303,4945.96969648,2934.30303001,4152.12121171,4059.39393899,4354.57575714,3704.9696966,4191.78787837,8.2424242416,4791.42424195,3037.33333303,4432.87878744,2897.21212092,42.0,42.0,?
2017-07-31 18:31:38.449698,4485.93939349,3535.99999965,4169.1212117,1079.75757565,3877.54545416,3890.42424204,3837.87878749,391.515151476,4245.87878745,156.60606059,4023.84848445,502.787878738,4174.27272686,3416.48484814,4297.90909048,3037.33333303,4941.84848435,2934.30303001,4156.24242383,4059.39393899,4353.54545411,3704.9696966,4190.24242382,8.2424242416,4798.12121164,3037.33333303,4431.84848441,2897.21212092,42.0,42.0,?
2017-07-31 18:31:38.455054,4486.96969652,3535.99999965,4170.66666625,1079.75757565,3875.99999961,3890.42424204,3840.96969659,391.515151476,4249.48484806,156.60606059,4027.96969657,502.787878738,4176.33333292,3416.48484814,4304.09090866,3037.33333303,4946.99999951,2934.30303001,4164.99999958,4059.39393899,4355.09090866,3704.9696966,4191.27272685,8.2424242416,4797.60606013,3037.33333303,4428.75757531,2897.21212092,42.0,42.0,?
2017-07-31 18:31:38.464202,4490.57575713,3535.99999965,4172.72727231,1079.75757565,3876.51515113,3890.42424204,3842.51515113,391.515151476,4253.60606018,156.60606059,4040.84848444,502.787878738,4182.5151511,3416.48484814,4309.24242381,3037.33333303,4956.27272678,2934.30303001,4172.72727231,4059.39393899,4360.24242381,3704.9696966,4193.84848443,8.2424242416,4797.09090861,3037.33333303,4434.9393935,2897.21212092,42.0,42.0,?
2017-07-31 18:31:38.470105,4493.1515147,3535.99999965,4173.24242383,1079.75757565,3877.03030264,3890.42424204,3838.90909053,391.515151476,4252.06060564,156.60606059,4050.12121172,502.787878738,4185.60606019,3416.48484814,4304.09090866,3037.33333303,4955.24242375,2934.30303001,4168.09090867,4059.39393899,4361.27272684,3704.9696966,4191.27272685,8.2424242416,4798.63636316,3037.33333303,4436.48484804,2897.21212092,42.0,42.0,?
2017-07-31 18:31:38.480643,4490.06060561,3535.99999965,4171.69696928,1079.75757565,3873.42424204,3890.42424204,3833.75757537,391.515151476,4245.36363594,156.60606059,4048.57575717,502.787878738,4175.8181814,3416.48484814,4292.75757533,3037.33333303,4939.27272678,2934.30303001,4153.15151474,4059.39393899,4355.60606017,3704.9696966,4187.66666625,8.2424242416,4798.12121164,3037.33333303,4431.33333289,2897.21212092,42.0,42.0,?
2017-07-31 18:31:38.490461,4490.06060561,3535.99999965,4168.60606019,1079.75757565,3872.39393901,3890.42424204,3836.33333295,391.515151476,4245.87878745,156.60606059,4048.57575717,502.787878738,4162.93939352,3416.48484814,4291.7272723,3037.33333303,4935.66666617,2934.30303001,4151.60606019,4059.39393899,4352.51515108,3704.9696966,4187.15151473,8.2424242416,4798.12121164,3037.33333303,4431.84848441,2897.21212092,42.0,42.0,?
2017-07-31 18:31:38.496877,4496.75757531,3535.99999965,4168.09090867,1079.75757565,3871.87878749,3890.42424204,3845.09090871,391.515151476,4257.7272723,156.60606059,4058.36363596,502.787878738,4165.5151511,3416.48484814,4297.90909048,3037.33333303,4949.06060557,2934.30303001,4164.48484807,4059.39393899,4359.21212078,3704.9696966,4190.24242382,8.2424242416,4808.42424194,3037.33333303,4435.96969653,2897.21212092,42.0,42.0,?
2017-07-31 18:31:38.508394,4494.69696925,3535.99999965,4169.1212117,1079.75757565,3863.63636325,3890.42424204,3842.51515113,391.515151476,4265.96969654,156.60606059,4072.27272687,502.787878738,4172.21212079,3416.48484814,4299.45454502,3037.33333303,4950.60606011,2934.30303001,4162.42424201,4059.39393899,4358.18181775,3704.9696966,4191.27272685,8.2424242416,4813.57575709,3037.33333303,4431.33333289,2897.21212092,42.0,42.0,?
2017-07-31 18:31:38.515818,4488.51515107,3535.99999965,4169.63636322,1079.75757565,3861.06060567,3890.42424204,3836.33333295,391.515151476,4262.36363594,156.60606059,4083.09090868,502.787878738,4174.78787837,3416.48484814,4301.51515109,3037.33333303,4942.36363587,2934.30303001,4154.69696928,4059.39393899,4353.03030259,3704.9696966,4191.78787837,8.2424242416,4808.93939346,3037.33333303,4431.33333289,2897.21212092,42.0,42.0,?
2017-07-31 18:31:38.520756,4498.81818137,3535.99999965,4168.60606019,1079.75757565,3871.87878749,3890.42424204,3842.51515113,391.515151476,4262.36363594,156.60606059,4096.99999959,502.787878738,4184.06060564,3416.48484814,4309.75757533,3037.33333303,4949.06060557,2934.30303001,4169.1212117,4059.39393899,4362.30302987,3704.9696966,4193.33333291,8.2424242416,4816.15151467,3037.33333303,4440.09090865,2897.21212092,42.0,42.0,?
2017-07-31 18:31:38.525793,4511.18181773,3535.99999965,4168.09090867,1079.75757565,3876.51515113,3890.42424204,3849.21212083,391.515151476,4265.96969654,156.60606059,4111.93939353,502.787878738,4198.48484806,3416.48484814,4316.45454502,3037.33333303,4964.51515102,2934.30303001,4187.15151473,4059.39393899,4370.03030259,3704.9696966,4194.36363594,8.2424242416,4823.36363588,3037.33333303,4440.60606016,2897.21212092,42.0,42.0,?
2017-07-31 18:31:38.537401,4503.454545,3535.99999965,4168.60606019,1079.75757565,3872.90909052,3890.42424204,3845.60606022,391.515151476,4263.39393897,156.60606059,4117.09090868,502.787878738,4201.06060564,3416.48484814,4314.39393896,3037.33333303,4965.54545405,2934.30303001,4180.45454504,4059.39393899,4364.36363593,3704.9696966,4194.87878746,8.2424242416,4817.69696922,3037.33333303,4439.57575713,2897.21212092,42.0,42.0,?
2017-07-31 18:31:38.545368,4495.21212076,3535.99999965,4169.63636322,1079.75757565,3872.90909052,3890.42424204,3843.54545416,391.515151476,4260.81818139,156.60606059,4123.78787838,502.787878738,4193.84848443,3416.48484814,4306.66666624,3037.33333303,4951.12121163,2934.30303001,4170.15151473,4059.39393899,4360.75757532,3704.9696966,4191.78787837,8.2424242416,4813.06060558,3037.33333303,4444.72727228,2897.21212092,42.0,42.0,?
2017-07-31 18:31:38.551214,4492.12121167,3535.99999965,4168.60606019,1079.75757565,3869.30302992,3890.42424204,3843.03030265,391.515151476,4259.78787836,156.60606059,4133.06060565,502.787878738,4179.42424201,3416.48484814,4296.36363593,3037.33333303,4937.21212072,2934.30303001,4166.03030261,4059.39393899,4357.66666623,3704.9696966,4187.15151473,8.2424242416,4806.36363588,3037.33333303,4438.03030259,2897.21212092,42.0,42.0,?
2017-07-31 18:31:38.556151,4483.87878743,3535.99999965,4166.03030261,1079.75757565,3859.51515113,3890.42424204,3839.93939356,391.515151476,4255.66666624,156.60606059,4134.09090868,502.787878738,4166.54545413,3416.48484814,4291.21212078,3037.33333303,4938.24242375,2934.30303001,4161.39393898,4059.39393899,4353.54545411,3704.9696966,4190.24242382,8.2424242416,4799.66666619,3037.33333303,4429.27272683,2897.21212092,42.0,42.0,?
2017-07-31 18:31:38.564782,4485.42424198,3535.99999965,4167.06060564,1079.75757565,3864.15151477,3890.42424204,3844.06060568,391.515151476,4259.27272685,156.60606059,4142.84848443,502.787878738,4170.15151473,3416.48484814,4297.90909048,3037.33333303,4948.54545405,2934.30303001,4169.1212117,4059.39393899,4359.72727229,3704.9696966,4195.90909049,8.2424242416,4807.90909043,3037.33333303,4437.51515107,2897.21212092,42.0,42.0,?
2017-07-31 18:31:38.573803,4498.81818137,3535.99999965,4172.72727231,1079.75757565,3879.0909087,3890.42424204,3853.33333295,391.515151476,4266.48484806,156.60606059,4160.87878746,502.787878738,4180.96969655,3416.48484814,4308.21212078,3037.33333303,4953.6969692,2934.30303001,4183.54545413,4059.39393899,4373.12121168,3704.9696966,4194.87878746,8.2424242416,4822.84848437,3037.33333303,4448.8484844,2897.21212092,42.0,42.0,?
2017-07-31 18:31:38.580134,4505.51515106,3535.99999965,4177.36363595,1079.75757565,3883.72727234,3890.42424204,3854.36363598,391.515151476,4269.06060563,156.60606059,4175.30302989,502.787878738,4183.54545413,3416.48484814,4311.30302987,3037.33333303,4956.78787829,2934.30303001,4187.15151473,4059.39393899,4379.81818138,3704.9696966,4191.78787837,8.2424242416,4827.99999952,3037.33333303,4451.93939349,2897.21212092,42.0,42.0,?
2017-07-31 18:31:38.588044,4501.39393894,3535.99999965,4175.8181814,1079.75757565,3880.12121173,3890.42424204,3850.75757537,391.515151476,4268.54545412,156.60606059,4190.75757534,502.787878738,4187.15151473,3416.48484814,4312.84848442,3037.33333303,4964.51515102,2934.30303001,4186.1212117,4059.39393899,4375.18181774,3704.9696966,4192.30302988,8.2424242416,4828.51515103,3037.33333303,4449.36363592,2897.21212092,42.0,42.0,?
2017-07-31 18:31:38.598105,4494.69696925,3552.48484813,4171.69696928,1079.75757565,3877.54545416,3890.42424204,3850.75757537,391.515151476,4263.90909048,156.60606059,4210.84848443,502.787878738,4195.39393897,3416.48484814,4316.96969654,3037.33333303,4966.57575708,2934.30303001,4185.09090867,4059.39393899,4366.42424199,3704.9696966,4193.84848443,8.2424242416,4829.03030255,3037.33333303,4442.66666622,2897.21212092,42.0,42.0,?
2017-07-31 18:31:38.603839,4490.06060561,3552.48484813,4169.63636322,1071.51515141,3875.99999961,3890.42424204,3853.33333295,391.515151476,4259.27272685,156.60606059,4230.424242,502.787878738,4195.90909049,3416.48484814,4315.42424199,3037.33333303,4960.3939389,2934.30303001,4180.45454504,4059.39393899,4358.69696926,3704.9696966,4189.72727231,8.2424242416,4822.33333285,3037.33333303,4434.9393935,2897.21212092,42.0,42.0,?
2017-07-31 18:31:38.611917,4490.57575713,3552.48484813,4171.18181776,1071.51515141,3873.42424204,3890.42424204,3848.69696931,391.515151476,4259.27272685,156.60606059,4254.63636321,502.787878738,4191.27272685,3416.48484814,4309.24242381,3037.33333303,4957.30302981,2934.30303001,4175.8181814,4059.39393899,4357.15151472,3704.9696966,4188.69696928,8.2424242416,4816.66666619,3037.33333303,4435.45454501,2946.66666637,42.0,42.0,?
2017-07-31 18:31:38.619098,4492.63636319,3552.48484813,4173.75757534,1071.51515141,3870.84848446,3898.66666628,3845.60606022,391.515151476,4260.81818139,156.60606059,4280.90909048,502.787878738,4191.27272685,3416.48484814,4303.06060563,3037.33333303,4955.24242375,2934.30303001,4176.33333292,4059.39393899,4362.30302987,3704.9696966,4191.78787837,8.2424242416,4819.24242376,3037.33333303,4443.18181774,2946.66666637,42.0,42.0,?
2017-07-31 18:31:38.628600,4497.27272682,3552.48484813,4174.78787837,1071.51515141,3876.51515113,3898.66666628,3851.7878784,383.272727234,4260.81818139,156.60606059,4298.93939351,502.787878738,4188.18181776,3416.48484814,4304.60606018,3037.33333303,4951.12121163,2934.30303001,4181.99999958,4059.39393899,4366.42424199,3704.9696966,4191.78787837,8.2424242416,4821.30302982,3037.33333303,4446.78787834,2946.66666637,42.0,42.0,?
2017-07-31 18:31:38.639147,4507.06060561,3552.48484813,4175.30302989,1071.51515141,3883.72727234,3898.66666628,3854.87878749,383.272727234,4261.84848442,156.60606059,4309.75757533,502.787878738,4177.87878746,3416.48484814,4308.7272723,3037.33333303,4956.78787829,2934.30303001,4189.21212079,4059.39393899,4372.60606017,3704.9696966,4192.30302988,8.2424242416,4824.90909043,3037.33333303,4452.96969652,2946.66666637,42.0,42.0,?
2017-07-31 18:31:38.642552,4506.54545409,3552.48484813,4175.30302989,1071.51515141,3882.18181779,3898.66666628,3848.69696931,383.272727234,4259.27272685,156.60606059,4319.54545411,383.272727234,4172.21212079,3416.48484814,4306.66666624,3037.33333303,4961.93939344,2934.30303001,4187.66666625,4059.39393899,4375.18181774,3704.9696966,4194.36363594,8.2424242416,4826.96969649,3037.33333303,4453.99999955,2946.66666637,42.0,42.0,?
2017-07-31 18:31:38.650916,4494.69696925,3552.48484813,4174.27272686,1071.51515141,3873.42424204,3898.66666628,3845.09090871,383.272727234,4253.60606018,156.60606059,4328.30302987,383.272727234,4176.33333292,3437.09090875,4304.09090866,3037.33333303,4955.75757526,2934.30303001,4180.45454504,4059.39393899,4371.57575714,3704.9696966,4193.33333291,8.2424242416,4821.30302982,3037.33333303,4447.81818137,2946.66666637,42.0,42.0,?
2017-07-31 18:31:38.658500,4493.66666622,3552.48484813,4173.75757534,1071.51515141,3873.42424204,3898.66666628,3846.63636325,383.272727234,4253.09090867,156.60606059,4333.96969654,383.272727234,4183.03030261,3437.09090875,4310.27272684,3053.81818151,4956.78787829,2934.30303001,4183.03030261,4059.39393899,4376.72727229,3704.9696966,4190.75757534,8.2424242416,4820.78787831,3037.33333303,4446.78787834,2946.66666637,42.0,42.0,?
2017-07-31 18:31:38.668137,4502.93939349,3552.48484813,4173.24242383,1071.51515141,3880.63636325,3898.66666628,3847.15151477,383.272727234,4259.78787836,156.60606059,4340.66666623,383.272727234,4193.33333291,3437.09090875,4320.06060563,3053.81818151,4971.72727223,2942.54545425,4187.15151473,4059.39393899,4385.48484805,3704.9696966,4190.24242382,8.2424242416,4826.45454497,3037.33333303,4444.72727228,2946.66666637,42.0,42.0,?
2017-07-31 18:31:38.674022,4507.06060561,3552.48484813,4174.78787837,1071.51515141,3885.27272688,3898.66666628,3848.1818178,383.272727234,4265.96969654,156.60606059,4354.06060563,383.272727234,4208.78787837,3437.09090875,4323.15151472,3053.81818151,4978.93939344,2942.54545425,4183.03030261,4088.24242383,4389.60606017,3704.9696966,4193.33333291,8.2424242416,4824.90909043,3037.33333303,4439.57575713,2946.66666637,42.0,42.0,?
2017-07-31 18:31:38.682714,4506.03030258,3552.48484813,4174.27272686,1071.51515141,3886.81818143,3898.66666628,3850.75757537,383.272727234,4268.0303026,156.60606059,4370.03030259,383.272727234,4215.48484806,3437.09090875,4320.57575714,3053.81818151,4968.12121162,2942.54545425,4180.45454504,4088.24242383,4395.27272683,3671.99999963,4194.87878746,8.2424242416,4820.27272679,3037.33333303,4436.48484804,2946.66666637,42.0,42.0,?
2017-07-31 18:31:38.692557,4508.09090864,3552.48484813,4172.21212079,1071.51515141,3886.30302991,3898.66666628,3851.7878784,383.272727234,4266.48484806,156.60606059,4378.27272683,383.272727234,4203.1212117,3437.09090875,4313.36363593,3053.81818151,4958.33333284,2942.54545425,4183.54545413,4088.24242383,4401.45454501,3671.99999963,4191.27272685,12.3636363624,4822.84848437,3037.33333303,4433.90909047,2946.66666637,42.0,42.0,?
2017-07-31 18:31:38.699152,4509.12121167,3552.48484813,4170.66666625,1071.51515141,3884.24242385,3898.66666628,3850.75757537,383.272727234,4266.48484806,156.60606059,4381.87878744,383.272727234,4180.96969655,3437.09090875,4299.45454502,3053.81818151,4957.81818132,2942.54545425,4180.45454504,4088.24242383,4399.39393895,3671.99999963,4190.75757534,12.3636363624,4822.84848437,3041.45454515,4425.15151471,2946.66666637,42.0,42.0,?
2017-07-31 18:31:38.708404,4509.12121167,3552.48484813,4172.21212079,1071.51515141,3873.93939355,3898.66666628,3849.21212083,383.272727234,4269.06060563,156.60606059,4409.18181774,383.272727234,4189.72727231,3437.09090875,4300.99999957,3053.81818151,4952.15151466,2942.54545425,4166.54545413,4100.6060602,4383.42424199,3671.99999963,4190.24242382,12.3636363624,4802.75757528,3041.45454515,4406.60606017,2946.66666637,42.0,42.0,?
2017-07-31 18:31:38.713098,4509.12121167,3552.48484813,4172.21212079,1071.51515141,3873.93939355,3898.66666628,3849.21212083,383.272727234,4269.06060563,156.60606059,4409.18181774,383.272727234,4189.72727231,3437.09090875,4300.99999957,3053.81818151,4952.15151466,2942.54545425,4166.54545413,4100.6060602,4383.42424199,3671.99999963,4190.24242382,12.3636363624,4802.75757528,3041.45454515,4406.60606017,2946.66666637,42.0,42.0,?
2017-07-31 18:31:38.721042,4505.51515106,3552.48484813,4171.69696928,1071.51515141,3871.36363598,3898.66666628,3851.7878784,383.272727234,4268.0303026,156.60606059,4418.96969653,383.272727234,4197.45454503,3437.09090875,4315.42424199,3053.81818151,4946.48484799,2942.54545425,4160.36363595,4100.6060602,4382.39393896,3671.99999963,4191.78787837,8.2424242416,4803.27272679,3041.45454515,4406.09090865,2946.66666637,42.0,42.0,?
2017-07-31 18:31:38.732474,4498.30302985,3552.48484813,4168.60606019,1071.51515141,3868.7878784,3898.66666628,3846.63636325,383.272727234,4269.06060563,156.60606059,4427.21212077,383.272727234,4196.93939352,3437.09090875,4319.54545411,3053.81818151,4954.72727223,2942.54545425,4158.8181814,4100.6060602,4384.96969653,3671.99999963,4191.27272685,8.2424242416,4801.72727225,3041.45454515,4399.39393895,2946.66666637,42.0,42.0,?
2017-07-31 18:31:38.737770,4501.90909046,3552.48484813,4171.69696928,1071.51515141,3871.36363598,3898.66666628,3841.4848481,383.272727234,4266.99999957,156.60606059,4439.57575713,383.272727234,4200.03030261,3437.09090875,4317.99999957,3053.81818151,4963.9999995,2942.54545425,4166.54545413,4100.6060602,4386.51515108,3671.99999963,4191.27272685,8.2424242416,4805.84848437,3041.45454515,4399.39393895,2946.66666637,42.0,42.0,?
2017-07-31 18:31:38.744923,4506.03030258,3552.48484813,4172.21212079,1071.51515141,3873.93939355,3898.66666628,3846.12121174,383.272727234,4260.30302988,156.60606059,4443.18181774,383.272727234,4201.06060564,3437.09090875,4313.36363593,3053.81818151,4953.6969692,2942.54545425,4166.03030261,4100.6060602,4380.3333329,3671.99999963,4191.27272685,8.2424242416,4808.42424194,3041.45454515,4404.03030259,2946.66666637,42.0,42.0,?
2017-07-31 18:31:38.753360,4505.51515106,3552.48484813,4168.60606019,1071.51515141,3871.36363598,3898.66666628,3848.1818178,383.272727234,4257.21212079,156.60606059,4435.96969653,383.272727234,4190.75757534,3437.09090875,4303.06060563,3053.81818151,4941.33333284,2942.54545425,4157.78787837,4100.6060602,4372.60606017,3671.99999963,4190.75757534,8.2424242416,4800.1818177,3041.45454515,4401.96969653,2946.66666637,42.0,42.0,?
2017-07-31 18:31:38.760013,4514.78787834,3552.48484813,4172.21212079,1071.51515141,3871.87878749,3898.66666628,3845.09090871,383.272727234,4261.33333291,156.60606059,4440.09090865,383.272727234,4183.54545413,3437.09090875,4297.90909048,3053.81818151,4942.36363587,2942.54545425,4158.30302989,4100.6060602,4372.09090865,3671.99999963,4191.78787837,8.2424242416,4800.69696922,3041.45454515,4405.06060562,2946.66666637,42.0,42.0,?
2017-07-31 18:31:38.769271,4524.57575712,3552.48484813,4176.33333292,1071.51515141,3878.06060567,3898.66666628,3849.72727234,383.272727234,4265.96969654,156.60606059,4452.96969652,383.272727234,4190.24242382,3437.09090875,4302.0303026,3053.81818151,4946.99999951,2942.54545425,4164.48484807,4100.6060602,4380.3333329,3671.99999963,4192.30302988,8.2424242416,4812.03030255,3041.45454515,4414.84848441,2946.66666637,42.0,42.0,?
2017-07-31 18:31:38.775588,4524.57575712,3552.48484813,4172.72727231,1071.51515141,3882.18181779,3898.66666628,3855.90909052,383.272727234,4264.93939351,156.60606059,4458.12121168,383.272727234,4201.57575716,3437.09090875,4308.21212078,3053.81818151,4951.63636314,2942.54545425,4168.09090867,4100.6060602,4388.06060562,3671.99999963,4191.78787837,8.2424242416,4816.66666619,3041.45454515,4421.5454541,2946.66666637,42.0,42.0,?
2017-07-31 18:31:38.784350,4521.48484803,3552.48484813,4171.18181776,1071.51515141,3880.63636325,3898.66666628,3856.93939355,383.272727234,4266.48484806,156.60606059,4460.69696925,383.272727234,4209.8181814,3437.09090875,4315.93939351,3053.81818151,4961.93939344,2942.54545425,4170.66666625,4100.6060602,4381.36363593,3671.99999963,4190.75757534,8.2424242416,4810.99999952,3041.45454515,4419.48484804,2946.66666637,42.0,42.0,?
2017-07-31 18:31:38.791884,4513.75757531,3552.48484813,4173.75757534,1071.51515141,3877.03030264,3898.66666628,3853.84848446,383.272727234,4268.54545412,156.60606059,4462.2424238,383.272727234,4209.8181814,3437.09090875,4317.99999957,3053.81818151,4962.45454496,2942.54545425,4164.48484807,4100.6060602,4369.51515108,3671.99999963,4190.75757534,8.2424242416,4806.8787874,3041.45454515,4412.27272683,2946.66666637,42.0,42.0,?
2017-07-31 18:31:38.799739,4507.06060561,3552.48484813,4171.69696928,1071.51515141,3878.57575719,3898.66666628,3850.75757537,383.272727234,4263.90909048,156.60606059,4458.12121168,383.272727234,4204.15151473,3437.09090875,4312.84848442,3053.81818151,4956.78787829,2942.54545425,4160.36363595,4100.6060602,4372.09090865,3671.99999963,4191.27272685,8.2424242416,4810.484848,3041.45454515,4410.21212077,2946.66666637,42.0,42.0,?
2017-07-31 18:31:38.807856,4513.24242379,3552.48484813,4170.15151473,1071.51515141,3886.30302991,3898.66666628,3857.96969658,383.272727234,4262.87878745,156.60606059,4453.99999955,383.272727234,4201.06060564,3437.09090875,4311.30302987,3053.81818151,4959.36363587,2942.54545425,4172.21212079,4100.6060602,4379.81818138,3671.99999963,4190.75757534,8.2424242416,4815.63636315,3041.45454515,4417.42424198,2946.66666637,42.0,42.0,?
2017-07-31 18:31:38.815205,4523.03030258,3552.48484813,4173.75757534,1071.51515141,3890.42424204,3898.66666628,3863.12121173,383.272727234,4263.90909048,156.60606059,4449.36363592,383.272727234,4198.48484806,3437.09090875,4315.93939351,3053.81818151,4959.36363587,2942.54545425,4177.36363595,4100.6060602,4380.3333329,3671.99999963,4191.78787837,8.2424242416,4816.66666619,3041.45454515,4424.63636319,2946.66666637,42.0,42.0,?
2017-07-31 18:31:38.822830,4524.06060561,3552.48484813,4173.75757534,1071.51515141,3888.36363597,3898.66666628,3855.39393901,383.272727234,4260.81818139,156.60606059,4451.42424198,383.272727234,4193.33333291,3437.09090875,4317.48484805,3053.81818151,4956.27272678,2942.54545425,4170.15151473,4100.6060602,4380.84848441,3671.99999963,4193.33333291,8.2424242416,4816.66666619,3041.45454515,4424.63636319,2946.66666637,42.0,42.0,?
2017-07-31 18:31:38.831893,4521.48484803,3552.48484813,4171.69696928,1071.51515141,3888.87878749,3898.66666628,3855.90909052,383.272727234,4261.84848442,156.60606059,4465.8484844,383.272727234,4192.8181814,3437.09090875,4317.48484805,3053.81818151,4965.54545405,2942.54545425,4172.72727231,4100.6060602,4384.45454502,3671.99999963,4192.8181814,8.2424242416,4816.66666619,3041.45454515,4422.06060562,2946.66666637,42.0,42.0,?
2017-07-31 18:31:38.838010,4521.99999955,3552.48484813,4171.18181776,1071.51515141,3890.42424204,3898.66666628,3863.12121173,383.272727234,4265.96969654,156.60606059,4476.1515147,383.272727234,4197.96969655,3437.09090875,4320.06060563,3053.81818151,4974.81818132,2942.54545425,4177.87878746,4100.6060602,4383.42424199,3671.99999963,4192.30302988,8.2424242416,4815.63636315,3041.45454515,4425.15151471,2946.66666637,42.0,42.0,?
2017-07-31 18:31:38.846147,4523.03030258,3552.48484813,4169.63636322,1071.51515141,3889.393939,3898.66666628,3860.03030264,383.272727234,4264.424242,156.60606059,4480.78787834,383.272727234,4200.03030261,3437.09090875,4319.54545411,3053.81818151,4963.9999995,2942.54545425,4170.66666625,4100.6060602,4374.66666623,3671.99999963,4190.75757534,8.2424242416,4809.96969649,3041.45454515,4427.72727228,2946.66666637,42.0,42.0,?
2017-07-31 18:31:38.854059,4518.39393894,3552.48484813,4169.63636322,1071.51515141,3885.7878784,3898.66666628,3855.90909052,383.272727234,4260.81818139,156.60606059,4487.99999955,383.272727234,4196.424242,3437.09090875,4312.3333329,3053.81818151,4945.96969648,2942.54545425,4164.48484807,4100.6060602,4365.90909047,3671.99999963,4190.75757534,8.2424242416,4805.84848437,3041.45454515,4426.18181774,2946.66666637,42.0,42.0,?
2017-07-31 18:31:38.862077,4518.90909046,3552.48484813,4171.18181776,1071.51515141,3885.27272688,3898.66666628,3857.45454507,383.272727234,4262.36363594,156.60606059,4489.03030258,383.272727234,4195.39393897,3437.09090875,4308.7272723,3053.81818151,4942.87878738,2942.54545425,4169.1212117,4100.6060602,4368.48484805,3671.99999963,4191.78787837,8.2424242416,4807.39393891,3041.45454515,4426.18181774,2946.66666637,42.0,42.0,?
2017-07-31 18:31:38.870124,4526.12121167,3552.48484813,4172.72727231,1071.51515141,3887.84848446,3898.66666628,3855.39393901,383.272727234,4261.84848442,156.60606059,4480.78787834,383.272727234,4198.48484806,3437.09090875,4310.27272684,3053.81818151,4943.90909041,2942.54545425,4176.84848443,4100.6060602,4375.69696926,3671.99999963,4189.72727231,8.2424242416,4810.484848,3041.45454515,4430.30302986,2946.66666637,42.0,42.0,?
2017-07-31 18:31:38.877407,4524.57575712,3552.48484813,4172.72727231,1071.51515141,3889.90909052,3898.66666628,3852.81818143,383.272727234,4260.30302988,156.60606059,4480.27272682,383.272727234,4201.57575716,3437.09090875,4311.81818139,3053.81818151,4943.90909041,2942.54545425,4177.87878746,4100.6060602,4376.72727229,3671.99999963,4189.21212079,8.2424242416,4812.54545406,3041.45454515,4432.87878744,2946.66666637,42.0,42.0,?
2017-07-31 18:31:38.885029,4514.78787834,3552.48484813,4170.15151473,1071.51515141,3887.33333294,3898.66666628,3859.51515113,383.272727234,4262.36363594,156.60606059,4488.51515107,383.272727234,4200.03030261,3437.09090875,4313.36363593,3053.81818151,4950.60606011,2942.54545425,4174.78787837,4100.6060602,4372.09090865,3671.99999963,4189.21212079,8.2424242416,4803.78787831,3041.45454515,4427.21212077,2946.66666637,42.0,42.0,?
2017-07-31 18:31:38.893179,4507.57575713,3552.48484813,4168.09090867,1071.51515141,3880.12121173,3898.66666628,3860.54545416,383.272727234,4262.87878745,156.60606059,4488.51515107,383.272727234,4189.21212079,3437.09090875,4315.42424199,3053.81818151,4956.27272678,2942.54545425,4168.09090867,4100.6060602,4363.84848441,3671.99999963,4189.72727231,8.2424242416,4792.45454498,3041.45454515,4419.48484804,2946.66666637,42.0,42.0,?
2017-07-31 18:31:38.900399,4510.66666622,3552.48484813,4167.57575716,1071.51515141,3880.63636325,3898.66666628,3857.96969658,383.272727234,4263.90909048,156.60606059,4484.90909046,383.272727234,4183.54545413,3437.09090875,4316.45454502,3053.81818151,4957.30302981,2942.54545425,4166.54545413,4100.6060602,4364.87878744,3671.99999963,4191.27272685,8.2424242416,4797.60606013,3041.45454515,4421.5454541,2946.66666637,42.0,42.0,?
2017-07-31 18:31:38.908335,4518.39393894,3552.48484813,4169.1212117,1071.51515141,3890.93939355,3898.66666628,3861.06060567,383.272727234,4267.51515109,156.60606059,4488.51515107,383.272727234,4188.69696928,3437.09090875,4317.48484805,3053.81818151,4956.78787829,2942.54545425,4170.66666625,4100.6060602,4374.66666623,3671.99999963,4191.78787837,8.2424242416,4808.42424194,3041.45454515,4430.30302986,2946.66666637,42.0,42.0,?
2017-07-31 18:31:38.916421,4517.87878743,3552.48484813,4171.69696928,1071.51515141,3892.99999961,3898.66666628,3864.15151477,383.272727234,4270.09090866,156.60606059,4492.12121167,383.272727234,4186.63636322,3437.09090875,4313.87878745,3053.81818151,4950.60606011,2942.54545425,4171.18181776,4100.6060602,4375.69696926,3671.99999963,4190.75757534,8.2424242416,4805.84848437,3041.45454515,4431.33333289,2946.66666637,42.0,42.0,?
2017-07-31 18:31:38.924976,4511.69696925,3552.48484813,4171.69696928,1071.51515141,3889.393939,3898.66666628,3861.57575719,383.272727234,4268.0303026,156.60606059,4487.99999955,383.272727234,4178.39393898,3437.09090875,4306.15151472,3053.81818151,4944.93939344,2942.54545425,4167.06060564,4100.6060602,4365.90909047,3671.99999963,4189.21212079,8.2424242416,4793.48484801,3041.45454515,4420.51515107,2946.66666637,42.0,42.0,?
2017-07-31 18:31:38.934310,4510.66666622,3552.48484813,4173.75757534,1071.51515141,3889.90909052,3898.66666628,3860.54545416,383.272727234,4265.96969654,156.60606059,4490.06060561,383.272727234,4186.63636322,3437.09090875,4307.18181775,3053.81818151,4945.96969648,2942.54545425,4166.03030261,4100.6060602,4366.42424199,3671.99999963,4189.21212079,8.2424242416,4794.51515104,3041.45454515,4419.99999956,2946.66666637,42.0,42.0,?
2017-07-31 18:31:38.940765,4515.81818137,3552.48484813,4176.33333292,1071.51515141,3890.42424204,3898.66666628,3865.69696931,383.272727234,4268.54545412,156.60606059,4498.81818137,383.272727234,4201.57575716,3437.09090875,4317.48484805,3053.81818151,4957.30302981,2942.54545425,4174.27272686,4100.6060602,4376.72727229,3671.99999963,4191.27272685,8.2424242416,4808.42424194,3041.45454515,4432.87878744,2946.66666637,42.0,42.0,?
2017-07-31 18:31:38.947747,4520.96969652,3552.48484813,4173.75757534,1071.51515141,3895.06060567,3898.66666628,3868.7878784,383.272727234,4274.21212078,156.60606059,4503.454545,383.272727234,4203.63636322,3437.09090875,4324.18181775,3053.81818151,4969.15151465,2942.54545425,4180.45454504,4100.6060602,4377.75757532,3671.99999963,4191.78787837,8.2424242416,4813.06060558,3041.45454515,4435.45454501,2946.66666637,42.0,42.0,?
2017-07-31 18:31:38.954994,4523.03030258,3552.48484813,4172.21212079,1071.51515141,3900.72727234,3898.66666628,3872.90909052,383.272727234,4277.30302988,156.60606059,4504.99999955,383.272727234,4203.63636322,3437.09090875,4327.27272684,3053.81818151,4965.03030253,2942.54545425,4182.5151511,4100.6060602,4377.75757532,3671.99999963,4190.75757534,8.2424242416,4812.54545406,3041.45454515,4431.84848441,2946.66666637,42.0,42.0,?
2017-07-31 18:31:38.964938,4517.36363591,3552.48484813,4170.15151473,1071.51515141,3897.12121173,3898.66666628,3873.93939355,383.272727234,4278.33333291,156.60606059,4506.03030258,383.272727234,4203.63636322,3437.09090875,4326.75757532,3053.81818151,4953.6969692,2942.54545425,4183.54545413,4100.6060602,4380.3333329,3671.99999963,4190.75757534,8.2424242416,4812.03030255,3041.45454515,4428.2424238,2946.66666637,42.0,42.0,?
2017-07-31 18:31:38.971202,4511.18181773,3552.48484813,4169.1212117,1071.51515141,3890.93939355,3898.66666628,3865.1818178,383.272727234,4275.75757533,156.60606059,4502.93939349,383.272727234,4194.87878746,3437.09090875,4320.57575714,3053.81818151,4955.75757526,2942.54545425,4181.99999958,4100.6060602,4377.75757532,3671.99999963,4192.30302988,8.2424242416,4808.93939346,3041.45454515,4423.60606016,2946.66666637,42.0,42.0,?
