Timestamp,F3 Value,F3 Quality,FC5 Value,FC5 Quality,F7 Value,F7 Quality,T7 Value,T7 Quality,P7 Value,P7 Quality,O1 Value,O1 Quality,O2 Value,O2 Quality,P8 Value,P8 Quality,T8 Value,T8 Quality,F8 Value,F8 Quality,AF4 Value,AF4 Quality,FC6 Value,FC6 Quality,F4 Value,F4 Quality,AF3 Value,AF3 Quality,X Value,Y Value,Z Value
2017-08-01 19:17:57.081405,4521.48484803,0,4191.27272685,0,3900.21212082,0,3822.42424204,0,4289.15151472,0,4471.51515107,0,4196.424242,0,4329.3333329,0,5002.12121162,0,4171.18181776,0,4372.60606017,0,4219.60606018,0,4843.96969649,0,4469.96969652,0,42.0,42.0,?
2017-08-01 19:17:57.083245,4534.87878743,0,4187.66666625,0,3909.99999961,0,3849.72727234,0,4274.21212078,0,4438.5454541,0,4193.33333291,0,4317.48484805,0,4965.03030253,0,4174.78787837,0,4397.33333289,0,4193.33333291,0,4827.99999952,0,4470.48484804,0,42.0,42.0,?
2017-08-01 19:17:57.087616,4537.96969652,0,4190.75757534,0,3916.69696931,0,3863.63636325,0,4270.09090866,0,4432.87878744,0,4191.78787837,0,4319.54545411,0,4966.06060556,0,4180.96969655,0,4395.27272683,0,4192.8181814,0,4828.51515103,0,4480.27272682,0,42.0,42.0,?
2017-08-01 19:17:57.092330,4540.03030258,0,4191.27272685,0,3916.69696931,0,3888.36363597,0,4267.51515109,0,4435.45454501,0,4194.36363594,0,4321.60606017,0,4957.81818132,0,4183.03030261,0,4393.72727229,0,4192.8181814,0,4830.57575709,0,4475.63636319,0,42.0,42.0,?
2017-08-01 19:17:57.096763,4542.09090864,0,4188.69696928,0,3915.15151476,0,3888.87878749,0,4272.15151472,0,4438.5454541,0,4194.36363594,0,4319.54545411,0,4950.0909086,0,4185.09090867,0,4401.96969653,0,4196.424242,0,4835.21212073,0,4472.03030258,0,42.0,42.0,?
2017-08-01 19:17:57.099925,4544.66666621,0,4191.27272685,0,3918.24242385,0,3882.69696931,0,4274.21212078,0,4433.39393895,0,4196.424242,0,4316.45454502,0,4939.27272678,0,4176.33333292,0,4408.66666623,0,4205.18181776,0,4841.39393891,0,4484.90909046,0,42.0,42.0,?
2017-08-01 19:17:57.103272,4547.24242379,0,4190.75757534,0,3921.33333294,0,3879.60606022,0,4280.90909048,0,4433.90909047,0,4213.93939352,0,4329.3333329,0,4960.90909041,0,4177.36363595,0,4409.18181774,0,4206.72727231,0,4847.57575709,0,4494.18181773,0,42.0,42.0,?
2017-08-01 19:17:57.109190,4543.12121167,0,4189.21212079,0,3916.69696931,0,3882.69696931,0,4283.99999957,0,4439.06060562,0,4225.27272685,0,4343.75757532,0,4989.24242374,0,4191.78787837,0,4400.42424198,0,4198.99999958,0,4841.90909042,0,4482.33333289,0,42.0,42.0,?
2017-08-01 19:17:57.119936,4529.21212076,0,4188.69696928,0,3909.48484809,0,3881.66666628,0,4277.30302988,0,4441.12121168,0,4212.90909049,0,4338.09090866,0,4975.84848435,0,4192.30302988,0,4386.51515108,0,4195.39393897,0,4826.96969649,0,4467.90909046,0,42.0,42.0,?
2017-08-01 19:17:57.122073,4526.12121167,0,4187.15151473,0,3908.45454506,0,3864.66666628,0,4275.24242381,0,4443.69696925,0,4205.69696928,0,4331.90909048,0,4962.45454496,0,4180.96969655,0,4382.39393896,0,4196.93939352,0,4825.42424194,0,4470.99999955,0,42.0,42.0,?
2017-08-01 19:17:57.126710,4537.454545,0,4188.18181776,0,3910.51515112,0,3868.7878784,0,4274.7272723,0,4445.2424238,0,4215.48484806,0,4338.09090866,0,4979.45454496,0,4185.09090867,0,4392.69696926,0,4203.63636322,0,4835.21212073,0,4482.8484844,0,42.0,42.0,?
2017-08-01 19:17:57.129997,4537.96969652,0,4188.69696928,0,3908.45454506,0,3890.93939355,0,4273.18181775,0,4439.57575713,0,4215.48484806,0,4338.09090866,0,4984.09090859,0,4196.93939352,0,4401.45454501,0,4204.15151473,0,4836.75757527,0,4483.87878743,0,42.0,42.0,?
2017-08-01 19:17:57.133342,4533.33333288,0,4190.75757534,0,3910.51515112,0,3888.87878749,0,4279.36363594,0,4437.51515107,0,4201.57575716,0,4327.27272684,0,4965.54545405,0,4193.33333291,0,4398.36363592,0,4200.54545413,0,4831.60606012,0,4475.12121167,0,42.0,42.0,?
2017-08-01 19:17:57.136732,4538.99999955,0,4191.78787837,0,3914.12121173,0,3875.4848481,0,4282.45454503,0,4441.12121168,0,4196.424242,0,4324.69696926,0,4960.90909041,0,4184.06060564,0,4388.06060562,0,4202.60606019,0,4827.99999952,0,4475.12121167,0,42.0,42.0,?
2017-08-01 19:17:57.140058,4541.57575712,0,4187.15151473,0,3911.54545415,0,3871.87878749,0,4276.27272685,0,4439.06060562,0,4200.03030261,0,4328.30302987,0,4969.15151465,0,4181.99999958,0,4383.42424199,0,4203.63636322,0,4827.99999952,0,4485.42424198,0,42.0,42.0,?
2017-08-01 19:17:57.143348,4541.06060561,0,4189.21212079,0,3909.99999961,0,3875.99999961,0,4271.12121169,0,4432.36363592,0,4203.63636322,0,4327.27272684,0,4977.3939389,0,4184.06060564,0,4393.21212077,0,4197.96969655,0,4833.15151467,0,4484.90909046,0,42.0,42.0,?
2017-08-01 19:17:57.146588,4544.66666621,0,4192.30302988,0,3909.99999961,0,3869.30302992,0,4269.57575715,0,4435.45454501,0,4208.27272685,0,4325.72727229,0,4984.09090859,0,4186.1212117,0,4398.87878744,0,4193.33333291,0,4838.81818133,0,4474.60606016,0,42.0,42.0,?
2017-08-01 19:17:57.149617,4543.63636318,0,4187.15151473,0,3909.99999961,0,3855.39393901,0,4274.7272723,0,4440.60606016,0,4213.424242,0,4324.69696926,0,4973.27272678,0,4189.21212079,0,4394.75757532,0,4198.99999958,0,4840.36363588,0,4475.12121167,0,42.0,42.0,?
2017-08-01 19:17:57.154958,4540.03030258,0,4186.63636322,0,3911.54545415,0,3871.36363598,0,4284.51515109,0,4441.63636319,0,4213.424242,0,4322.6363632,0,4950.0909086,0,4194.87878746,0,4395.78787835,0,4206.21212079,0,4842.42424194,0,4486.45454501,0,42.0,42.0,?
2017-08-01 19:17:57.164767,4543.12121167,0,4190.75757534,0,3909.99999961,0,3905.36363597,0,4287.09090866,0,4444.21212077,0,4211.36363594,0,4322.12121169,0,4947.51515102,0,4192.30302988,0,4400.42424198,0,4203.63636322,0,4844.99999952,0,4487.48484804,0,42.0,42.0,?
2017-08-01 19:17:57.171643,4548.27272682,0,4190.75757534,0,3906.90909052,0,3895.57575719,0,4281.93939351,0,4448.33333289,0,4213.424242,0,4325.21212078,0,4972.24242375,0,4186.1212117,0,4399.90909047,0,4202.09090867,0,4845.51515103,0,4482.33333289,0,42.0,42.0,?
2017-08-01 19:17:57.182209,4545.18181773,0,4188.69696928,0,3908.96969658,0,3869.81818143,0,4282.45454503,0,4456.57575713,0,4213.424242,0,4330.87878745,0,4989.75757526,0,4192.30302988,0,4402.99999956,0,4205.69696928,0,4843.96969649,0,4483.87878743,0,42.0,42.0,?
2017-08-01 19:17:57.196712,4538.99999955,0,4189.72727231,0,3912.57575718,0,3880.12121173,0,4287.60606018,0,4461.21212077,0,4208.27272685,0,4330.87878745,0,4980.9999995,0,4198.48484806,0,4405.06060562,0,4206.21212079,0,4838.30302982,0,4482.8484844,0,42.0,42.0,?
2017-08-01 19:17:57.201598,4536.42424197,0,4191.27272685,0,3909.48484809,0,3887.84848446,0,4287.09090866,0,4451.93939349,0,4202.60606019,0,4325.72727229,0,4962.45454496,0,4191.78787837,0,4398.36363592,0,4202.60606019,0,4833.15151467,0,4479.24242379,0,42.0,42.0,?
2017-08-01 19:17:57.204595,4542.60606015,0,4188.69696928,0,3905.36363597,0,3883.21212082,0,4294.30302987,0,4449.87878743,0,4210.33333291,0,4332.93939351,0,4964.51515102,0,4184.06060564,0,4392.18181774,0,4204.66666625,0,4840.36363588,0,4481.30302985,0,42.0,42.0,?
2017-08-01 19:17:57.210200,4542.60606015,0,4188.69696928,0,3905.36363597,0,3883.21212082,0,4294.30302987,0,4449.87878743,0,4210.33333291,0,4332.93939351,0,4964.51515102,0,4184.06060564,0,4392.18181774,0,4204.66666625,0,4840.36363588,0,4482.8484844,0,42.0,42.0,?
2017-08-01 19:17:57.217846,4537.454545,0,4189.21212079,0,3905.87878749,0,3891.45454507,0,4293.78787836,0,4450.90909046,0,4217.03030261,0,4334.99999957,0,4975.84848435,0,4185.09090867,0,4393.72727229,0,4204.66666625,0,4839.84848436,0,4482.33333289,0,42.0,42.0,?
2017-08-01 19:17:57.226402,4538.99999955,0,4186.1212117,0,3906.90909052,0,3881.66666628,0,4287.60606018,0,4445.75757531,0,4217.03030261,0,4334.99999957,0,4979.45454496,0,4197.96969655,0,4401.96969653,0,4203.63636322,0,4842.93939346,0,4488.51515107,0,42.0,42.0,?
2017-08-01 19:17:57.234267,4552.90909045,0,4186.63636322,0,3905.36363597,0,3869.30302992,0,4285.0303026,0,4444.72727228,0,4211.36363594,0,4334.99999957,0,4972.75757526,0,4197.45454503,0,4407.12121168,0,4205.18181776,0,4849.63636315,0,4491.09090864,0,42.0,42.0,?
2017-08-01 19:17:57.246334,4556.51515106,0,4187.15151473,0,3903.81818143,0,3877.03030264,0,4284.51515109,0,4445.2424238,0,4208.27272685,0,4329.84848442,0,4962.96969647,0,4182.5151511,0,4401.45454501,0,4205.69696928,0,4849.12121164,0,4482.8484844,0,42.0,42.0,?
2017-08-01 19:17:57.250438,4546.21212076,0,4188.69696928,0,3903.81818143,0,3886.30302991,0,4280.39393897,0,4445.75757531,0,4210.84848443,0,4322.12121169,0,4959.87878738,0,4186.1212117,0,4394.2424238,0,4204.66666625,0,4843.45454497,0,4476.66666622,0,42.0,42.0,?
2017-08-01 19:17:57.257430,4540.54545409,0,4190.24242382,0,3903.81818143,0,3885.7878784,0,4280.39393897,0,4448.33333289,0,4213.424242,0,4322.12121169,0,4957.30302981,0,4195.90909049,0,4393.72727229,0,4205.69696928,0,4835.21212073,0,4478.21212076,0,42.0,42.0,?
2017-08-01 19:17:57.264548,4542.09090864,0,4187.15151473,0,3906.90909052,0,3871.36363598,0,4285.0303026,0,4442.66666622,0,4210.33333291,0,4326.24242381,0,4954.72727223,0,4187.15151473,0,4395.27272683,0,4205.69696928,0,4831.60606012,0,4485.42424198,0,42.0,42.0,?
2017-08-01 19:17:57.275369,4546.21212076,0,4186.63636322,0,3909.99999961,0,3868.7878784,0,4279.36363594,0,4430.30302986,0,4200.03030261,0,4323.15151472,0,4967.60606011,0,4178.39393898,0,4397.84848441,0,4203.63636322,0,4839.33333285,0,4492.63636319,0,42.0,42.0,?
2017-08-01 19:17:57.281411,4549.81818136,0,4186.1212117,0,3906.90909052,0,3887.84848446,0,4272.15151472,0,4424.12121168,0,4194.87878746,0,4323.15151472,0,4980.9999995,0,4185.09090867,0,4398.87878744,0,4203.63636322,0,4848.09090861,0,4498.30302985,0,42.0,42.0,?
2017-08-01 19:17:57.288336,4550.33333288,0,4187.66666625,0,3903.30302991,0,3880.12121173,0,4272.15151472,0,4425.15151471,0,4201.57575716,0,4322.6363632,0,4971.21212072,0,4189.72727231,0,4399.39393895,0,4205.18181776,0,4847.57575709,0,4496.24242379,0,42.0,42.0,?
2017-08-01 19:17:57.296376,4543.63636318,0,4190.75757534,0,3903.30302991,0,3864.15151477,0,4271.12121169,0,4424.12121168,0,4199.5151511,0,4313.87878745,0,4955.75757526,0,4187.15151473,0,4396.81818138,0,4204.15151473,0,4841.39393891,0,4484.90909046,0,42.0,42.0,?
2017-08-01 19:17:57.304054,4538.48484803,0,4189.21212079,0,3901.24242385,0,3877.54545416,0,4265.45454503,0,4421.5454541,0,4192.8181814,0,4314.90909048,0,4957.30302981,0,4185.09090867,0,4395.78787835,0,4205.18181776,0,4837.7878783,0,4481.81818137,0,42.0,42.0,?
2017-08-01 19:17:57.311623,4543.12121167,0,4188.69696928,0,3898.66666628,0,3882.18181779,0,4263.39393897,0,4424.12121168,0,4194.36363594,0,4321.09090866,0,4954.21212072,0,4184.06060564,0,4399.90909047,0,4204.66666625,0,4841.39393891,0,4482.8484844,0,42.0,42.0,?
2017-08-01 19:17:57.321056,4542.60606015,0,4189.21212079,0,3899.69696931,0,3864.15151477,0,4274.21212078,0,4429.27272683,0,4198.48484806,0,4315.42424199,0,4942.87878738,0,4182.5151511,0,4394.75757532,0,4204.15151473,0,4841.90909042,0,4481.30302985,0,42.0,42.0,?
2017-08-01 19:17:57.327322,4536.42424197,0,4190.24242382,0,3901.24242385,0,3872.90909052,0,4279.87878745,0,4427.72727228,0,4192.8181814,0,4309.75757533,0,4950.0909086,0,4174.27272686,0,4383.42424199,0,4204.15151473,0,4830.06060558,0,4476.1515147,0,42.0,42.0,?
2017-08-01 19:17:57.335589,4529.21212076,0,4190.75757534,0,3897.12121173,0,3899.18181779,0,4268.0303026,0,4421.03030259,0,4184.57575716,0,4309.24242381,0,4958.84848435,0,4164.48484807,0,4376.21212077,0,4196.93939352,0,4817.1818177,0,4466.87878743,0,42.0,42.0,?
2017-08-01 19:17:57.344003,4520.96969652,0,4186.63636322,0,3890.42424204,0,3883.72727234,0,4260.81818139,0,4419.48484804,0,4184.57575716,0,4310.78787836,0,4943.3939389,0,4164.48484807,0,4371.06060562,0,4193.33333291,0,4816.66666619,0,4459.66666622,0,42.0,42.0,?
2017-08-01 19:17:57.351395,4523.03030258,3029.09090879,4188.69696928,0,3894.03030264,0,3851.27272689,0,4268.0303026,0,4421.5454541,0,4188.69696928,0,4314.39393896,0,4929.99999951,0,4168.09090867,0,4373.12121168,0,4200.54545413,0,4824.90909043,0,4463.27272683,0,42.0,42.0,?
2017-08-01 19:17:57.360957,4529.21212076,3029.09090879,4190.24242382,1219.87878776,3898.15151476,0,3864.15151477,0,4268.54545412,0,4419.99999956,0,4190.24242382,0,4315.42424199,0,4951.63636314,0,4173.24242383,0,4379.30302987,0,4206.21212079,0,4828.51515103,0,4476.66666622,0,42.0,42.0,?
2017-08-01 19:17:57.367647,4528.18181773,3029.09090879,4188.18181776,1219.87878776,3894.03030264,0,3896.60606022,0,4264.424242,0,4422.06060562,0,4188.69696928,0,4317.48484805,0,4970.18181768,0,4175.8181814,0,4379.30302987,0,4202.09090867,0,4825.93939346,0,4483.36363592,4104.72727232,42.0,42.0,?
2017-08-01 19:17:57.374506,4526.63636318,3029.09090879,4189.21212079,1219.87878776,3892.4848481,2740.60606033,3890.93939355,0,4267.51515109,0,4426.69696925,0,4187.66666625,0,4316.45454502,0,4951.12121163,0,4170.66666625,0,4377.75757532,0,4200.54545413,0,4825.42424194,0,4476.66666622,4104.72727232,42.0,42.0,?
2017-08-01 19:17:57.384543,4532.30302985,3029.09090879,4186.1212117,1219.87878776,3896.60606022,2740.60606033,3871.36363598,3045.57575727,4266.48484806,0,4427.72727228,0,4190.24242382,0,4312.84848442,0,4945.96969648,0,4174.27272686,0,4388.57575714,0,4210.84848443,0,4836.24242376,0,4474.09090864,4104.72727232,42.0,42.0,?
2017-08-01 19:17:57.389993,4542.60606015,3029.09090879,4187.66666625,1219.87878776,3903.30302991,2740.60606033,3881.15151476,3045.57575727,4267.51515109,49.4545454496,4434.42424198,0,4200.03030261,0,4321.60606017,0,4970.6969692,0,4193.33333291,0,4400.42424198,0,4216.51515109,0,4851.69696921,0,4487.99999955,4104.72727232,42.0,42.0,?
2017-08-01 19:17:57.397988,4546.21212076,3029.09090879,4191.27272685,1219.87878776,3906.393939,2740.60606033,3894.03030264,3045.57575727,4280.39393897,49.4545454496,4443.18181774,4158.30302989,4212.90909049,0,4337.06060563,0,4982.54545405,0,4206.72727231,0,4399.90909047,0,4215.99999958,0,4855.30302982,0,4497.27272682,4104.72727232,42.0,42.0,?
2017-08-01 19:17:57.405586,4536.93939349,3029.09090879,4187.66666625,1219.87878776,3900.21212082,2740.60606033,3888.87878749,3045.57575727,4281.93939351,49.4545454496,4439.57575713,4158.30302989,4212.90909049,3222.78787847,4340.66666623,0,4974.30302981,0,4198.48484806,0,4392.18181774,0,4216.51515109,0,4843.96969649,0,4487.48484804,4104.72727232,42.0,42.0,?
2017-08-01 19:17:57.413929,4529.21212076,3029.09090879,4188.18181776,1219.87878776,3895.57575719,2740.60606033,3879.60606022,3045.57575727,4270.60606018,49.4545454496,4430.30302986,4158.30302989,4204.15151473,3222.78787847,4332.42424199,2703.51515124,4965.54545405,0,4179.93939352,0,4382.90909047,0,4210.84848443,0,4833.15151467,0,4480.27272682,4104.72727232,42.0,42.0,?
2017-08-01 19:17:57.421531,4537.96969652,3029.09090879,4190.75757534,1219.87878776,3900.72727234,2740.60606033,3879.60606022,3045.57575727,4267.51515109,49.4545454496,4424.12121168,4158.30302989,4202.09090867,3222.78787847,4328.30302987,2703.51515124,4961.42424193,2934.30303001,4176.33333292,0,4381.87878744,0,4207.75757534,0,4833.66666618,0,4486.96969652,4104.72727232,42.0,42.0,?
2017-08-01 19:17:57.429062,4549.30302985,3029.09090879,4191.27272685,1219.87878776,3904.84848446,2740.60606033,3883.72727234,3045.57575727,4270.09090866,49.4545454496,4421.5454541,4158.30302989,4200.54545413,3222.78787847,4324.18181775,2703.51515124,4960.3939389,2934.30303001,4190.24242382,111.272727262,4393.72727229,0,4211.36363594,0,4841.90909042,0,4494.69696925,4104.72727232,42.0,42.0,?
2017-08-01 19:17:57.439150,4549.81818136,3029.09090879,4189.72727231,1219.87878776,3902.7878784,2740.60606033,3880.12121173,3045.57575727,4269.06060563,49.4545454496,4422.57575713,4158.30302989,4196.424242,3222.78787847,4323.15151472,2703.51515124,4965.54545405,2934.30303001,4200.03030261,111.272727262,4401.96969653,3531.87878753,4212.90909049,0,4846.03030255,0,4498.81818137,4104.72727232,42.0,42.0,?
2017-08-01 19:17:57.445379,4544.66666621,3029.09090879,4186.63636322,1219.87878776,3900.21212082,2740.60606033,3880.12121173,3045.57575727,4265.96969654,49.4545454496,4419.99999956,4158.30302989,4193.33333291,3222.78787847,4324.69696926,2703.51515124,4961.93939344,2934.30303001,4196.424242,111.272727262,4394.2424238,3531.87878753,4212.90909049,2703.51515124,4841.90909042,0,4496.75757531,4104.72727232,42.0,42.0,?
2017-08-01 19:17:57.453171,4542.60606015,3029.09090879,4190.24242382,1219.87878776,3902.7878784,2740.60606033,3888.36363597,3045.57575727,4260.81818139,49.4545454496,4412.27272683,4158.30302989,4187.15151473,3222.78787847,4315.42424199,2703.51515124,4945.45454496,2934.30303001,4190.75757534,111.272727262,4387.54545411,3531.87878753,4212.90909049,2703.51515124,4838.81818133,2954.90909061,4484.90909046,4104.72727232,42.0,42.0,?
2017-08-01 19:17:57.460633,4542.09090864,3029.09090879,4190.75757534,1219.87878776,3905.87878749,2740.60606033,3895.06060567,3045.57575727,4251.03030261,49.4545454496,4408.15151471,4158.30302989,4181.48484807,3222.78787847,4302.0303026,2703.51515124,4946.48484799,2934.30303001,4185.60606019,103.03030302,4389.09090865,3531.87878753,4212.90909049,2703.51515124,4839.84848436,2954.90909061,4481.81818137,4104.72727232,42.0,42.0,?
2017-08-01 19:17:57.468386,4543.12121167,3029.09090879,4189.21212079,1219.87878776,3901.24242385,2740.60606033,3896.60606022,3045.57575727,4249.48484806,49.4545454496,4410.72727229,4158.30302989,4188.18181776,3222.78787847,4303.57575715,2703.51515124,4959.87878738,2934.30303001,4179.93939352,103.03030302,4391.66666623,3535.99999965,4211.36363594,2703.51515124,4839.84848436,2954.90909061,4493.1515147,4104.72727232,42.0,42.0,?
2017-08-01 19:17:57.480469,4538.99999955,3029.09090879,4186.63636322,1219.87878776,3890.93939355,2740.60606033,3881.66666628,3045.57575727,4257.21212079,49.4545454496,4411.75757532,4158.30302989,4197.45454503,3222.78787847,4311.30302987,2703.51515124,4953.6969692,2934.30303001,4174.78787837,103.03030302,4389.60606017,3535.99999965,4208.78787837,2703.51515124,4836.24242376,2954.90909061,4491.09090864,4104.72727232,42.0,42.0,?
2017-08-01 19:17:57.485520,4528.69696924,3029.09090879,4184.06060564,1219.87878776,3883.21212082,2740.60606033,3871.36363598,3045.57575727,4256.18181776,49.4545454496,4411.75757532,4158.30302989,4191.27272685,3222.78787847,4304.60606018,2703.51515124,4938.75757526,2934.30303001,4170.66666625,103.03030302,4381.87878744,3535.99999965,4208.27272685,2703.51515124,4830.57575709,2954.90909061,4475.12121167,4104.72727232,42.0,42.0,?
2017-08-01 19:17:57.494457,4528.18181773,3029.09090879,4189.21212079,1219.87878776,3888.87878749,2740.60606033,3889.393939,3045.57575727,4255.66666624,49.4545454496,4418.45454501,4158.30302989,4183.54545413,3222.78787847,4300.48484805,2703.51515124,4942.36363587,2934.30303001,4172.72727231,103.03030302,4382.90909047,3535.99999965,4210.84848443,2703.51515124,4833.66666618,2954.90909061,4473.57575713,4104.72727232,42.0,42.0,?
2017-08-01 19:17:57.500506,4537.454545,3029.09090879,4191.78787837,1219.87878776,3898.15151476,2740.60606033,3896.0909087,3045.57575727,4264.424242,49.4545454496,4427.21212077,4158.30302989,4191.27272685,3222.78787847,4313.36363593,2703.51515124,4954.21212072,2934.30303001,4177.87878746,103.03030302,4395.78787835,3535.99999965,4212.90909049,2703.51515124,4843.96969649,2954.90909061,4483.87878743,4104.72727232,42.0,42.0,?
2017-08-01 19:17:57.506991,4541.06060561,3029.09090879,4189.72727231,1219.87878776,3899.18181779,2740.60606033,3882.18181779,3045.57575727,4261.33333291,49.4545454496,4424.12121168,4158.30302989,4196.93939352,3222.78787847,4313.87878745,2703.51515124,4958.84848435,2934.30303001,4175.8181814,103.03030302,4397.33333289,3535.99999965,4213.424242,2703.51515124,4843.96969649,2954.90909061,4485.42424198,4104.72727232,42.0,42.0,?
2017-08-01 19:17:57.515496,4538.48484803,3029.09090879,4189.21212079,1219.87878776,3899.69696931,2740.60606033,3891.96969658,3045.57575727,4251.03030261,49.4545454496,4414.33333289,4158.30302989,4188.18181776,3222.78787847,4300.99999957,2703.51515124,4954.72727223,2934.30303001,4176.33333292,103.03030302,4389.60606017,3535.99999965,4211.36363594,2703.51515124,4833.66666618,2954.90909061,4487.48484804,4104.72727232,42.0,42.0,?
2017-08-01 19:17:57.523123,4536.42424197,3029.09090879,4189.21212079,1219.87878776,3902.27272688,2740.60606033,3903.81818143,3045.57575727,4253.09090867,49.4545454496,4413.30302986,4158.30302989,4180.45454504,3222.78787847,4298.42424199,2703.51515124,4934.63636314,2934.30303001,4181.99999958,103.03030302,4390.12121168,3535.99999965,4203.1212117,2703.51515124,4828.51515103,2954.90909061,4493.1515147,4104.72727232,42.0,42.0,?
2017-08-01 19:17:57.530761,4531.27272682,3029.09090879,4192.30302988,1219.87878776,3899.69696931,2740.60606033,3884.24242385,3045.57575727,4251.03030261,49.4545454496,4407.12121168,4158.30302989,4174.27272686,3222.78787847,4296.87878745,2703.51515124,4919.18181769,2934.30303001,4174.78787837,103.03030302,4385.99999956,3535.99999965,4201.06060564,2703.51515124,4826.45454497,2954.90909061,4487.48484804,4104.72727232,42.0,42.0,?
2017-08-01 19:17:57.541688,4521.99999955,3029.09090879,4187.15151473,1219.87878776,3892.4848481,2740.60606033,3876.51515113,3045.57575727,4243.81818139,49.4545454496,4397.33333289,4158.30302989,4168.09090867,3222.78787847,4288.63636321,2703.51515124,4932.57575708,2934.30303001,4165.5151511,103.03030302,4373.6363632,3535.99999965,4207.24242382,2703.51515124,4821.30302982,2954.90909061,4475.12121167,4104.72727232,42.0,42.0,?
2017-08-01 19:17:57.546269,4520.96969652,3029.09090879,4181.99999958,1219.87878776,3890.93939355,2740.60606033,3891.45454507,3045.57575727,4247.93939351,49.4545454496,4406.09090865,4158.30302989,4175.30302989,3222.78787847,4294.30302987,2703.51515124,4951.63636314,2934.30303001,4171.18181776,103.03030302,4370.03030259,3535.99999965,4207.24242382,2703.51515124,4820.27272679,2954.90909061,4475.63636319,4104.72727232,42.0,42.0,?
2017-08-01 19:17:57.556786,4524.57575712,3029.09090879,4192.30302988,1219.87878776,3892.99999961,2740.60606033,3892.99999961,3045.57575727,4258.75757533,49.4545454496,4416.39393895,4158.30302989,4184.06060564,3222.78787847,4302.0303026,2703.51515124,4939.27272678,2934.30303001,4169.63636322,103.03030302,4372.60606017,3535.99999965,4205.69696928,2703.51515124,4820.78787831,2954.90909061,4476.66666622,4104.72727232,42.0,42.0,?
2017-08-01 19:17:57.561625,4521.48484803,3029.09090879,4189.21212079,1219.87878776,3896.60606022,2740.60606033,3895.06060567,3045.57575727,4269.57575715,49.4545454496,4417.9393935,4158.30302989,4180.45454504,3222.78787847,4300.99999957,2703.51515124,4929.48484799,2934.30303001,4165.5151511,103.03030302,4372.09090865,3535.99999965,4208.78787837,2703.51515124,4817.69696922,2954.90909061,4473.57575713,4104.72727232,42.0,42.0,?
2017-08-01 19:17:57.573115,4523.03030258,3029.09090879,4176.33333292,1219.87878776,3897.63636325,2740.60606033,3897.12121173,3045.57575727,4262.87878745,49.4545454496,4417.9393935,4158.30302989,4176.84848443,3222.78787847,4298.42424199,2703.51515124,4948.54545405,2934.30303001,4176.84848443,103.03030302,4377.75757532,3535.99999965,4212.90909049,2703.51515124,4823.36363588,2954.90909061,4480.78787834,4104.72727232,42.0,42.0,?
2017-08-01 19:17:57.578314,4533.8484844,3029.09090879,4185.09090867,1219.87878776,3892.4848481,2740.60606033,3879.60606022,3045.57575727,4243.81818139,49.4545454496,4412.78787835,4158.30302989,4174.78787837,3222.78787847,4290.18181775,2703.51515124,4949.06060557,2934.30303001,4179.93939352,103.03030302,4393.21212077,3535.99999965,4212.90909049,2703.51515124,4841.39393891,2954.90909061,4488.51515107,4104.72727232,42.0,42.0,?
2017-08-01 19:17:57.584721,4537.454545,3029.09090879,4187.66666625,1219.87878776,3890.93939355,2740.60606033,3877.54545416,3045.57575727,4247.424242,49.4545454496,4408.66666623,4158.30302989,4174.27272686,3222.78787847,4286.06060563,2703.51515124,4933.60606011,2934.30303001,4172.72727231,103.03030302,4394.75757532,3535.99999965,4207.75757534,2703.51515124,4844.99999952,2954.90909061,4484.39393895,4104.72727232,42.0,42.0,?
2017-08-01 19:17:57.596833,4533.8484844,3029.09090879,4184.57575716,1219.87878776,3893.51515113,2740.60606033,3886.30302991,3045.57575727,4260.30302988,49.4545454496,4417.9393935,4158.30302989,4184.06060564,3222.78787847,4296.87878745,2703.51515124,4943.3939389,2934.30303001,4171.69696928,103.03030302,4385.99999956,3535.99999965,4204.66666625,2703.51515124,4833.66666618,2954.90909061,4478.21212076,4104.72727232,42.0,42.0,?
2017-08-01 19:17:57.602034,4531.27272682,3029.09090879,4188.18181776,1219.87878776,3892.99999961,2740.60606033,3869.81818143,3045.57575727,4254.63636321,49.4545454496,4420.51515107,4158.30302989,4193.84848443,3222.78787847,4304.09090866,2703.51515124,4952.15151466,2934.30303001,4174.27272686,103.03030302,4386.51515108,3535.99999965,4209.8181814,2703.51515124,4830.57575709,2954.90909061,4479.75757531,4104.72727232,42.0,42.0,?
2017-08-01 19:17:57.611594,4530.24242379,3029.09090879,4186.63636322,1219.87878776,3894.03030264,2740.60606033,3870.33333295,3045.57575727,4249.48484806,49.4545454496,4413.81818138,4158.30302989,4191.27272685,3222.78787847,4302.54545412,2703.51515124,4936.18181769,2934.30303001,4171.69696928,103.03030302,4385.99999956,3535.99999965,4214.45454503,2703.51515124,4836.75757527,2954.90909061,4481.30302985,4104.72727232,42.0,42.0,?
2017-08-01 19:17:57.617152,4531.78787833,3029.09090879,4185.60606019,1219.87878776,3897.63636325,2740.60606033,3905.36363597,3045.57575727,4256.69696927,49.4545454496,4420.51515107,4158.30302989,4194.87878746,3222.78787847,4305.63636321,2703.51515124,4935.66666617,2934.30303001,4176.33333292,103.03030302,4387.54545411,3535.99999965,4214.96969655,2703.51515124,4843.96969649,2954.90909061,4483.36363592,4104.72727232,42.0,42.0,?
2017-08-01 19:17:57.625195,4537.96969652,3029.09090879,4188.18181776,1219.87878776,3898.15151476,2740.60606033,3918.75757537,3045.57575727,4263.39393897,49.4545454496,4432.36363592,4158.30302989,4206.21212079,3222.78787847,4308.7272723,2703.51515124,4958.84848435,2934.30303001,4185.60606019,103.03030302,4398.87878744,3535.99999965,4215.48484806,2703.51515124,4844.484848,2954.90909061,4496.75757531,4104.72727232,42.0,42.0,?
2017-08-01 19:17:57.633148,4542.09090864,3029.09090879,4190.24242382,1219.87878776,3896.60606022,2740.60606033,3889.393939,3045.57575727,4265.96969654,49.4545454496,4432.36363592,4158.30302989,4203.1212117,3222.78787847,4305.63636321,2703.51515124,4963.9999995,2934.30303001,4176.84848443,103.03030302,4406.09090865,3535.99999965,4216.51515109,2703.51515124,4844.484848,2954.90909061,4501.39393894,4104.72727232,42.0,42.0,?
2017-08-01 19:17:57.642611,4540.54545409,3029.09090879,4186.1212117,1219.87878776,3897.12121173,2740.60606033,3857.96969658,3045.57575727,4264.424242,49.4545454496,4430.81818138,4158.30302989,4196.424242,3222.78787847,4307.69696927,2703.51515124,4947.51515102,2934.30303001,4174.27272686,103.03030302,4404.54545411,3535.99999965,4216.51515109,2703.51515124,4851.69696921,2954.90909061,4494.18181773,4104.72727232,42.0,42.0,?
2017-08-01 19:17:57.648378,4547.7575753,3029.09090879,4187.66666625,1219.87878776,3904.33333294,2740.60606033,3868.7878784,3045.57575727,4263.39393897,49.4545454496,4436.48484804,4158.30302989,4206.21212079,3222.78787847,4318.51515108,2703.51515124,4943.3939389,2934.30303001,4194.87878746,103.03030302,4406.09090865,3535.99999965,4217.03030261,2703.51515124,4859.93939345,2954.90909061,4497.78787834,4104.72727232,42.0,42.0,?
2017-08-01 19:17:57.655532,4554.454545,3029.09090879,4192.30302988,1219.87878776,3910.51515112,2740.60606033,3908.45454506,3045.57575727,4263.90909048,49.4545454496,4435.45454501,4158.30302989,4218.06060564,3222.78787847,4323.66666623,2703.51515124,4961.93939344,2934.30303001,4202.09090867,103.03030302,4409.69696926,3535.99999965,4215.48484806,2703.51515124,4857.87878739,2954.90909061,4507.57575713,4104.72727232,42.0,42.0,?
2017-08-01 19:17:57.664360,4540.54545409,3029.09090879,4188.18181776,1219.87878776,3903.30302991,2740.60606033,3912.57575718,3045.57575727,4261.84848442,49.4545454496,4424.63636319,4158.30302989,4214.45454503,3222.78787847,4320.06060563,2703.51515124,4966.06060556,2934.30303001,4182.5151511,103.03030302,4398.87878744,3535.99999965,4208.27272685,2703.51515124,4842.93939346,2954.90909061,4496.24242379,4104.72727232,42.0,42.0,?
2017-08-01 19:17:57.670930,4529.72727227,3029.09090879,4187.15151473,1219.87878776,3904.33333294,2740.60606033,3882.69696931,3045.57575727,4263.39393897,49.4545454496,4419.99999956,4158.30302989,4207.24242382,3222.78787847,4316.45454502,2703.51515124,4943.90909041,2934.30303001,4174.78787837,103.03030302,4390.12121168,3535.99999965,4209.30302988,2703.51515124,4832.63636315,2954.90909061,4475.63636319,4104.72727232,42.0,42.0,?
2017-08-01 19:17:57.678555,4541.06060561,3029.09090879,4190.24242382,1219.87878776,3920.81818143,2740.60606033,3878.57575719,3045.57575727,4266.99999957,49.4545454496,4425.66666622,4158.30302989,4206.72727231,3222.78787847,4316.45454502,2703.51515124,4940.30302981,2934.30303001,4187.66666625,103.03030302,4397.84848441,3535.99999965,4216.51515109,2703.51515124,4840.36363588,2954.90909061,4479.24242379,4104.72727232,42.0,42.0,?
2017-08-01 19:17:57.686787,4551.36363591,3029.09090879,4191.78787837,1219.87878776,3926.48484809,2740.60606033,3899.18181779,3045.57575727,4266.99999957,49.4545454496,4429.78787834,4158.30302989,4207.24242382,3222.78787847,4317.48484805,2703.51515124,4962.96969647,2934.30303001,4191.78787837,103.03030302,4410.21212077,3535.99999965,4218.06060564,2703.51515124,4850.66666618,2954.90909061,4502.42424197,4104.72727232,42.0,42.0,?
2017-08-01 19:17:57.696520,4550.33333288,3029.09090879,4192.8181814,1219.87878776,3923.90909052,2740.60606033,3915.66666628,3045.57575727,4269.06060563,49.4545454496,4431.33333289,4158.30302989,4208.27272685,3222.78787847,4321.60606017,2703.51515124,4973.27272678,2934.30303001,4190.75757534,103.03030302,4419.48484804,3535.99999965,4219.09090867,2703.51515124,4848.60606012,2954.90909061,4514.78787834,4104.72727232,42.0,42.0,?
2017-08-01 19:17:57.702611,4548.27272682,3029.09090879,4190.24242382,1219.87878776,3933.6969693,2740.60606033,3912.06060567,3045.57575727,4274.21212078,49.4545454496,4438.03030259,4158.30302989,4208.27272685,3222.78787847,4319.54545411,2703.51515124,4958.33333284,2934.30303001,4187.66666625,103.03030302,4418.96969653,3535.99999965,4218.57575715,2703.51515124,4842.93939346,2954.90909061,4515.30302985,4104.72727232,42.0,42.0,?
2017-08-01 19:17:57.710581,4548.78787833,3029.09090879,4190.24242382,1219.87878776,3949.15151476,2740.60606033,3892.4848481,3045.57575727,4273.18181775,49.4545454496,4441.12121168,4158.30302989,4200.03030261,3222.78787847,4306.66666624,2703.51515124,4933.60606011,2934.30303001,4179.93939352,103.03030302,4414.33333289,3535.99999965,4218.06060564,2703.51515124,4840.36363588,2954.90909061,4525.60606015,4104.72727232,42.0,42.0,?
2017-08-01 19:17:57.717643,4552.39393894,3029.09090879,4192.30302988,1219.87878776,3958.42424203,2740.60606033,3887.84848446,3045.57575727,4270.60606018,49.4545454496,4434.9393935,4158.30302989,4191.78787837,3222.78787847,4301.51515109,2703.51515124,4925.87878739,2934.30303001,4186.1212117,103.03030302,4425.66666622,3535.99999965,4219.60606018,2703.51515124,4841.90909042,2954.90909061,4551.36363591,4104.72727232,42.0,42.0,?
2017-08-01 19:17:57.727327,4557.54545409,3029.09090879,4192.8181814,1219.87878776,3968.21212082,2740.60606033,3872.90909052,3045.57575727,4262.87878745,49.4545454496,4426.18181774,4158.30302989,4193.84848443,3222.78787847,4306.66666624,2703.51515124,4945.96969648,2934.30303001,4196.93939352,103.03030302,4447.30302986,3535.99999965,4217.54545412,2703.51515124,4844.484848,2954.90909061,4578.66666621,4104.72727232,42.0,42.0,?
2017-08-01 19:17:57.733622,4562.18181773,3029.09090879,4195.39393897,1219.87878776,3988.81818142,2740.60606033,3848.1818178,3045.57575727,4249.48484806,49.4545454496,4419.99999956,4158.30302989,4197.45454503,3222.78787847,4308.7272723,2703.51515124,4965.54545405,2934.30303001,4200.03030261,103.03030302,4457.09090865,3535.99999965,4216.51515109,2703.51515124,4847.57575709,2954.90909061,4612.15151469,4104.72727232,42.0,42.0,?
2017-08-01 19:17:57.741882,4567.84848439,3029.09090879,4196.93939352,1219.87878776,4003.24242384,2740.60606033,3879.60606022,3045.57575727,4252.06060564,49.4545454496,4419.48484804,4158.30302989,4196.424242,3222.78787847,4309.75757533,2703.51515124,4960.3939389,2934.30303001,4207.24242382,103.03030302,4460.18181774,3535.99999965,4219.60606018,2703.51515124,4848.09090861,2954.90909061,4647.69696923,4104.72727232,42.0,42.0,?
2017-08-01 19:17:57.750142,4571.96969651,3029.09090879,4198.48484806,1219.87878776,4006.84848445,2740.60606033,3923.393939,3045.57575727,4258.75757533,49.4545454496,4418.45454501,4158.30302989,4193.33333291,3222.78787847,4304.60606018,2703.51515124,4945.45454496,2934.30303001,4204.66666625,103.03030302,4463.78787834,3535.99999965,4217.03030261,2703.51515124,4841.39393891,2954.90909061,4664.69696923,4104.72727232,42.0,42.0,?
2017-08-01 19:17:57.757575,4575.57575712,3029.09090879,4197.96969655,1219.87878776,4014.06060566,2740.60606033,3900.72727234,3045.57575727,4253.60606018,49.4545454496,4421.5454541,4158.30302989,4191.78787837,3222.78787847,4295.84848442,2703.51515124,4940.30302981,2934.30303001,4192.8181814,103.03030302,4468.93939349,3535.99999965,4208.27272685,2703.51515124,4847.57575709,2954.90909061,4676.03030256,4104.72727232,42.0,42.0,?
2017-08-01 19:17:57.765415,4581.7575753,3029.09090879,4194.36363594,1219.87878776,4021.78787839,2740.60606033,3875.4848481,3045.57575727,4252.57575715,49.4545454496,4426.18181774,4158.30302989,4188.18181776,3222.78787847,4296.87878745,2703.51515124,4939.78787829,2934.30303001,4197.96969655,103.03030302,4480.78787834,3535.99999965,4212.39393897,2703.51515124,4866.12121163,2954.90909061,4691.99999953,4104.72727232,42.0,42.0,?
2017-08-01 19:17:57.773134,4582.27272681,3029.09090879,4195.90909049,1219.87878776,4012.51515111,2740.60606033,3885.27272688,3045.57575727,4257.21212079,49.4545454496,4415.87878744,4158.30302989,4177.87878746,3222.78787847,4296.87878745,2703.51515124,4940.81818132,2934.30303001,4205.18181776,103.03030302,4481.30302985,3535.99999965,4222.18181776,2703.51515124,4868.69696921,2954.90909061,4687.87878741,4104.72727232,42.0,42.0,?
2017-08-01 19:17:57.781652,4576.60606015,3029.09090879,4197.45454503,1219.87878776,3996.03030263,2740.60606033,3867.24242386,3045.57575727,4256.69696927,49.4545454496,4408.66666623,4158.30302989,4173.75757534,3222.78787847,4292.75757533,2703.51515124,4947.51515102,2934.30303001,4196.424242,103.03030302,4468.93939349,3535.99999965,4220.1212117,2703.51515124,4856.84848436,2954.90909061,4669.84848438,4104.72727232,42.0,42.0,?
2017-08-01 19:17:57.789425,4576.09090863,3029.09090879,4197.45454503,1219.87878776,3990.36363596,2740.60606033,3864.15151477,3045.57575727,4258.24242382,49.4545454496,4424.12121168,4158.30302989,4184.57575716,3222.78787847,4299.96969654,2703.51515124,4943.90909041,2934.30303001,4197.96969655,103.03030302,4465.33333289,3535.99999965,4215.99999958,2703.51515124,4858.39393891,2954.90909061,4663.6666662,4104.72727232,42.0,42.0,?
2017-08-01 19:17:57.797057,4578.15151469,3029.09090879,4197.96969655,1219.87878776,3986.24242384,2740.60606033,3907.42424203,3045.57575727,4266.99999957,49.4545454496,4442.15151471,4158.30302989,4202.09090867,3222.78787847,4311.81818139,2703.51515124,4946.48484799,2934.30303001,4215.48484806,103.03030302,4469.45454501,3535.99999965,4220.63636321,2703.51515124,4867.66666618,2954.90909061,4657.99999953,4104.72727232,42.0,42.0,?
2017-08-01 19:17:57.803570,4580.72727227,3029.09090879,4196.93939352,1219.87878776,3982.63636324,2740.60606033,3917.72727234,3045.57575727,4272.15151472,49.4545454496,4441.63636319,4158.30302989,4215.99999958,3222.78787847,4316.45454502,2703.51515124,4959.36363587,2934.30303001,4225.78787837,103.03030302,4469.45454501,3535.99999965,4221.15151473,2703.51515124,4871.27272679,2954.90909061,4650.27272681,4104.72727232,42.0,42.0,?
2017-08-01 19:17:57.811571,4580.21212075,3029.09090879,4196.93939352,1219.87878776,3976.45454506,2740.60606033,3897.12121173,3045.57575727,4268.0303026,49.4545454496,4432.87878744,4158.30302989,4218.57575715,3222.78787847,4314.90909048,2703.51515124,4947.51515102,2934.30303001,4220.63636321,103.03030302,4464.30302986,3535.99999965,4218.06060564,2703.51515124,4868.69696921,2954.90909061,4640.99999954,4104.72727232,42.0,42.0,?
2017-08-01 19:17:57.821371,4567.84848439,3029.09090879,4194.36363594,1219.87878776,3963.06060566,2740.60606033,3896.0909087,3045.57575727,4269.57575715,49.4545454496,4429.27272683,4158.30302989,4214.45454503,3222.78787847,4317.48484805,2703.51515124,4937.72727223,2934.30303001,4211.87878746,103.03030302,4456.06060561,3535.99999965,4220.1212117,2703.51515124,4859.93939345,2954.90909061,4615.7575753,4104.72727232,42.0,42.0,?
2017-08-01 19:17:57.827517,4557.03030257,3029.09090879,4193.84848443,1219.87878776,3954.81818142,2740.60606033,3890.42424204,3045.57575727,4279.87878745,49.4545454496,4430.81818138,4158.30302989,4208.78787837,3222.78787847,4320.06060563,2703.51515124,4952.66666617,2934.30303001,4207.75757534,103.03030302,4448.8484844,3535.99999965,4219.09090867,2703.51515124,4851.69696921,2954.90909061,4594.12121166,4104.72727232,42.0,42.0,?
2017-08-01 19:17:57.837251,4562.18181773,3029.09090879,4195.39393897,1219.87878776,3955.33333294,2740.60606033,3874.96969658,3045.57575727,4281.93939351,49.4545454496,4434.9393935,4158.30302989,4204.66666625,3222.78787847,4316.45454502,2703.51515124,4959.87878738,2934.30303001,4205.69696928,103.03030302,4445.75757531,3535.99999965,4213.424242,2703.51515124,4849.12121164,2954.90909061,4586.39393894,4104.72727232,42.0,42.0,?
2017-08-01 19:17:57.843614,4565.78787833,3029.09090879,4193.33333291,1219.87878776,3949.66666627,2740.60606033,3888.36363597,3045.57575727,4277.30302988,49.4545454496,4433.90909047,4158.30302989,4203.63636322,3222.78787847,4315.42424199,2703.51515124,4956.78787829,2934.30303001,4198.48484806,103.03030302,4435.96969653,3535.99999965,4215.48484806,2703.51515124,4843.96969649,2954.90909061,4572.99999954,4104.72727232,42.0,42.0,?
2017-08-01 19:17:57.852531,4558.0606056,3016.72727243,4192.30302988,1219.87878776,3938.84848445,2740.60606033,3909.99999961,3045.57575727,4275.24242381,49.4545454496,4428.2424238,4158.30302989,4201.57575716,3222.78787847,4317.48484805,2703.51515124,4960.90909041,2934.30303001,4191.78787837,103.03030302,4423.60606016,3535.99999965,4219.60606018,2703.51515124,4840.87878739,2954.90909061,4551.87878742,4104.72727232,42.0,42.0,?
2017-08-01 19:17:57.859263,4547.24242379,3016.72727243,4189.21212079,1232.24242412,3938.33333294,2740.60606033,3901.24242385,3045.57575727,4277.81818139,49.4545454496,4431.84848441,4158.30302989,4200.03030261,3222.78787847,4317.99999957,2703.51515124,4961.93939344,2934.30303001,4193.33333291,103.03030302,4421.5454541,3535.99999965,4215.48484806,2703.51515124,4841.39393891,2954.90909061,4543.63636318,4104.72727232,42.0,42.0,?
2017-08-01 19:17:57.866552,4543.63636318,3016.72727243,4187.15151473,1232.24242412,3941.93939355,2740.60606033,3881.66666628,3045.57575727,4282.96969654,49.4545454496,4444.72727228,4158.30302989,4206.72727231,3222.78787847,4319.54545411,2703.51515124,4959.87878738,2934.30303001,4189.21212079,103.03030302,4423.60606016,3535.99999965,4213.93939352,2703.51515124,4837.7878783,2954.90909061,4546.72727227,4104.72727232,42.0,42.0,?
2017-08-01 19:17:57.875636,4552.90909045,3016.72727243,4192.30302988,1232.24242412,3940.393939,2748.84848457,3890.42424204,3045.57575727,4287.09090866,49.4545454496,4448.33333289,4158.30302989,4213.93939352,3222.78787847,4321.60606017,2703.51515124,4962.96969647,2934.30303001,4186.1212117,103.03030302,4421.5454541,3535.99999965,4219.09090867,2703.51515124,4841.39393891,2954.90909061,4546.72727227,4104.72727232,42.0,42.0,?
2017-08-01 19:17:57.883389,4562.18181773,3016.72727243,4193.33333291,1232.24242412,3935.24242385,2748.84848457,3920.30302991,3033.21212091,4287.60606018,49.4545454496,4446.78787834,4158.30302989,4215.48484806,3222.78787847,4324.69696926,2703.51515124,4955.75757526,2934.30303001,4203.63636322,103.03030302,4426.18181774,3535.99999965,4220.63636321,2703.51515124,4858.39393891,2954.90909061,4548.27272682,4104.72727232,42.0,42.0,?
2017-08-01 19:17:57.890495,4561.66666621,3016.72727243,4192.8181814,1232.24242412,3930.60606021,2748.84848457,3904.84848446,3033.21212091,4288.63636321,53.5757575704,4447.30302986,4158.30302989,4215.99999958,3222.78787847,4329.84848442,2703.51515124,4952.66666617,2934.30303001,4217.03030261,103.03030302,4436.48484804,3535.99999965,4220.63636321,2703.51515124,4864.57575709,2954.90909061,4540.03030258,4104.72727232,42.0,42.0,?
2017-08-01 19:17:57.897956,4552.39393894,3016.72727243,4192.30302988,1232.24242412,3925.96969658,2748.84848457,3864.66666628,3033.21212091,4286.06060563,53.5757575704,4439.57575713,4162.42424201,4218.57575715,3222.78787847,4331.90909048,2703.51515124,4968.63636314,2934.30303001,4203.63636322,103.03030302,4431.84848441,3535.99999965,4220.63636321,2703.51515124,4850.15151467,2954.90909061,4521.99999955,4104.72727232,42.0,42.0,?
2017-08-01 19:17:57.906505,4541.57575712,3016.72727243,4188.69696928,1232.24242412,3920.81818143,2748.84848457,3874.45454507,3033.21212091,4276.27272685,53.5757575704,4428.2424238,4162.42424201,4218.57575715,3214.54545422,4329.3333329,2703.51515124,4985.12121162,2934.30303001,4193.33333291,103.03030302,4413.30302986,3535.99999965,4218.06060564,2703.51515124,4837.27272679,2954.90909061,4516.33333288,4104.72727232,42.0,42.0,?
2017-08-01 19:17:57.914225,4540.54545409,3016.72727243,4191.27272685,1232.24242412,3920.30302991,2748.84848457,3910.51515112,3033.21212091,4271.12121169,53.5757575704,4428.2424238,4162.42424201,4215.99999958,3214.54545422,4330.36363593,2703.51515124,4987.18181768,2934.30303001,4195.90909049,103.03030302,4409.18181774,3535.99999965,4219.09090867,2703.51515124,4837.7878783,2954.90909061,4518.90909046,4104.72727232,42.0,42.0,?
2017-08-01 19:17:57.921647,4545.69696924,3016.72727243,4191.78787837,1232.24242412,3922.36363597,2748.84848457,3914.12121173,3033.21212091,4279.87878745,53.5757575704,4437.51515107,4162.42424201,4219.09090867,3214.54545422,4337.06060563,2703.51515124,4979.45454496,2975.51515122,4195.90909049,103.03030302,4419.48484804,3535.99999965,4220.1212117,2703.51515124,4842.93939346,2954.90909061,4511.18181773,4104.72727232,42.0,42.0,?
2017-08-01 19:17:57.931503,4544.66666621,3016.72727243,4189.21212079,1232.24242412,3919.27272688,2748.84848457,3906.90909052,3033.21212091,4286.06060563,53.5757575704,4442.15151471,4162.42424201,4223.21212079,3214.54545422,4333.45454502,2703.51515124,4971.21212072,2975.51515122,4198.99999958,111.272727262,4421.03030259,3535.99999965,4218.57575715,2703.51515124,4847.06060558,2954.90909061,4503.96969652,4104.72727232,42.0,42.0,?
2017-08-01 19:17:57.937050,4537.454545,3016.72727243,4191.27272685,1232.24242412,3912.06060567,2748.84848457,3897.63636325,3033.21212091,4278.84848442,53.5757575704,4439.06060562,4162.42424201,4215.99999958,3214.54545422,4323.15151472,2703.51515124,4967.09090859,2975.51515122,4204.66666625,111.272727262,4418.96969653,3531.87878753,4219.09090867,2703.51515124,4847.57575709,2954.90909061,4503.454545,4104.72727232,42.0,42.0,?
2017-08-01 19:17:57.944638,4538.99999955,3016.72727243,4193.33333291,1232.24242412,3914.12121173,2748.84848457,3866.72727234,3033.21212091,4273.18181775,53.5757575704,4440.60606016,4162.42424201,4211.36363594,3214.54545422,4324.18181775,2703.51515124,4973.78787829,2975.51515122,4203.63636322,111.272727262,4419.48484804,3531.87878753,4221.66666624,2703.51515124,4846.03030255,2954.90909061,4493.66666622,4104.72727232,42.0,42.0,?
2017-08-01 19:17:57.954420,4546.72727227,3016.72727243,4196.424242,1232.24242412,3922.36363597,2748.84848457,3858.4848481,3033.21212091,4280.39393897,53.5757575704,4446.78787834,4162.42424201,4215.48484806,3214.54545422,4326.75757532,2703.51515124,4978.93939344,2975.51515122,4197.96969655,111.272727262,4412.27272683,3531.87878753,4219.60606018,2703.51515124,4844.99999952,2950.78787849,4489.03030258,4104.72727232,42.0,42.0,?
2017-08-01 19:17:57.961069,4543.12121167,3016.72727243,4193.33333291,1232.24242412,3918.24242385,2748.84848457,3891.96969658,3033.21212091,4285.0303026,53.5757575704,4447.81818137,4162.42424201,4218.57575715,3214.54545422,4320.06060563,2703.51515124,4971.72727223,2975.51515122,4186.63636322,107.151515141,4405.06060562,3531.87878753,4217.54545412,2703.51515124,4841.90909042,2950.78787849,4502.42424197,4104.72727232,42.0,42.0,?
2017-08-01 19:17:57.968522,4538.48484803,3016.72727243,4189.21212079,1232.24242412,3909.48484809,2748.84848457,3919.27272688,3033.21212091,4283.99999957,53.5757575704,4443.69696925,4162.42424201,4222.18181776,3214.54545422,4322.6363632,2703.51515124,4969.66666617,2975.51515122,4175.30302989,107.151515141,4408.15151471,3535.99999965,4218.06060564,2703.51515124,4838.30302982,2950.78787849,4507.57575713,4104.72727232,42.0,42.0,?
2017-08-01 19:17:57.976112,4537.454545,3016.72727243,4190.75757534,1232.24242412,3908.96969658,2748.84848457,3916.69696931,3033.21212091,4282.45454503,53.5757575704,4441.63636319,4162.42424201,4220.63636321,3214.54545422,4327.78787836,2703.51515124,4965.54545405,2975.51515122,4173.75757534,107.151515141,4403.51515107,3535.99999965,4217.03030261,2711.75757549,4833.15151467,2950.78787849,4492.63636319,4104.72727232,42.0,42.0,?
2017-08-01 19:17:57.984427,4530.24242379,3016.72727243,4189.72727231,1232.24242412,3909.48484809,2748.84848457,3891.96969658,3033.21212091,4278.84848442,53.5757575704,4443.18181774,4162.42424201,4212.90909049,3214.54545422,4319.54545411,2703.51515124,4961.42424193,2975.51515122,4177.87878746,107.151515141,4389.09090865,3535.99999965,4217.03030261,2711.75757549,4827.484848,2950.78787849,4475.12121167,4104.72727232,42.0,42.0,?
2017-08-01 19:17:57.991753,4524.57575712,3016.72727243,4189.72727231,1232.24242412,3907.93939355,2748.84848457,3882.18181779,3033.21212091,4273.69696927,53.5757575704,4446.27272683,4162.42424201,4214.96969655,3214.54545422,4319.0303026,2703.51515124,4970.6969692,2975.51515122,4182.5151511,107.151515141,4388.57575714,3535.99999965,4213.93939352,2711.75757549,4826.96969649,2950.78787849,4468.93939349,4104.72727232,42.0,42.0,?
2017-08-01 19:17:58.002370,4521.48484803,3016.72727243,4187.66666625,1232.24242412,3903.81818143,2748.84848457,3892.4848481,3033.21212091,4269.06060563,53.5757575704,4444.21212077,4162.42424201,4222.69696927,3214.54545422,4327.27272684,2703.51515124,4973.27272678,2975.51515122,4185.60606019,107.151515141,4394.75757532,3535.99999965,4210.33333291,2711.75757549,4821.81818134,2950.78787849,4468.93939349,4104.72727232,42.0,42.0,?
2017-08-01 19:17:58.007943,4516.8484844,3016.72727243,4186.63636322,1232.24242412,3899.69696931,2748.84848457,3880.63636325,3033.21212091,4263.90909048,53.5757575704,4435.96969653,4162.42424201,4223.7272723,3214.54545422,4323.15151472,2703.51515124,4961.93939344,2975.51515122,4178.90909049,107.151515141,4389.09090865,3535.99999965,4213.93939352,2711.75757549,4816.66666619,2950.78787849,4466.87878743,4104.72727232,42.0,42.0,?
2017-08-01 19:17:58.015942,4521.48484803,3016.72727243,4192.8181814,1232.24242412,3904.84848446,2748.84848457,3867.24242386,3033.21212091,4261.33333291,53.5757575704,4433.90909047,4162.42424201,4220.1212117,3214.54545422,4323.66666623,2703.51515124,4961.93939344,2975.51515122,4175.30302989,107.151515141,4385.99999956,3535.99999965,4219.60606018,2711.75757549,4822.84848437,2950.78787849,4474.09090864,4104.72727232,42.0,42.0,?
2017-08-01 19:17:58.023062,4527.1515147,3016.72727243,4191.27272685,1232.24242412,3908.96969658,2748.84848457,3891.96969658,3033.21212091,4271.63636321,53.5757575704,4435.96969653,4162.42424201,4213.424242,3214.54545422,4329.84848442,2703.51515124,4973.27272678,2975.51515122,4184.06060564,107.151515141,4391.66666623,3535.99999965,4218.06060564,2711.75757549,4830.57575709,2950.78787849,4494.18181773,4104.72727232,42.0,42.0,?
2017-08-01 19:17:58.031743,4528.69696924,3016.72727243,4190.24242382,1232.24242412,3904.84848446,2748.84848457,3905.87878749,3033.21212091,4281.93939351,53.5757575704,4435.96969653,4162.42424201,4205.69696928,3214.54545422,4322.12121169,2703.51515124,4972.75757526,2975.51515122,4185.09090867,107.151515141,4396.30302986,3535.99999965,4216.51515109,2711.75757549,4835.72727224,2950.78787849,4495.72727228,4104.72727232,42.0,42.0,?
2017-08-01 19:17:58.039979,4534.87878743,3016.72727243,4194.36363594,1232.24242412,3907.42424203,2748.84848457,3898.66666628,3033.21212091,4283.48484806,53.5757575704,4440.09090865,4162.42424201,4206.21212079,3214.54545422,4315.93939351,2703.51515124,4967.09090859,2975.51515122,4179.42424201,107.151515141,4399.90909047,3535.99999965,4218.57575715,2711.75757549,4841.90909042,2950.78787849,4485.42424198,4104.72727232,42.0,42.0,?
2017-08-01 19:17:58.048673,4540.03030258,3016.72727243,4191.78787837,1232.24242412,3918.24242385,2748.84848457,3904.84848446,3033.21212091,4281.93939351,53.5757575704,4443.18181774,4162.42424201,4205.69696928,3214.54545422,4324.69696926,2703.51515124,4969.15151465,2975.51515122,4187.66666625,107.151515141,4405.57575714,3535.99999965,4218.06060564,2711.75757549,4842.42424194,2950.78787849,4493.66666622,4104.72727232,42.0,42.0,?
2017-08-01 19:17:58.055361,4538.99999955,3016.72727243,4192.8181814,1232.24242412,3921.84848446,2748.84848457,3904.84848446,3033.21212091,4277.81818139,53.5757575704,4439.06060562,4162.42424201,4201.06060564,3214.54545422,4324.69696926,2703.51515124,4972.75757526,2975.51515122,4193.33333291,107.151515141,4407.12121168,3535.99999965,4216.51515109,2711.75757549,4840.87878739,2950.78787849,4499.8484844,4104.72727232,42.0,42.0,?
2017-08-01 19:17:58.062059,4535.39393894,3016.72727243,4193.33333291,1232.24242412,3911.03030264,2748.84848457,3893.51515113,3033.21212091,4269.57575715,53.5757575704,4429.78787834,4162.42424201,4200.54545413,3214.54545422,4314.39393896,2703.51515124,4971.72727223,2975.51515122,4185.60606019,107.151515141,4398.36363592,3535.99999965,4218.57575715,2711.75757549,4839.84848436,2950.78787849,4483.87878743,4104.72727232,42.0,42.0,?
2017-08-01 19:17:58.069519,4530.24242379,3016.72727243,4189.21212079,1232.24242412,3901.75757537,2748.84848457,3891.96969658,3033.21212091,4261.84848442,53.5757575704,4421.03030259,4162.42424201,4201.57575716,3214.54545422,4314.90909048,2703.51515124,4968.63636314,2975.51515122,4184.06060564,107.151515141,4388.06060562,3535.99999965,4215.48484806,2711.75757549,4836.24242376,2950.78787849,4478.72727228,4104.72727232,42.0,42.0,?
2017-08-01 19:17:58.078873,4526.12121167,3016.72727243,4189.21212079,1232.24242412,3903.30302991,2748.84848457,3890.42424204,3033.21212091,4265.96969654,53.5757575704,4422.06060562,4162.42424201,4204.15151473,3214.54545422,4322.12121169,2703.51515124,4968.63636314,2975.51515122,4189.72727231,107.151515141,4390.6363632,3535.99999965,4208.78787837,2711.75757549,4838.30302982,2950.78787849,4489.5454541,4104.72727232,42.0,42.0,?
2017-08-01 19:17:58.086575,4528.69696924,3016.72727243,4191.27272685,1232.24242412,3904.33333294,2748.84848457,3896.0909087,3033.21212091,4278.84848442,53.5757575704,4433.39393895,4162.42424201,4209.30302988,3214.54545422,4326.24242381,2703.51515124,4974.81818132,2975.51515122,4186.1212117,107.151515141,4401.45454501,3535.99999965,4209.30302988,2711.75757549,4845.51515103,2950.78787849,4489.5454541,4104.72727232,42.0,42.0,?
2017-08-01 19:17:58.096530,4537.454545,3016.72727243,4191.78787837,1232.24242412,3904.84848446,2748.84848457,3902.7878784,3033.21212091,4282.45454503,53.5757575704,4439.57575713,4162.42424201,4208.27272685,3214.54545422,4323.15151472,2703.51515124,4969.66666617,2975.51515122,4180.45454504,107.151515141,4400.42424198,3535.99999965,4206.72727231,2711.75757549,4841.90909042,2950.78787849,4484.90909046,4104.72727232,42.0,42.0,?
2017-08-01 19:17:58.101504,4538.99999955,3016.72727243,4190.24242382,1232.24242412,3904.84848446,2748.84848457,3893.51515113,3033.21212091,4273.18181775,53.5757575704,4430.81818138,4162.42424201,4203.1212117,3214.54545422,4315.93939351,2703.51515124,4955.24242375,2975.51515122,4179.93939352,107.151515141,4388.06060562,3535.99999965,4206.21212079,2711.75757549,4834.1818177,2950.78787849,4489.03030258,4104.72727232,42.0,42.0,?
2017-08-01 19:17:58.111769,4530.24242379,3016.72727243,4189.21212079,1232.24242412,3902.27272688,2748.84848457,3892.4848481,3033.21212091,4266.48484806,53.5757575704,4421.5454541,4162.42424201,4204.15151473,3214.54545422,4319.54545411,2703.51515124,4959.36363587,2975.51515122,4177.36363595,107.151515141,4388.57575714,3535.99999965,4214.45454503,2711.75757549,4835.72727224,2950.78787849,4484.90909046,4104.72727232,42.0,42.0,?
2017-08-01 19:17:58.117101,4523.54545409,3016.72727243,4187.15151473,1232.24242412,3897.12121173,2748.84848457,3903.30302991,3033.21212091,4266.48484806,53.5757575704,4417.9393935,4162.42424201,4197.96969655,3214.54545422,4321.09090866,2703.51515124,4968.12121162,2975.51515122,4174.78787837,107.151515141,4393.72727229,3535.99999965,4213.93939352,2711.75757549,4832.12121164,2950.78787849,4465.33333289,4104.72727232,42.0,42.0,?
2017-08-01 19:17:58.124527,4520.96969652,3016.72727243,4185.60606019,1232.24242412,3894.03030264,2748.84848457,3891.45454507,3033.21212091,4264.93939351,53.5757575704,4413.30302986,4162.42424201,4177.36363595,3214.54545422,4304.09090866,2703.51515124,4952.15151466,2975.51515122,4169.1212117,107.151515141,4380.3333329,3535.99999965,4202.60606019,2711.75757549,4818.72727225,2950.78787849,4457.09090865,4104.72727232,42.0,42.0,?
2017-08-01 19:17:58.132486,4519.93939349,3016.72727243,4189.21212079,1232.24242412,3897.12121173,2748.84848457,3873.42424204,3033.21212091,4265.96969654,53.5757575704,4416.90909047,4162.42424201,4171.18181776,3214.54545422,4292.24242381,2703.51515124,4940.81818132,2975.51515122,4159.33333292,107.151515141,4369.51515108,3535.99999965,4202.09090867,2711.75757549,4814.60606012,2950.78787849,4468.42424198,4104.72727232,42.0,42.0,?
2017-08-01 19:17:58.141281,4521.99999955,3016.72727243,4191.78787837,1232.24242412,3901.24242385,2748.84848457,3881.15151476,3033.21212091,4273.18181775,53.5757575704,4432.36363592,4162.42424201,4185.60606019,3214.54545422,4308.21212078,2703.51515124,4960.90909041,2975.51515122,4161.39393898,107.151515141,4377.2424238,3535.99999965,4205.69696928,2711.75757549,4823.8787874,2950.78787849,4481.30302985,4104.72727232,42.0,42.0,?
2017-08-01 19:17:58.150185,4520.96969652,3016.72727243,4189.21212079,1232.24242412,3898.66666628,2748.84848457,3899.18181779,3033.21212091,4274.7272723,53.5757575704,4440.09090865,4162.42424201,4195.90909049,3214.54545422,4320.57575714,2703.51515124,4969.15151465,2975.51515122,4176.84848443,107.151515141,4381.87878744,3535.99999965,4203.63636322,2711.75757549,4830.57575709,2950.78787849,4470.48484804,4104.72727232,42.0,42.0,?
2017-08-01 19:17:58.156081,4513.75757531,3016.72727243,4187.15151473,1232.24242412,3888.87878749,2748.84848457,3901.75757537,3033.21212091,4262.87878745,53.5757575704,4428.75757531,4162.42424201,4196.93939352,3214.54545422,4312.3333329,2703.51515124,4952.15151466,2975.51515122,4171.18181776,107.151515141,4374.15151471,3535.99999965,4204.15151473,2711.75757549,4825.42424194,2950.78787849,4449.36363592,4104.72727232,42.0,42.0,?
2017-08-01 19:17:58.163575,4512.72727228,3016.72727243,4187.15151473,1232.24242412,3886.81818143,2748.84848457,3895.57575719,3033.21212091,4256.18181776,53.5757575704,4416.90909047,4162.42424201,4202.09090867,3214.54545422,4308.7272723,2703.51515124,4949.57575708,2975.51515122,4151.60606019,107.151515141,4372.09090865,3535.99999965,4204.15151473,2711.75757549,4817.1818177,2950.78787849,4452.45454501,4104.72727232,42.0,42.0,?
2017-08-01 19:17:58.172200,4517.87878743,3016.72727243,4190.24242382,1232.24242412,3896.0909087,2748.84848457,3886.30302991,3033.21212091,4263.90909048,53.5757575704,4415.36363592,4162.42424201,4201.57575716,3214.54545422,4310.27272684,2703.51515124,4953.18181769,2975.51515122,4153.66666625,107.151515141,4376.21212077,3535.99999965,4203.1212117,2711.75757549,4812.54545406,2950.78787849,4465.8484844,4104.72727232,42.0,42.0,?
2017-08-01 19:17:58.179756,4516.33333288,3016.72727243,4191.78787837,1232.24242412,3899.18181779,2748.84848457,3881.66666628,3033.21212091,4264.93939351,53.5757575704,4416.39393895,4162.42424201,4191.78787837,3214.54545422,4307.69696927,2703.51515124,4942.87878738,2975.51515122,4166.54545413,107.151515141,4372.09090865,3535.99999965,4204.15151473,2711.75757549,4816.15151467,2950.78787849,4468.93939349,4104.72727232,42.0,42.0,?
2017-08-01 19:17:58.189079,4513.24242379,3016.72727243,4189.72727231,1232.24242412,3892.99999961,2748.84848457,3882.69696931,3033.21212091,4258.75757533,53.5757575704,4416.39393895,4162.42424201,4187.66666625,3214.54545422,4312.3333329,2703.51515124,4941.33333284,2975.51515122,4169.63636322,107.151515141,4373.12121168,3535.99999965,4203.63636322,2711.75757549,4826.45454497,2950.78787849,4471.51515107,4104.72727232,42.0,42.0,?
2017-08-01 19:17:58.194734,4513.75757531,3016.72727243,4184.06060564,1232.24242412,3892.4848481,2748.84848457,3869.30302992,3033.21212091,4261.33333291,53.5757575704,4416.39393895,4162.42424201,4189.21212079,3214.54545422,4316.96969654,2703.51515124,4953.6969692,2975.51515122,4163.96969655,107.151515141,4378.78787835,3535.99999965,4201.57575716,2711.75757549,4827.99999952,2950.78787849,4473.57575713,4104.72727232,42.0,42.0,?
2017-08-01 19:17:58.204285,4514.27272682,3016.72727243,4186.1212117,1232.24242412,3895.57575719,2748.84848457,3864.66666628,3033.21212091,4265.45454503,53.5757575704,4418.96969653,4162.42424201,4191.78787837,3214.54545422,4315.42424199,2703.51515124,4957.81818132,2975.51515122,4164.48484807,107.151515141,4378.27272683,3535.99999965,4203.63636322,2711.75757549,4825.42424194,2950.78787849,4466.87878743,4104.72727232,42.0,42.0,?
2017-08-01 19:17:58.211705,4522.51515106,3016.72727243,4202.09090867,1232.24242412,3898.66666628,2748.84848457,3892.99999961,3033.21212091,4263.90909048,53.5757575704,4423.60606016,4162.42424201,4198.48484806,3214.54545422,4317.48484805,2703.51515124,4957.81818132,2975.51515122,4171.18181776,107.151515141,4383.9393935,3535.99999965,4205.18181776,2711.75757549,4828.51515103,2950.78787849,4464.81818137,4104.72727232,42.0,42.0,?
2017-08-01 19:17:58.224752,4527.1515147,3016.72727243,4196.424242,1232.24242412,3899.69696931,2748.84848457,3908.45454506,3033.21212091,4265.96969654,53.5757575704,4425.66666622,4162.42424201,4197.96969655,3214.54545422,4322.6363632,2703.51515124,4960.90909041,2975.51515122,4177.36363595,107.151515141,4390.12121168,3535.99999965,4203.63636322,2711.75757549,4827.484848,2950.78787849,4477.18181773,4104.72727232,42.0,42.0,?
2017-08-01 19:17:58.228206,4516.33333288,3016.72727243,4180.45454504,1232.24242412,3886.81818143,2748.84848457,3884.24242385,3033.21212091,4261.33333291,53.5757575704,4419.48484804,4162.42424201,4187.15151473,3214.54545422,4313.36363593,2703.51515124,4949.57575708,2975.51515122,4171.69696928,107.151515141,4383.42424199,3535.99999965,4202.09090867,2711.75757549,4821.81818134,2950.78787849,4474.60606016,4104.72727232,42.0,42.0,?
2017-08-01 19:17:58.234748,4510.1515147,3016.72727243,4189.72727231,1232.24242412,3878.57575719,2748.84848457,3879.0909087,3033.21212091,4253.09090867,53.5757575704,4414.84848441,4162.42424201,4183.03030261,3214.54545422,4302.0303026,2703.51515124,4945.45454496,2975.51515122,4160.36363595,107.151515141,4372.60606017,3535.99999965,4194.87878746,2711.75757549,4820.27272679,2950.78787849,4456.06060561,4104.72727232,42.0,42.0,?
2017-08-01 19:17:58.242303,4516.8484844,3016.72727243,4196.424242,1232.24242412,3887.33333294,2748.84848457,3898.15151476,3033.21212091,4257.21212079,53.5757575704,4418.45454501,4162.42424201,4192.8181814,3214.54545422,4309.24242381,2703.51515124,4962.45454496,2975.51515122,4168.09090867,107.151515141,4377.75757532,3535.99999965,4195.39393897,2711.75757549,4827.99999952,2950.78787849,4456.57575713,4104.72727232,42.0,42.0,?
2017-08-01 19:17:58.253910,4521.48484803,3016.72727243,4194.36363594,1232.24242412,3895.57575719,2748.84848457,3877.03030264,3033.21212091,4259.78787836,53.5757575704,4418.96969653,4162.42424201,4198.48484806,3214.54545422,4316.45454502,2703.51515124,4966.06060556,2975.51515122,4179.42424201,107.151515141,4393.21212077,3535.99999965,4200.54545413,2711.75757549,4841.39393891,2950.78787849,4478.21212076,4104.72727232,42.0,42.0,?
2017-08-01 19:17:58.261616,4517.36363591,3016.72727243,4191.78787837,1232.24242412,3893.51515113,2748.84848457,3852.81818143,3033.21212091,4257.7272723,53.5757575704,4418.45454501,4162.42424201,4191.27272685,3214.54545422,4309.24242381,2703.51515124,4953.6969692,2975.51515122,4175.8181814,107.151515141,4390.6363632,3535.99999965,4194.36363594,2711.75757549,4837.7878783,2950.78787849,4483.36363592,4104.72727232,42.0,42.0,?
2017-08-01 19:17:58.266068,4513.75757531,3016.72727243,4189.21212079,1232.24242412,3885.27272688,2748.84848457,3882.69696931,3033.21212091,4260.30302988,53.5757575704,4422.57575713,4162.42424201,4189.72727231,3214.54545422,4304.60606018,2703.51515124,4943.90909041,2975.51515122,4164.48484807,107.151515141,4378.27272683,3535.99999965,4193.33333291,2711.75757549,4824.90909043,2950.78787849,4466.87878743,4104.72727232,42.0,42.0,?
2017-08-01 19:17:58.273918,4516.8484844,3016.72727243,4191.78787837,1232.24242412,3884.24242385,2748.84848457,3906.90909052,3033.21212091,4261.33333291,53.5757575704,4422.57575713,4162.42424201,4189.72727231,3214.54545422,4305.12121169,2703.51515124,4933.0909086,2975.51515122,4155.72727231,107.151515141,4373.6363632,3535.99999965,4194.87878746,2711.75757549,4820.78787831,2950.78787849,4457.60606016,4104.72727232,42.0,42.0,?
2017-08-01 19:17:58.281492,4519.42424197,3016.72727243,4191.78787837,1232.24242412,3888.36363597,2748.84848457,3883.21212082,3033.21212091,4258.24242382,53.5757575704,4411.75757532,4162.42424201,4180.45454504,3214.54545422,4301.51515109,2703.51515124,4930.51515102,2975.51515122,4157.78787837,107.151515141,4372.09090865,3535.99999965,4194.36363594,2711.75757549,4820.27272679,2950.78787849,4459.15151471,4104.72727232,42.0,42.0,?
2017-08-01 19:17:58.288970,4519.93939349,3016.72727243,4189.21212079,1232.24242412,3890.93939355,2748.84848457,3871.36363598,3033.21212091,4254.63636321,53.5757575704,4401.45454501,4162.42424201,4175.8181814,3214.54545422,4298.93939351,2703.51515124,4946.48484799,2975.51515122,4166.54545413,107.151515141,4374.66666623,3535.99999965,4194.87878746,2711.75757549,4826.45454497,2950.78787849,4463.78787834,4104.72727232,42.0,42.0,?
2017-08-01 19:17:58.297145,4521.99999955,3016.72727243,4189.21212079,1232.24242412,3891.96969658,2748.84848457,3890.42424204,3033.21212091,4252.57575715,53.5757575704,4395.78787835,4162.42424201,4173.24242383,3214.54545422,4300.99999957,2703.51515124,4957.81818132,2975.51515122,4167.06060564,107.151515141,4380.84848441,3535.99999965,4193.84848443,2711.75757549,4835.72727224,2950.78787849,4475.12121167,4104.72727232,42.0,42.0,?
2017-08-01 19:17:58.307893,4524.06060561,3016.72727243,4189.21212079,1232.24242412,3887.84848446,2748.84848457,3896.0909087,3033.21212091,4254.1212117,53.5757575704,4394.2424238,4162.42424201,4163.96969655,3214.54545422,4294.81818139,2703.51515124,4946.99999951,2975.51515122,4161.90909049,107.151515141,4378.27272683,3535.99999965,4191.27272685,2711.75757549,4832.12121164,2950.78787849,4479.75757531,4104.72727232,42.0,42.0,?
2017-08-01 19:17:58.314437,4526.63636318,3016.72727243,4190.75757534,1232.24242412,3883.21212082,2748.84848457,3885.7878784,3033.21212091,4256.18181776,53.5757575704,4401.45454501,4162.42424201,4159.84848443,3214.54545422,4285.0303026,2703.51515124,4926.3939389,2975.51515122,4163.45454504,107.151515141,4372.09090865,3535.99999965,4191.27272685,2711.75757549,4824.90909043,2950.78787849,4463.78787834,4104.72727232,42.0,42.0,?
2017-08-01 19:17:58.324267,4524.06060561,3016.72727243,4189.21212079,1232.24242412,3885.27272688,2748.84848457,3882.69696931,3033.21212091,4255.66666624,53.5757575704,4408.66666623,4162.42424201,4170.66666625,3214.54545422,4288.63636321,2703.51515124,4925.87878739,2975.51515122,4162.42424201,107.151515141,4372.09090865,3535.99999965,4192.30302988,2711.75757549,4825.93939346,2950.78787849,4456.57575713,4104.72727232,42.0,42.0,?
2017-08-01 19:17:58.329677,4519.42424197,3016.72727243,4186.1212117,1232.24242412,3889.90909052,2748.84848457,3880.12121173,3033.21212091,4257.21212079,53.5757575704,4410.21212077,4162.42424201,4177.87878746,3214.54545422,4297.39393896,2703.51515124,4942.36363587,2975.51515122,4160.36363595,107.151515141,4375.18181774,3535.99999965,4192.8181814,2711.75757549,4826.96969649,2950.78787849,4470.99999955,4104.72727232,42.0,42.0,?
2017-08-01 19:17:58.335660,4516.8484844,3016.72727243,4187.66666625,1232.24242412,3887.84848446,2748.84848457,3871.87878749,3033.21212091,4257.21212079,53.5757575704,4409.18181774,4162.42424201,4176.33333292,3214.54545422,4298.93939351,2703.51515124,4945.45454496,2975.51515122,4164.48484807,107.151515141,4374.15151471,3535.99999965,4193.84848443,2711.75757549,4819.75757528,2950.78787849,4476.66666622,4104.72727232,42.0,42.0,?
2017-08-01 19:17:58.345740,4511.18181773,3016.72727243,4185.60606019,1232.24242412,3880.12121173,2748.84848457,3872.39393901,3033.21212091,4251.54545412,53.5757575704,4411.2424238,4162.42424201,4176.33333292,3214.54545422,4296.36363593,2703.51515124,4944.42424193,2975.51515122,4159.84848443,107.151515141,4370.54545411,3535.99999965,4189.21212079,2711.75757549,4814.60606012,2950.78787849,4465.8484844,4104.72727232,42.0,42.0,?
2017-08-01 19:17:58.352538,4506.54545409,3016.72727243,4187.15151473,1232.24242412,3878.57575719,2748.84848457,3882.69696931,3033.21212091,4248.45454503,53.5757575704,4413.81818138,4162.42424201,4174.78787837,3214.54545422,4294.30302987,2703.51515124,4948.03030254,2975.51515122,4154.69696928,107.151515141,4370.03030259,3535.99999965,4186.63636322,2711.75757549,4820.27272679,2950.78787849,4457.60606016,4104.72727232,42.0,42.0,?
2017-08-01 19:17:58.368991,4508.60606016,3016.72727243,4190.75757534,1232.24242412,3879.0909087,2748.84848457,3890.42424204,3033.21212091,4249.99999958,53.5757575704,4411.75757532,4162.42424201,4173.75757534,3214.54545422,4295.3333329,2703.51515124,4942.36363587,2975.51515122,4164.99999958,107.151515141,4373.12121168,3535.99999965,4189.72727231,2711.75757549,4827.484848,2950.78787849,4455.03030258,4104.72727232,42.0,42.0,?
2017-08-01 19:17:58.373467,4509.63636319,3016.72727243,4189.21212079,1174.54545443,3877.54545416,2748.84848457,3886.81818143,3033.21212091,4253.09090867,53.5757575704,4412.27272683,4162.42424201,4175.8181814,3214.54545422,4298.42424199,2703.51515124,4936.6969692,2975.51515122,4173.75757534,107.151515141,4375.18181774,3535.99999965,4191.27272685,2711.75757549,4827.99999952,2950.78787849,4452.45454501,4104.72727232,42.0,42.0,?
2017-08-01 19:17:58.388274,4513.24242379,3016.72727243,4187.15151473,1174.54545443,3876.51515113,2748.84848457,3883.72727234,3033.21212091,4258.75757533,53.5757575704,4416.90909047,4162.42424201,4179.93939352,3214.54545422,4304.60606018,2703.51515124,4961.93939344,2975.51515122,4170.15151473,107.151515141,4371.06060562,3535.99999965,4189.21212079,2711.75757549,4825.42424194,2950.78787849,4453.99999955,4112.96969656,42.0,42.0,?
2017-08-01 19:17:58.392509,4513.24242379,3016.72727243,4187.15151473,1174.54545443,3875.4848481,2748.84848457,3894.54545416,3033.21212091,4258.75757533,53.5757575704,4415.36363592,4162.42424201,4183.03030261,3214.54545422,4311.30302987,2703.51515124,4961.93939344,2975.51515122,4161.39393898,107.151515141,4362.81818138,3535.99999965,4189.21212079,2711.75757549,4820.78787831,2950.78787849,4463.78787834,4112.96969656,42.0,42.0,?
2017-08-01 19:17:58.396490,4496.75757531,3016.72727243,4186.63636322,1174.54545443,3877.03030264,2748.84848457,3870.33333295,3037.33333303,4256.69696927,53.5757575704,4408.15151471,4162.42424201,4177.36363595,3214.54545422,4298.93939351,2703.51515124,4940.81818132,2975.51515122,4158.30302989,107.151515141,4359.21212078,3535.99999965,4188.69696928,2711.75757549,4809.96969649,2950.78787849,4456.57575713,4112.96969656,42.0,42.0,?
2017-08-01 19:17:58.400539,4510.1515147,3016.72727243,4188.69696928,1174.54545443,3879.60606022,2748.84848457,3887.84848446,3037.33333303,4252.57575715,57.6969696912,4409.69696926,4166.54545413,4176.33333292,3214.54545422,4305.63636321,2703.51515124,4951.63636314,2975.51515122,4173.75757534,107.151515141,4371.57575714,3535.99999965,4184.06060564,2711.75757549,4826.45454497,2950.78787849,4462.75757531,4112.96969656,42.0,42.0,?
2017-08-01 19:17:58.409862,4510.1515147,3016.72727243,4188.69696928,1174.54545443,3879.60606022,2748.84848457,3887.84848446,3037.33333303,4252.57575715,57.6969696912,4409.69696926,4166.54545413,4176.33333292,3214.54545422,4305.63636321,2703.51515124,4951.63636314,2975.51515122,4173.75757534,107.151515141,4371.57575714,3535.99999965,4184.06060564,2711.75757549,4826.45454497,2950.78787849,4462.75757531,4112.96969656,42.0,42.0,?
2017-08-01 19:17:58.413646,4510.1515147,3016.72727243,4188.69696928,1174.54545443,3879.60606022,2748.84848457,3887.84848446,3037.33333303,4252.57575715,57.6969696912,4409.69696926,4166.54545413,4176.33333292,3214.54545422,4305.63636321,2703.51515124,4951.63636314,2975.51515122,4173.75757534,107.151515141,4371.57575714,3535.99999965,4184.06060564,2711.75757549,4826.45454497,2950.78787849,4462.75757531,4112.96969656,42.0,42.0,?
2017-08-01 19:17:58.422198,4512.21212076,3016.72727243,4190.24242382,1174.54545443,3872.39393901,2748.84848457,3884.24242385,3037.33333303,4247.424242,57.6969696912,4405.06060562,4166.54545413,4168.60606019,3214.54545422,4296.87878745,2715.87878761,4937.21212072,2975.51515122,4173.24242383,107.151515141,4372.60606017,3535.99999965,4184.57575716,2711.75757549,4826.45454497,2950.78787849,4460.69696925,4112.96969656,42.0,42.0,?
2017-08-01 19:17:58.433001,4507.57575713,3016.72727243,4190.75757534,1174.54545443,3873.93939355,2748.84848457,3878.57575719,3037.33333303,4247.424242,57.6969696912,4404.03030259,4166.54545413,4167.57575716,3214.54545422,4293.27272684,2715.87878761,4932.06060557,2971.3939391,4170.15151473,107.151515141,4370.03030259,3535.99999965,4187.15151473,2711.75757549,4829.03030255,2950.78787849,4452.96969652,4112.96969656,42.0,42.0,?
2017-08-01 19:17:58.449016,4497.27272682,3016.72727243,4191.27272685,1174.54545443,3876.51515113,2748.84848457,3877.54545416,3037.33333303,4251.03030261,57.6969696912,4399.39393895,4166.54545413,4164.99999958,3214.54545422,4288.63636321,2715.87878761,4941.33333284,2971.3939391,4156.24242383,98.9090908992,4363.3333329,3535.99999965,4181.99999958,2711.75757549,4819.75757528,2950.78787849,4445.2424238,4112.96969656,42.0,42.0,?
2017-08-01 19:17:58.454334,4491.60606016,3016.72727243,4186.1212117,1174.54545443,3871.36363598,2748.84848457,3868.7878784,3037.33333303,4244.84848442,57.6969696912,4394.2424238,4166.54545413,4157.27272686,3214.54545422,4278.84848442,2715.87878761,4933.60606011,2971.3939391,4142.33333292,98.9090908992,4350.96969653,3535.99999965,4175.8181814,2711.75757549,4799.15151467,2950.78787849,4442.66666622,4112.96969656,42.0,42.0,?
2017-08-01 19:17:58.459167,4496.24242379,3016.72727243,4188.18181776,1174.54545443,3870.33333295,2748.84848457,3863.63636325,3037.33333303,4237.63636321,57.6969696912,4395.78787835,4166.54545413,4155.72727231,3214.54545422,4277.30302988,2715.87878761,4914.54545405,2971.3939391,4137.18181777,98.9090908992,4349.9393935,3535.99999965,4172.21212079,2707.63636337,4794.51515104,2950.78787849,4450.39393895,4112.96969656,42.0,42.0,?
2017-08-01 19:17:58.463837,4501.39393894,3016.72727243,4190.24242382,1174.54545443,3875.4848481,2748.84848457,3876.51515113,3037.33333303,4246.39393897,57.6969696912,4402.99999956,4166.54545413,4162.93939352,3214.54545422,4287.60606018,2715.87878761,4920.72727224,2971.3939391,4145.42424201,98.9090908992,4366.42424199,3535.99999965,4174.27272686,2707.63636337,4806.8787874,2963.15151486,4457.09090865,4112.96969656,42.0,42.0,?
2017-08-01 19:17:58.468623,4501.90909046,3016.72727243,4186.63636322,1174.54545443,3878.06060567,2748.84848457,3894.54545416,3037.33333303,4255.15151473,57.6969696912,4405.57575714,4166.54545413,4169.1212117,3214.54545422,4294.81818139,2715.87878761,4938.75757526,2971.3939391,4161.39393898,98.9090908992,4375.69696926,3535.99999965,4183.54545413,2707.63636337,4818.21212073,2963.15151486,4450.90909046,4112.96969656,42.0,42.0,?
2017-08-01 19:17:58.479848,4502.93939349,3016.72727243,4188.18181776,1174.54545443,3879.60606022,2748.84848457,3902.27272688,3037.33333303,4256.69696927,57.6969696912,4409.18181774,4166.54545413,4168.60606019,3214.54545422,4296.87878745,2715.87878761,4944.42424193,2971.3939391,4166.03030261,98.9090908992,4371.06060562,3540.12121177,4184.57575716,2707.63636337,4824.90909043,2963.15151486,4448.33333289,4112.96969656,42.0,42.0,?
2017-08-01 19:17:58.485045,4507.57575713,3016.72727243,4188.69696928,1174.54545443,3877.54545416,2748.84848457,3897.12121173,3037.33333303,4255.66666624,57.6969696912,4413.81818138,4166.54545413,4163.45454504,3214.54545422,4300.48484805,2715.87878761,4953.6969692,2971.3939391,4164.99999958,98.9090908992,4371.57575714,3540.12121177,4180.45454504,2707.63636337,4827.99999952,2963.15151486,4461.21212077,4112.96969656,42.0,42.0,?
2017-08-01 19:17:58.494289,4512.72727228,3016.72727243,4188.69696928,1174.54545443,3873.42424204,2748.84848457,3890.93939355,3037.33333303,4253.60606018,57.6969696912,4409.18181774,4166.54545413,4161.90909049,3214.54545422,4301.51515109,2715.87878761,4956.78787829,2971.3939391,4171.18181776,98.9090908992,4377.2424238,3540.12121177,4180.45454504,2707.63636337,4826.45454497,2963.15151486,4467.90909046,4112.96969656,42.0,42.0,?
2017-08-01 19:17:58.499673,4504.48484803,3016.72727243,4188.69696928,1174.54545443,3874.96969658,2748.84848457,3884.24242385,3037.33333303,4251.03030261,57.6969696912,4401.45454501,4166.54545413,4166.03030261,3214.54545422,4302.0303026,2715.87878761,4938.24242375,2971.3939391,4170.66666625,98.9090908992,4367.96969653,3540.12121177,4177.36363595,2707.63636337,4820.78787831,2963.15151486,4458.12121168,4112.96969656,42.0,42.0,?
2017-08-01 19:17:58.509586,4491.09090864,3016.72727243,4187.66666625,1174.54545443,3879.0909087,2748.84848457,3871.36363598,3037.33333303,4246.90909048,57.6969696912,4401.45454501,4166.54545413,4172.21212079,3214.54545422,4301.51515109,2715.87878761,4932.57575708,2971.3939391,4154.18181777,98.9090908992,4354.57575714,3540.12121177,4170.15151473,2707.63636337,4814.09090861,2963.15151486,4447.30302986,4112.96969656,42.0,42.0,?
2017-08-01 19:17:58.516404,4492.63636319,3016.72727243,4186.63636322,1174.54545443,3885.27272688,2748.84848457,3871.87878749,3037.33333303,4249.99999958,57.6969696912,4412.27272683,4166.54545413,4178.90909049,3214.54545422,4306.15151472,2715.87878761,4957.30302981,2971.3939391,4151.09090868,98.9090908992,4359.72727229,3540.12121177,4173.24242383,2707.63636337,4812.54545406,2963.15151486,4448.8484844,4112.96969656,42.0,42.0,?
2017-08-01 19:17:58.529412,4499.33333288,3016.72727243,4184.57575716,1174.54545443,3891.45454507,2748.84848457,3881.15151476,3037.33333303,4256.69696927,57.6969696912,4421.03030259,4166.54545413,4185.60606019,3214.54545422,4313.87878745,2715.87878761,4971.21212072,2971.3939391,4163.45454504,98.9090908992,4370.03030259,3540.12121177,4177.36363595,2707.63636337,4817.69696922,2963.15151486,4451.42424198,4112.96969656,42.0,42.0,?
2017-08-01 19:17:58.532438,4500.36363591,3016.72727243,4187.66666625,1174.54545443,3892.4848481,2748.84848457,3883.72727234,3037.33333303,4254.63636321,57.6969696912,4417.42424198,4166.54545413,4185.09090867,3214.54545422,4312.3333329,2715.87878761,4958.84848435,2971.3939391,4171.18181776,98.9090908992,4367.96969653,3540.12121177,4173.24242383,2707.63636337,4819.75757528,2963.15151486,4451.93939349,4112.96969656,42.0,42.0,?
2017-08-01 19:17:58.544381,4503.96969652,3016.72727243,4190.24242382,1174.54545443,3895.06060567,2748.84848457,3888.36363597,3037.33333303,4259.27272685,57.6969696912,4415.87878744,4166.54545413,4186.1212117,3214.54545422,4308.7272723,2715.87878761,4953.18181769,2971.3939391,4174.27272686,98.9090908992,4370.03030259,3540.12121177,4172.72727231,2707.63636337,4817.1818177,2963.15151486,4458.63636319,4112.96969656,42.0,42.0,?
2017-08-01 19:17:58.547729,4506.54545409,3016.72727243,4187.15151473,1174.54545443,3903.30302991,2748.84848457,3894.03030264,3037.33333303,4271.63636321,57.6969696912,4422.57575713,4166.54545413,4192.30302988,3214.54545422,4315.93939351,2715.87878761,4957.81818132,2971.3939391,4173.75757534,98.9090908992,4381.87878744,3540.12121177,4176.84848443,2707.63636337,4818.21212073,2963.15151486,4462.2424238,4112.96969656,42.0,42.0,?
2017-08-01 19:17:58.555972,4506.54545409,3016.72727243,4190.24242382,1174.54545443,3907.93939355,2748.84848457,3893.51515113,3037.33333303,4269.06060563,57.6969696912,4422.57575713,4166.54545413,4191.27272685,3214.54545422,4323.15151472,2715.87878761,4948.54545405,2971.3939391,4175.30302989,98.9090908992,4384.45454502,3540.12121177,4177.36363595,2707.63636337,4822.84848437,2963.15151486,4457.09090865,4112.96969656,42.0,42.0,?
2017-08-01 19:17:58.563105,4511.18181773,3016.72727243,4189.72727231,1174.54545443,3908.45454506,2748.84848457,3892.4848481,3037.33333303,4268.0303026,57.6969696912,4418.45454501,4166.54545413,4187.15151473,3214.54545422,4320.06060563,2715.87878761,4946.99999951,2971.3939391,4186.63636322,98.9090908992,4384.96969653,3540.12121177,4176.84848443,2707.63636337,4829.54545406,2963.15151486,4457.60606016,4112.96969656,42.0,42.0,?
2017-08-01 19:17:58.570934,4514.27272682,3016.72727243,4187.66666625,1174.54545443,3909.99999961,2748.84848457,3898.15151476,3037.33333303,4276.27272685,57.6969696912,4422.06060562,4166.54545413,4178.90909049,3214.54545422,4312.3333329,2715.87878761,4962.45454496,2971.3939391,4190.75757534,98.9090908992,4389.09090865,3540.12121177,4175.30302989,2707.63636337,4830.06060558,2963.15151486,4461.72727228,4112.96969656,42.0,42.0,?
2017-08-01 19:17:58.579319,4508.09090864,3016.72727243,4190.75757534,1174.54545443,3905.87878749,2748.84848457,3896.60606022,3037.33333303,4269.06060563,57.6969696912,4416.90909047,4166.54545413,4163.96969655,3214.54545422,4303.57575715,2715.87878761,4958.33333284,2971.3939391,4176.84848443,98.9090908992,4380.84848441,3540.12121177,4172.72727231,2707.63636337,4819.75757528,2963.15151486,4456.57575713,4112.96969656,42.0,42.0,?
2017-08-01 19:17:58.587253,4504.48484803,3016.72727243,4188.69696928,1174.54545443,3901.75757537,2748.84848457,3881.66666628,3037.33333303,4259.27272685,57.6969696912,4410.21212077,4166.54545413,4166.03030261,3214.54545422,4300.48484805,2715.87878761,4943.90909041,2971.3939391,4170.15151473,98.9090908992,4370.54545411,3540.12121177,4173.24242383,2707.63636337,4814.09090861,2963.15151486,4451.93939349,4112.96969656,42.0,42.0,?
2017-08-01 19:17:58.593771,4508.60606016,3016.72727243,4185.60606019,1174.54545443,3905.87878749,2748.84848457,3875.99999961,3037.33333303,4262.87878745,57.6969696912,4417.9393935,4166.54545413,4181.99999958,3214.54545422,4306.66666624,2715.87878761,4954.72727223,2971.3939391,4168.60606019,98.9090908992,4375.69696926,3540.12121177,4172.72727231,2707.63636337,4820.78787831,2963.15151486,4455.5454541,4112.96969656,42.0,42.0,?
2017-08-01 19:17:58.604382,4506.54545409,3016.72727243,4186.63636322,1174.54545443,3904.84848446,2748.84848457,3887.84848446,3037.33333303,4263.90909048,57.6969696912,4416.90909047,4166.54545413,4185.09090867,3214.54545422,4307.18181775,2715.87878761,4965.03030253,2971.3939391,4156.24242383,98.9090908992,4380.84848441,3540.12121177,4167.57575716,2707.63636337,4819.75757528,2963.15151486,4459.15151471,4112.96969656,42.0,42.0,?
2017-08-01 19:17:58.610974,4502.93939349,3016.72727243,4190.75757534,1174.54545443,3897.12121173,2748.84848457,3892.4848481,3037.33333303,4261.84848442,57.6969696912,4407.6363632,4166.54545413,4182.5151511,3214.54545422,4301.51515109,2715.87878761,4954.72727223,2971.3939391,4155.2121208,98.9090908992,4378.27272683,3540.12121177,4164.48484807,2707.63636337,4809.45454497,2963.15151486,4451.93939349,4112.96969656,42.0,42.0,?
2017-08-01 19:17:58.618823,4505.51515106,3016.72727243,4191.27272685,1174.54545443,3899.69696931,2748.84848457,3885.27272688,3037.33333303,4261.33333291,57.6969696912,4407.6363632,4166.54545413,4181.99999958,3214.54545422,4302.54545412,2715.87878761,4949.57575708,2971.3939391,4168.60606019,98.9090908992,4381.36363593,3540.12121177,4163.45454504,2707.63636337,4809.96969649,2963.15151486,4446.27272683,4112.96969656,42.0,42.0,?
2017-08-01 19:17:58.630417,4506.54545409,3016.72727243,4187.66666625,1174.54545443,3902.7878784,2748.84848457,3875.99999961,3037.33333303,4258.24242382,57.6969696912,4406.09090865,4166.54545413,4177.87878746,3214.54545422,4306.66666624,2715.87878761,4957.81818132,2971.3939391,4174.27272686,98.9090908992,4383.9393935,3540.12121177,4164.48484807,2707.63636337,4816.15151467,2963.15151486,4455.5454541,4112.96969656,42.0,42.0,?
2017-08-01 19:17:58.635622,4504.48484803,3016.72727243,4190.24242382,1174.54545443,3895.57575719,2748.84848457,3867.24242386,3037.33333303,4255.15151473,57.6969696912,4405.57575714,4166.54545413,4181.48484807,3214.54545422,4307.69696927,2715.87878761,4962.96969647,2971.3939391,4174.78787837,98.9090908992,4380.84848441,3540.12121177,4166.03030261,2707.63636337,4815.63636315,2963.15151486,4455.5454541,4112.96969656,42.0,42.0,?
2017-08-01 19:17:58.645617,4500.36363591,3016.72727243,4190.75757534,1174.54545443,3890.93939355,2748.84848457,3874.45454507,3037.33333303,4261.33333291,57.6969696912,4415.87878744,4166.54545413,4186.63636322,3214.54545422,4310.27272684,2715.87878761,4955.75757526,2971.3939391,4176.84848443,98.9090908992,4376.72727229,3540.12121177,4167.06060564,2707.63636337,4811.51515103,2963.15151486,4440.09090865,4112.96969656,42.0,42.0,?
2017-08-01 19:17:58.650443,4502.42424197,3016.72727243,4188.18181776,1174.54545443,3891.45454507,2748.84848457,3898.15151476,3037.33333303,4268.0303026,57.6969696912,4423.60606016,4166.54545413,4183.54545413,3214.54545422,4310.78787836,2715.87878761,4955.24242375,2971.3939391,4177.36363595,98.9090908992,4374.15151471,3540.12121177,4165.5151511,2707.63636337,4814.60606012,2963.15151486,4442.15151471,4112.96969656,42.0,42.0,?
2017-08-01 19:17:58.657940,4510.66666622,3016.72727243,4189.21212079,1174.54545443,3897.12121173,2748.84848457,3904.84848446,3037.33333303,4265.96969654,57.6969696912,4422.06060562,4166.54545413,4184.57575716,3214.54545422,4309.24242381,2715.87878761,4967.60606011,2971.3939391,4176.33333292,98.9090908992,4379.81818138,3540.12121177,4162.42424201,2707.63636337,4822.84848437,2963.15151486,4457.09090865,4112.96969656,42.0,42.0,?
2017-08-01 19:17:58.665384,4513.24242379,3016.72727243,4189.72727231,1174.54545443,3904.84848446,2748.84848457,3884.24242385,3037.33333303,4266.48484806,57.6969696912,4425.15151471,4166.54545413,4197.96969655,3214.54545422,4313.36363593,2715.87878761,4976.36363587,2971.3939391,4181.48484807,98.9090908992,4387.54545411,3540.12121177,4164.48484807,2707.63636337,4827.484848,2963.15151486,4459.15151471,4112.96969656,42.0,42.0,?
2017-08-01 19:17:58.678628,4514.27272682,3016.72727243,4193.33333291,1174.54545443,3908.96969658,2748.84848457,3874.96969658,3037.33333303,4271.63636321,57.6969696912,4427.72727228,4166.54545413,4207.75757534,3214.54545422,4322.12121169,2715.87878761,4980.9999995,2971.3939391,4193.84848443,98.9090908992,4389.60606017,3540.12121177,4169.1212117,2707.63636337,4830.06060558,2963.15151486,4460.69696925,4112.96969656,42.0,42.0,?
2017-08-01 19:17:58.683546,4521.48484803,3016.72727243,4193.84848443,1174.54545443,3909.48484809,2748.84848457,3889.393939,3037.33333303,4273.18181775,57.6969696912,4425.15151471,4166.54545413,4203.63636322,3214.54545422,4323.66666623,2715.87878761,4984.60606011,2971.3939391,4198.99999958,98.9090908992,4390.6363632,3540.12121177,4171.18181776,2707.63636337,4831.60606012,2963.15151486,4473.57575713,4112.96969656,42.0,42.0,?
2017-08-01 19:17:58.693962,4526.63636318,3016.72727243,4188.69696928,1174.54545443,3911.54545415,2748.84848457,3897.12121173,3037.33333303,4270.60606018,57.6969696912,4423.60606016,4166.54545413,4192.30302988,3214.54545422,4319.0303026,2715.87878761,4976.36363587,2971.3939391,4194.36363594,98.9090908992,4393.21212077,3540.12121177,4169.1212117,2707.63636337,4835.72727224,2963.15151486,4476.66666622,4112.96969656,42.0,42.0,?
2017-08-01 19:17:58.701546,4524.06060561,3016.72727243,4189.21212079,1174.54545443,3911.03030264,2748.84848457,3889.90909052,3037.33333303,4264.424242,57.6969696912,4416.90909047,4166.54545413,4188.18181776,3214.54545422,4314.39393896,2715.87878761,4961.93939344,2971.3939391,4187.66666625,98.9090908992,4393.72727229,3540.12121177,4165.5151511,2707.63636337,4840.36363588,2963.15151486,4468.93939349,4112.96969656,42.0,42.0,?
2017-08-01 19:17:58.705110,4519.93939349,3016.72727243,4189.72727231,1174.54545443,3903.81818143,2748.84848457,3895.06060567,3037.33333303,4261.84848442,57.6969696912,4409.69696926,4166.54545413,4192.8181814,3214.54545422,4319.54545411,2715.87878761,4968.63636314,2971.3939391,4189.72727231,98.9090908992,4393.72727229,3540.12121177,4164.48484807,2707.63636337,4841.90909042,2963.15151486,4467.39393895,4112.96969656,42.0,42.0,?
2017-08-01 19:17:58.712510,4521.48484803,3016.72727243,4189.21212079,1174.54545443,3903.81818143,2748.84848457,3906.393939,3037.33333303,4264.424242,57.6969696912,4416.90909047,4166.54545413,4201.06060564,3214.54545422,4328.30302987,2715.87878761,4988.21212071,2971.3939391,4195.39393897,98.9090908992,4392.69696926,3540.12121177,4166.03030261,2707.63636337,4840.36363588,2963.15151486,4465.8484844,4112.96969656,42.0,42.0,?
2017-08-01 19:17:58.718558,4524.06060561,3016.72727243,4191.27272685,1174.54545443,3908.45454506,2748.84848457,3886.81818143,3037.33333303,4266.48484806,57.6969696912,4426.18181774,4166.54545413,4199.5151511,3214.54545422,4320.06060563,2715.87878761,4985.63636314,2971.3939391,4192.30302988,98.9090908992,4385.99999956,3540.12121177,4166.54545413,2707.63636337,4832.12121164,2963.15151486,4465.33333289,4112.96969656,42.0,42.0,?
2017-08-01 19:17:58.727592,4517.87878743,3016.72727243,4189.72727231,1174.54545443,3902.7878784,2748.84848457,3872.90909052,3037.33333303,4265.96969654,57.6969696912,4422.06060562,4166.54545413,4186.63636322,3214.54545422,4303.57575715,2715.87878761,4956.27272678,2971.3939391,4180.96969655,98.9090908992,4379.81818138,3540.12121177,4164.99999958,2707.63636337,4821.30302982,2963.15151486,4472.03030258,4112.96969656,42.0,42.0,?
2017-08-01 19:17:58.734544,4509.12121167,3016.72727243,4186.63636322,1174.54545443,3894.54545416,2748.84848457,3888.87878749,3037.33333303,4268.54545412,57.6969696912,4416.39393895,4166.54545413,4178.39393898,3214.54545422,4299.45454502,2715.87878761,4943.90909041,2971.3939391,4171.69696928,98.9090908992,4377.75757532,3540.12121177,4160.87878746,2707.63636337,4818.21212073,2963.15151486,4468.93939349,4112.96969656,42.0,42.0,?
2017-08-01 19:17:58.744960,4507.06060561,3016.72727243,4186.63636322,1174.54545443,3894.54545416,2748.84848457,3885.7878784,3037.33333303,4265.96969654,57.6969696912,4417.42424198,4166.54545413,4178.90909049,3214.54545422,4305.63636321,2715.87878761,4955.75757526,2971.3939391,4169.63636322,98.9090908992,4377.75757532,3540.12121177,4160.36363595,2707.63636337,4821.30302982,2963.15151486,4455.03030258,4112.96969656,42.0,42.0,?
2017-08-01 19:17:58.751105,4515.30302985,3016.72727243,4193.33333291,1174.54545443,3902.27272688,2748.84848457,3867.75757537,3037.33333303,4256.18181776,57.6969696912,4414.33333289,4166.54545413,4177.87878746,3214.54545422,4305.63636321,2715.87878761,4955.24242375,2971.3939391,4168.60606019,98.9090908992,4382.39393896,3540.12121177,4162.93939352,2707.63636337,4824.90909043,2963.15151486,4453.99999955,4112.96969656,42.0,42.0,?
2017-08-01 19:17:58.759276,4520.96969652,3016.72727243,4190.24242382,1174.54545443,3906.393939,2748.84848457,3882.18181779,3037.33333303,4261.33333291,57.6969696912,4411.2424238,4166.54545413,4178.39393898,3214.54545422,4308.7272723,2715.87878761,4958.33333284,2971.3939391,4172.21212079,98.9090908992,4383.42424199,3540.12121177,4159.84848443,2707.63636337,4827.99999952,2963.15151486,4474.60606016,4112.96969656,42.0,42.0,?
2017-08-01 19:17:58.767017,4518.39393894,3016.72727243,4185.09090867,1174.54545443,3901.24242385,2748.84848457,3908.45454506,3037.33333303,4268.54545412,57.6969696912,4413.30302986,4166.54545413,4181.48484807,3214.54545422,4313.87878745,2715.87878761,4977.3939389,2971.3939391,4174.78787837,98.9090908992,4374.15151471,3540.12121177,4158.8181814,2707.63636337,4827.99999952,2963.15151486,4481.30302985,4112.96969656,42.0,42.0,?
2017-08-01 19:17:58.774510,4518.39393894,3016.72727243,4193.84848443,1174.54545443,3896.0909087,2748.84848457,3893.51515113,3037.33333303,4257.21212079,57.6969696912,4409.18181774,4166.54545413,4180.45454504,3214.54545422,4308.21212078,2715.87878761,4974.30302981,2971.3939391,4172.21212079,98.9090908992,4374.15151471,3540.12121177,4165.5151511,2707.63636337,4825.93939346,2963.15151486,4459.15151471,4112.96969656,42.0,42.0,?
2017-08-01 19:17:58.784431,4522.51515106,3016.72727243,4191.27272685,1174.54545443,3900.72727234,2748.84848457,3869.81818143,3037.33333303,4253.09090867,57.6969696912,4407.6363632,4166.54545413,4182.5151511,3214.54545422,4309.24242381,2715.87878761,4960.3939389,2971.3939391,4177.36363595,98.9090908992,4389.09090865,3540.12121177,4165.5151511,2707.63636337,4829.03030255,2963.15151486,4455.5454541,4112.96969656,42.0,42.0,?
2017-08-01 19:17:58.790588,4524.57575712,3016.72727243,4185.60606019,1174.54545443,3905.87878749,2748.84848457,3885.27272688,3037.33333303,4265.45454503,57.6969696912,4411.75757532,4166.54545413,4185.09090867,3214.54545422,4311.81818139,2715.87878761,4966.57575708,2971.3939391,4180.96969655,98.9090908992,4396.30302986,3540.12121177,4158.8181814,2707.63636337,4833.15151467,2963.15151486,4479.24242379,4112.96969656,42.0,42.0,?
2017-08-01 19:17:58.799030,4517.87878743,3016.72727243,4187.15151473,1174.54545443,3903.81818143,2748.84848457,3907.93939355,3037.33333303,4274.21212078,57.6969696912,4414.84848441,4166.54545413,4182.5151511,3214.54545422,4308.21212078,2715.87878761,4973.27272678,2971.3939391,4176.84848443,98.9090908992,4387.54545411,3540.12121177,4158.8181814,2707.63636337,4827.99999952,2963.15151486,4478.21212076,4112.96969656,42.0,42.0,?
2017-08-01 19:17:58.805445,4508.60606016,3016.72727243,4188.18181776,1174.54545443,3900.72727234,2748.84848457,3891.96969658,3037.33333303,4272.66666624,57.6969696912,4417.42424198,4166.54545413,4185.09090867,3214.54545422,4309.24242381,2715.87878761,4974.30302981,2971.3939391,4177.87878746,98.9090908992,4381.36363593,3540.12121177,4158.30302989,2707.63636337,4819.75757528,2963.15151486,4458.63636319,4112.96969656,42.0,42.0,?
2017-08-01 19:17:58.814154,4511.18181773,3016.72727243,4193.33333291,1174.54545443,3904.84848446,2748.84848457,3864.66666628,3037.33333303,4267.51515109,57.6969696912,4418.45454501,4166.54545413,4192.30302988,3214.54545422,4312.84848442,2715.87878761,4979.96969647,2971.3939391,4182.5151511,98.9090908992,4384.96969653,3540.12121177,4155.72727231,2707.63636337,4820.27272679,2963.15151486,4461.72727228,4112.96969656,42.0,42.0,?
2017-08-01 19:17:58.820985,4521.99999955,3016.72727243,4192.30302988,1174.54545443,3906.90909052,2748.84848457,3880.12121173,3037.33333303,4261.84848442,57.6969696912,4418.45454501,4166.54545413,4195.39393897,3214.54545422,4313.87878745,2715.87878761,4980.9999995,2971.3939391,4184.06060564,98.9090908992,4390.12121168,3540.12121177,4161.39393898,2707.63636337,4828.51515103,2963.15151486,4475.63636319,4112.96969656,42.0,42.0,?
2017-08-01 19:17:58.829007,4527.1515147,3016.72727243,4187.15151473,1174.54545443,3903.30302991,2748.84848457,3899.18181779,3037.33333303,4261.84848442,57.6969696912,4413.81818138,4166.54545413,4190.75757534,3214.54545422,4310.78787836,2715.87878761,4967.60606011,2971.3939391,4180.96969655,98.9090908992,4390.6363632,3540.12121177,4166.03030261,2707.63636337,4835.21212073,2963.15151486,4473.06060561,4112.96969656,42.0,42.0,?
2017-08-01 19:17:58.836574,4523.54545409,3016.72727243,4188.18181776,1174.54545443,3901.75757537,2748.84848457,3887.84848446,3037.33333303,4265.96969654,57.6969696912,4408.15151471,4166.54545413,4184.06060564,3214.54545422,4308.21212078,2715.87878761,4959.36363587,2971.3939391,4180.96969655,98.9090908992,4388.57575714,3540.12121177,4161.90909049,2707.63636337,4832.63636315,2963.15151486,4468.93939349,4112.96969656,42.0,42.0,?
2017-08-01 19:17:58.843636,4515.30302985,3016.72727243,4189.21212079,1174.54545443,3901.75757537,2748.84848457,3888.87878749,3037.33333303,4266.99999957,57.6969696912,4408.15151471,4166.54545413,4185.60606019,3214.54545422,4312.84848442,2715.87878761,4974.81818132,2971.3939391,4183.03030261,98.9090908992,4383.42424199,3540.12121177,4155.72727231,2707.63636337,4826.45454497,2963.15151486,4471.51515107,4112.96969656,42.0,42.0,?
2017-08-01 19:17:58.855409,4511.18181773,3016.72727243,4188.69696928,1174.54545443,3901.24242385,2748.84848457,3905.87878749,3037.33333303,4264.424242,57.6969696912,4412.78787835,4166.54545413,4190.24242382,3214.54545422,4314.90909048,2715.87878761,4981.51515102,2971.3939391,4178.39393898,98.9090908992,4378.27272683,3540.12121177,4155.2121208,2707.63636337,4818.21212073,2963.15151486,4466.36363592,4112.96969656,42.0,42.0,?
2017-08-01 19:17:58.860623,4514.78787834,3029.09090879,4186.63636322,1174.54545443,3900.21212082,2748.84848457,3898.15151476,3037.33333303,4260.30302988,57.6969696912,4415.36363592,4166.54545413,4185.60606019,3214.54545422,4306.15151472,2715.87878761,4970.18181768,2971.3939391,4172.21212079,98.9090908992,4375.18181774,3540.12121177,4158.30302989,2707.63636337,4814.60606012,2963.15151486,4464.81818137,4112.96969656,42.0,42.0,?
2017-08-01 19:17:58.870597,4518.39393894,3029.09090879,4185.60606019,1256.96969684,3898.66666628,2748.84848457,3878.06060567,3037.33333303,4259.27272685,57.6969696912,4410.21212077,4166.54545413,4175.30302989,3214.54545422,4301.51515109,2715.87878761,4967.09090859,2971.3939391,4172.72727231,98.9090908992,4377.2424238,3540.12121177,4159.33333292,2707.63636337,4822.84848437,2963.15151486,4473.06060561,4112.96969656,42.0,42.0,?
2017-08-01 19:17:58.882970,4511.18181773,3029.09090879,4190.75757534,1256.96969684,3898.66666628,2748.84848457,3870.84848446,3037.33333303,4265.96969654,57.6969696912,4408.66666623,4166.54545413,4172.21212079,3214.54545422,4307.18181775,2715.87878761,4951.63636314,2971.3939391,4175.30302989,98.9090908992,4382.90909047,3540.12121177,4160.87878746,2707.63636337,4832.63636315,2963.15151486,4473.57575713,4112.96969656,42.0,42.0,?
2017-08-01 19:17:58.884241,4511.18181773,3029.09090879,4190.75757534,1256.96969684,3898.66666628,2748.84848457,3870.84848446,3037.33333303,4265.96969654,57.6969696912,4409.18181774,4166.54545413,4176.84848443,3214.54545422,4307.18181775,2715.87878761,4951.63636314,2971.3939391,4175.30302989,98.9090908992,4382.90909047,3540.12121177,4160.87878746,2707.63636337,4825.93939346,2963.15151486,4457.60606016,4112.96969656,42.0,42.0,?
2017-08-01 19:17:58.892380,4504.48484803,3029.09090879,4189.21212079,1256.96969684,3891.45454507,2748.84848457,3871.36363598,3037.33333303,4258.24242382,57.6969696912,4404.03030259,4166.54545413,4182.5151511,3214.54545422,4306.15151472,2715.87878761,4959.36363587,2971.3939391,4176.33333292,98.9090908992,4370.54545411,3540.12121177,4165.5151511,2707.63636337,4815.12121164,2963.15151486,4448.8484844,4112.96969656,42.0,42.0,?
2017-08-01 19:17:58.899589,4513.75757531,3029.09090879,4190.75757534,1256.96969684,3896.0909087,2748.84848457,3891.45454507,3037.33333303,4259.78787836,61.818181812,4398.87878744,4166.54545413,4189.72727231,3214.54545422,4312.3333329,2715.87878761,4985.12121162,2971.3939391,4175.30302989,98.9090908992,4375.18181774,3540.12121177,4161.39393898,2707.63636337,4823.8787874,2963.15151486,4463.78787834,4112.96969656,42.0,42.0,?
2017-08-01 19:17:58.911625,4526.12121167,3029.09090879,4190.24242382,1256.96969684,3901.24242385,2748.84848457,3906.90909052,3037.33333303,4264.93939351,61.818181812,4402.48484804,4162.42424201,4196.93939352,3214.54545422,4319.54545411,2715.87878761,4992.84848435,2971.3939391,4173.24242383,98.9090908992,4393.21212077,3540.12121177,4156.24242383,2707.63636337,4839.33333285,2963.15151486,4476.66666622,4112.96969656,42.0,42.0,?
2017-08-01 19:17:58.921895,4524.57575712,3029.09090879,4192.30302988,1256.96969684,3897.63636325,2748.84848457,3894.03030264,3037.33333303,4260.81818139,61.818181812,4409.69696926,4162.42424201,4196.424242,3214.54545422,4321.09090866,2715.87878761,4977.90909041,2971.3939391,4179.42424201,98.9090908992,4392.69696926,3540.12121177,4157.27272686,2707.63636337,4837.27272679,2963.15151486,4468.42424198,4112.96969656,42.0,42.0,?
2017-08-01 19:17:58.933173,4518.39393894,3029.09090879,4188.69696928,1256.96969684,3896.0909087,2748.84848457,3874.96969658,3037.33333303,4262.36363594,61.818181812,4412.78787835,4162.42424201,4191.27272685,3214.54545422,4314.39393896,2711.75757549,4978.93939344,2971.3939391,4178.39393898,98.9090908992,4372.09090865,3540.12121177,4162.93939352,2707.63636337,4825.93939346,2963.15151486,4462.75757531,4112.96969656,42.0,42.0,?
2017-08-01 19:17:58.939229,4518.39393894,3029.09090879,4188.69696928,1256.96969684,3896.0909087,2748.84848457,3874.96969658,3037.33333303,4262.36363594,61.818181812,4412.27272683,4162.42424201,4191.27272685,3214.54545422,4314.39393896,2711.75757549,4978.93939344,2971.3939391,4178.39393898,98.9090908992,4372.09090865,3540.12121177,4162.93939352,2707.63636337,4825.93939346,2963.15151486,4470.48484804,4112.96969656,42.0,42.0,?
2017-08-01 19:17:58.941097,4516.8484844,3029.09090879,4183.54545413,1256.96969684,3885.7878784,2748.84848457,3886.30302991,3037.33333303,4255.66666624,61.818181812,4409.18181774,4162.42424201,4189.72727231,3214.54545422,4312.3333329,2711.75757549,4960.3939389,2971.3939391,4175.30302989,111.272727262,4378.27272683,3540.12121177,4162.93939352,2707.63636337,4835.72727224,2963.15151486,4470.48484804,4112.96969656,42.0,42.0,?
2017-08-01 19:17:58.947214,4516.8484844,3029.09090879,4183.54545413,1256.96969684,3885.7878784,2748.84848457,3871.36363598,3037.33333303,4255.66666624,61.818181812,4406.60606017,4162.42424201,4188.69696928,3214.54545422,4313.87878745,2711.75757549,4960.3939389,2971.3939391,4175.30302989,111.272727262,4381.36363593,3535.99999965,4162.93939352,2707.63636337,4839.84848436,2963.15151486,4464.30302986,4112.96969656,42.0,42.0,?
2017-08-01 19:17:58.955411,4523.03030258,3029.09090879,4189.21212079,1256.96969684,3889.393939,2748.84848457,3873.42424204,3037.33333303,4270.09090866,61.818181812,4408.66666623,4162.42424201,4193.84848443,3214.54545422,4320.57575714,2711.75757549,4979.96969647,2971.3939391,4184.57575716,111.272727262,4389.60606017,3535.99999965,4167.57575716,2711.75757549,4838.81818133,2963.15151486,4467.90909046,4112.96969656,42.0,42.0,?
2017-08-01 19:17:58.962603,4525.09090864,3029.09090879,4192.8181814,1256.96969684,3898.66666628,2748.84848457,3903.81818143,3037.33333303,4270.09090866,61.818181812,4406.60606017,4162.42424201,4192.8181814,3214.54545422,4321.60606017,2711.75757549,4983.57575708,2971.3939391,4184.57575716,111.272727262,4393.72727229,3535.99999965,4166.03030261,2711.75757549,4833.66666618,2959.03030273,4475.12121167,4112.96969656,42.0,42.0,?
2017-08-01 19:17:58.978700,4516.33333288,3029.09090879,4184.06060564,1256.96969684,3896.0909087,2748.84848457,3904.33333294,3037.33333303,4255.66666624,61.818181812,4401.96969653,4162.42424201,4186.1212117,3214.54545422,4313.87878745,2711.75757549,4969.15151465,2971.3939391,4184.06060564,103.03030302,4386.51515108,3535.99999965,4162.42424201,2711.75757549,4829.54545406,2959.03030273,4474.60606016,4112.96969656,42.0,42.0,?
2017-08-01 19:17:58.978864,4512.72727228,3029.09090879,4185.09090867,1256.96969684,3888.87878749,2748.84848457,3881.15151476,3037.33333303,4251.54545412,61.818181812,4399.39393895,4162.42424201,4187.66666625,3214.54545422,4309.75757533,2711.75757549,4966.06060556,2971.3939391,4184.57575716,103.03030302,4385.99999956,3527.7575754,4162.42424201,2711.75757549,4835.21212073,2959.03030273,4464.30302986,4112.96969656,42.0,42.0,?
2017-08-01 19:17:58.984589,4514.27272682,3029.09090879,4189.72727231,1256.96969684,3884.24242385,2748.84848457,3867.75757537,3037.33333303,4256.18181776,61.818181812,4397.33333289,4162.42424201,4192.30302988,3214.54545422,4311.30302987,2711.75757549,4972.75757526,2971.3939391,4181.99999958,103.03030302,4391.66666623,3527.7575754,4164.48484807,2703.51515124,4835.21212073,2959.03030273,4455.5454541,4112.96969656,42.0,42.0,?
2017-08-01 19:17:58.993241,4512.72727228,3029.09090879,4189.21212079,1256.96969684,3881.66666628,2748.84848457,3855.90909052,3037.33333303,4255.15151473,61.818181812,4398.36363592,4162.42424201,4189.72727231,3214.54545422,4309.75757533,2711.75757549,4980.48484799,2971.3939391,4175.30302989,103.03030302,4384.45454502,3527.7575754,4164.99999958,2703.51515124,4826.96969649,2959.03030273,4457.60606016,4112.96969656,42.0,42.0,?
2017-08-01 19:17:59.000758,4507.06060561,3029.09090879,4189.21212079,1256.96969684,3885.7878784,2748.84848457,3863.63636325,3037.33333303,4256.18181776,61.818181812,4408.15151471,4162.42424201,4187.66666625,3214.54545422,4306.66666624,2711.75757549,4977.3939389,2971.3939391,4169.63636322,103.03030302,4369.51515108,3527.7575754,4166.54545413,2703.51515124,4820.78787831,2959.03030273,4463.78787834,4112.96969656,42.0,42.0,?
2017-08-01 19:17:59.010745,4497.78787834,3029.09090879,4185.09090867,1256.96969684,3883.72727234,2748.84848457,3888.36363597,3037.33333303,4259.78787836,61.818181812,4409.18181774,4162.42424201,4185.09090867,3214.54545422,4303.06060563,2711.75757549,4957.30302981,2971.3939391,4163.96969655,103.03030302,4361.27272684,3527.7575754,4163.96969655,2703.51515124,4812.03030255,2959.03030273,4451.93939349,4112.96969656,42.0,42.0,?
2017-08-01 19:17:59.015608,4491.09090864,3029.09090879,4186.63636322,1256.96969684,3873.93939355,2748.84848457,3884.24242385,3037.33333303,4256.18181776,61.818181812,4393.21212077,4162.42424201,4178.90909049,3214.54545422,4294.81818139,2711.75757549,4941.84848435,2971.3939391,4157.78787837,103.03030302,4359.21212078,3527.7575754,4159.33333292,2703.51515124,4803.78787831,2959.03030273,4431.33333289,4112.96969656,42.0,42.0,?
2017-08-01 19:17:59.023799,4496.24242379,3029.09090879,4187.15151473,1256.96969684,3879.0909087,2748.84848457,3875.99999961,3037.33333303,4254.63636321,61.818181812,4392.18181774,4162.42424201,4181.99999958,3214.54545422,4298.42424199,2711.75757549,4946.99999951,2971.3939391,4167.06060564,103.03030302,4360.24242381,3527.7575754,4161.39393898,2703.51515124,4807.90909043,2959.03030273,4438.5454541,4112.96969656,42.0,42.0,?
2017-08-01 19:17:59.035314,4505.51515106,3029.09090879,4186.1212117,1256.96969684,3888.87878749,2748.84848457,3891.96969658,3037.33333303,4257.7272723,61.818181812,4404.03030259,4162.42424201,4190.75757534,3214.54545422,4313.36363593,2711.75757549,4961.93939344,2971.3939391,4178.39393898,103.03030302,4364.87878744,3527.7575754,4169.1212117,2703.51515124,4813.06060558,2959.03030273,4457.60606016,4112.96969656,42.0,42.0,?
2017-08-01 19:17:59.042892,4502.42424197,3029.09090879,4190.75757534,1256.96969684,3884.75757537,2748.84848457,3879.0909087,3037.33333303,4257.21212079,61.818181812,4400.42424198,4162.42424201,4187.66666625,3214.54545422,4317.99999957,2711.75757549,4971.21212072,2971.3939391,4162.42424201,103.03030302,4365.39393896,3527.7575754,4165.5151511,2703.51515124,4806.36363588,2959.03030273,4448.8484844,4112.96969656,42.0,42.0,?
2017-08-01 19:17:59.047986,4493.1515147,3029.09090879,4178.90909049,1256.96969684,3876.51515113,2748.84848457,3848.69696931,3037.33333303,4255.66666624,61.818181812,4389.60606017,4162.42424201,4172.21212079,3214.54545422,4305.12121169,2711.75757549,4968.63636314,2971.3939391,4143.36363595,103.03030302,4353.03030259,3527.7575754,4155.72727231,2703.51515124,4799.66666619,2959.03030273,4437.51515107,4112.96969656,42.0,42.0,?
2017-08-01 19:17:59.057103,4500.36363591,3029.09090879,4174.27272686,1256.96969684,3880.63636325,2748.84848457,3864.66666628,3037.33333303,4256.69696927,61.818181812,4392.18181774,4162.42424201,4162.93939352,3214.54545422,4293.27272684,2711.75757549,4957.30302981,2971.3939391,4153.66666625,103.03030302,4354.06060563,3527.7575754,4166.54545413,2703.51515124,4809.45454497,2959.03030273,4447.81818137,4112.96969656,42.0,42.0,?
2017-08-01 19:17:59.068406,4513.24242379,3029.09090879,4192.8181814,1256.96969684,3886.30302991,2748.84848457,3902.7878784,3037.33333303,4266.48484806,61.818181812,4405.57575714,4162.42424201,4179.42424201,3214.54545422,4306.66666624,2711.75757549,4972.24242375,2971.3939391,4170.66666625,103.03030302,4376.21212077,3527.7575754,4168.09090867,2703.51515124,4816.15151467,2959.03030273,4462.75757531,4112.96969656,42.0,42.0,?
2017-08-01 19:17:59.072856,4513.24242379,3029.09090879,4192.8181814,1256.96969684,3886.30302991,2748.84848457,3902.7878784,3037.33333303,4266.48484806,61.818181812,4405.57575714,4162.42424201,4179.42424201,3214.54545422,4306.66666624,2711.75757549,4972.24242375,2971.3939391,4170.66666625,103.03030302,4376.21212077,3527.7575754,4168.09090867,2703.51515124,4816.15151467,2959.03030273,4462.75757531,4112.96969656,42.0,42.0,?
2017-08-01 19:17:59.080126,4513.24242379,3029.09090879,4187.66666625,1256.96969684,3880.63636325,2748.84848457,3879.60606022,3037.33333303,4269.06060563,61.818181812,4402.99999956,4162.42424201,4182.5151511,3214.54545422,4307.18181775,2711.75757549,4961.93939344,2971.3939391,4174.78787837,103.03030302,4374.66666623,3527.7575754,4168.60606019,2703.51515124,4821.30302982,2959.03030273,4464.81818137,4112.96969656,42.0,42.0,?
2017-08-01 19:17:59.086836,4518.90909046,3029.09090879,4186.63636322,1256.96969684,3882.18181779,2748.84848457,3874.45454507,3037.33333303,4272.15151472,61.818181812,4401.96969653,4162.42424201,4184.57575716,3214.54545422,4303.06060563,2711.75757549,4947.51515102,2971.3939391,4179.42424201,103.03030302,4383.9393935,3527.7575754,4174.78787837,2703.51515124,4833.15151467,2959.03030273,4466.36363592,4112.96969656,42.0,42.0,?
2017-08-01 19:17:59.095683,4512.72727228,3029.09090879,4188.69696928,1256.96969684,3883.72727234,2748.84848457,3883.21212082,3037.33333303,4263.39393897,61.818181812,4398.36363592,4162.42424201,4178.90909049,3214.54545422,4300.48484805,2711.75757549,4951.63636314,2971.3939391,4164.99999958,103.03030302,4378.27272683,3527.7575754,4172.72727231,2703.51515124,4822.33333285,2959.03030273,4460.18181774,4112.96969656,42.0,42.0,?
2017-08-01 19:17:59.105444,4507.57575713,3029.09090879,4189.72727231,1256.96969684,3881.66666628,2748.84848457,3884.75757537,3037.33333303,4251.54545412,61.818181812,4392.18181774,4162.42424201,4172.21212079,3214.54545422,4299.96969654,2711.75757549,4957.81818132,2971.3939391,4158.30302989,103.03030302,4365.39393896,3527.7575754,4167.57575716,2703.51515124,4808.93939346,2959.03030273,4452.96969652,4112.96969656,42.0,42.0,?
2017-08-01 19:17:59.118044,4511.69696925,3029.09090879,4186.1212117,1256.96969684,3886.30302991,2748.84848457,3874.96969658,3037.33333303,4259.78787836,61.818181812,4394.2424238,4162.42424201,4179.93939352,3214.54545422,4313.87878745,2711.75757549,4972.24242375,2971.3939391,4176.33333292,103.03030302,4371.06060562,3527.7575754,4169.1212117,2703.51515124,4816.66666619,2959.03030273,4462.2424238,4112.96969656,42.0,42.0,?
2017-08-01 19:17:59.120003,4515.30302985,3029.09090879,4186.1212117,1256.96969684,3890.93939355,2748.84848457,3879.60606022,3037.33333303,4270.60606018,61.818181812,4395.78787835,4162.42424201,4188.69696928,3214.54545422,4325.72727229,2711.75757549,4988.21212071,2971.3939391,4187.15151473,103.03030302,4381.36363593,3527.7575754,4174.78787837,2703.51515124,4829.54545406,2959.03030273,4473.06060561,4112.96969656,42.0,42.0,?
2017-08-01 19:17:59.130030,4518.39393894,3029.09090879,4187.15151473,1256.96969684,3888.36363597,2748.84848457,3898.15151476,3037.33333303,4268.54545412,61.818181812,4394.2424238,4162.42424201,4187.66666625,3214.54545422,4320.57575714,2711.75757549,4975.84848435,2971.3939391,4180.45454504,103.03030302,4379.30302987,3527.7575754,4176.33333292,2703.51515124,4830.06060558,2959.03030273,4468.93939349,4112.96969656,42.0,42.0,?
2017-08-01 19:17:59.137936,4524.57575712,3029.09090879,4189.72727231,1256.96969684,3883.72727234,2748.84848457,3893.51515113,3037.33333303,4268.0303026,61.818181812,4397.84848441,4162.42424201,4182.5151511,3214.54545422,4311.30302987,2711.75757549,4955.24242375,2971.3939391,4173.24242383,103.03030302,4378.78787835,3527.7575754,4171.18181776,2703.51515124,4826.45454497,2959.03030273,4462.2424238,4112.96969656,42.0,42.0,?
2017-08-01 19:17:59.148948,4521.48484803,3029.09090879,4193.33333291,1256.96969684,3883.21212082,2748.84848457,3880.63636325,3037.33333303,4268.54545412,61.818181812,4399.90909047,4162.42424201,4180.45454504,3214.54545422,4310.78787836,2711.75757549,4963.9999995,2971.3939391,4171.18181776,103.03030302,4381.87878744,3527.7575754,4172.72727231,2703.51515124,4825.42424194,2959.03030273,4466.36363592,4112.96969656,42.0,42.0,?
2017-08-01 19:17:59.152388,4514.78787834,3029.09090879,4189.72727231,1256.96969684,3888.36363597,2748.84848457,3895.57575719,3037.33333303,4264.93939351,61.818181812,4398.87878744,4162.42424201,4183.54545413,3214.54545422,4318.51515108,2711.75757549,4980.48484799,2971.3939391,4175.8181814,103.03030302,4378.78787835,3527.7575754,4181.99999958,2703.51515124,4823.8787874,2959.03030273,4470.99999955,4112.96969656,42.0,42.0,?
2017-08-01 19:17:59.156541,4515.81818137,3029.09090879,4187.66666625,1256.96969684,3889.393939,2748.84848457,3903.30302991,3037.33333303,4265.96969654,61.818181812,4402.99999956,4162.42424201,4191.27272685,3214.54545422,4317.48484805,2711.75757549,4976.36363587,2971.3939391,4180.96969655,103.03030302,4376.21212077,3527.7575754,4180.45454504,2703.51515124,4826.45454497,2959.03030273,4467.39393895,4112.96969656,42.0,42.0,?
2017-08-01 19:17:59.164961,4518.39393894,3029.09090879,4188.69696928,1256.96969684,3886.30302991,2748.84848457,3882.18181779,3037.33333303,4268.54545412,61.818181812,4411.2424238,4162.42424201,4193.84848443,3214.54545422,4307.69696927,2711.75757549,4972.75757526,2971.3939391,4179.42424201,103.03030302,4377.75757532,3527.7575754,4173.75757534,2703.51515124,4829.54545406,2959.03030273,4467.39393895,4112.96969656,42.0,42.0,?
2017-08-01 19:17:59.172592,4523.54545409,3029.09090879,4188.69696928,1256.96969684,3886.30302991,2748.84848457,3881.66666628,3037.33333303,4269.57575715,61.818181812,4414.33333289,4162.42424201,4188.18181776,3214.54545422,4300.48484805,2711.75757549,4972.24242375,2971.3939391,4177.36363595,103.03030302,4377.75757532,3527.7575754,4180.96969655,2703.51515124,4830.06060558,2959.03030273,4474.09090864,4112.96969656,42.0,42.0,?
2017-08-01 19:17:59.182302,4524.57575712,3029.09090879,4188.69696928,1256.96969684,3888.87878749,2748.84848457,3900.21212082,3037.33333303,4269.57575715,61.818181812,4412.78787835,4162.42424201,4184.06060564,3214.54545422,4302.0303026,2711.75757549,4955.75757526,2971.3939391,4175.30302989,103.03030302,4376.72727229,3527.7575754,4192.30302988,2703.51515124,4828.51515103,2959.03030273,4473.57575713,4112.96969656,42.0,42.0,?
2017-08-01 19:17:59.188803,4510.1515147,3029.09090879,4187.15151473,1256.96969684,3884.24242385,2748.84848457,3888.87878749,3037.33333303,4268.54545412,61.818181812,4414.33333289,4162.42424201,4185.09090867,3214.54545422,4310.27272684,2711.75757549,4949.06060557,2971.3939391,4168.09090867,103.03030302,4371.06060562,3527.7575754,4184.06060564,2703.51515124,4821.81818134,2959.03030273,4465.33333289,4112.96969656,42.0,42.0,?
2017-08-01 19:17:59.198624,4502.42424197,3029.09090879,4188.69696928,1256.96969684,3880.63636325,2748.84848457,3879.0909087,3037.33333303,4271.12121169,61.818181812,4416.39393895,4162.42424201,4189.21212079,3214.54545422,4321.09090866,2711.75757549,4973.27272678,2971.3939391,4167.57575716,103.03030302,4367.96969653,3527.7575754,4172.21212079,2703.51515124,4818.21212073,2959.03030273,4462.75757531,4112.96969656,42.0,42.0,?
2017-08-01 19:17:59.203696,4518.39393894,3029.09090879,4188.18181776,1256.96969684,3887.33333294,2748.84848457,3893.51515113,3037.33333303,4276.78787836,61.818181812,4416.39393895,4162.42424201,4193.84848443,3214.54545422,4333.45454502,2711.75757549,4992.33333283,2971.3939391,4182.5151511,103.03030302,4380.84848441,3527.7575754,4177.36363595,2703.51515124,4829.54545406,2959.03030273,4473.06060561,4112.96969656,42.0,42.0,?
2017-08-01 19:17:59.211561,4532.30302985,3029.09090879,4188.18181776,1256.96969684,3891.96969658,2748.84848457,3896.60606022,3037.33333303,4272.66666624,61.818181812,4411.75757532,4162.42424201,4195.90909049,3214.54545422,4333.96969654,2711.75757549,4979.96969647,2971.3939391,4185.60606019,103.03030302,4388.57575714,3527.7575754,4188.18181776,2703.51515124,4840.36363588,2959.03030273,4483.87878743,4112.96969656,42.0,42.0,?
2017-08-01 19:17:59.221069,4521.48484803,3029.09090879,4189.72727231,1256.96969684,3881.15151476,2748.84848457,3886.81818143,3037.33333303,4258.24242382,61.818181812,4405.06060562,4162.42424201,4191.27272685,3214.54545422,4321.09090866,2711.75757549,4963.9999995,2971.3939391,4173.24242383,103.03030302,4375.18181774,3527.7575754,4189.72727231,2703.51515124,4833.15151467,2959.03030273,4479.24242379,4112.96969656,42.0,42.0,?
2017-08-01 19:17:59.230076,4512.21212076,3029.09090879,4185.60606019,1256.96969684,3873.93939355,2748.84848457,3887.84848446,3037.33333303,4254.63636321,61.818181812,4402.99999956,4162.42424201,4192.30302988,3214.54545422,4313.36363593,2711.75757549,4971.72727223,2971.3939391,4178.90909049,103.03030302,4373.12121168,3527.7575754,4185.09090867,2703.51515124,4830.57575709,2959.03030273,4471.51515107,4112.96969656,42.0,42.0,?
2017-08-01 19:17:59.235851,4519.42424197,3029.09090879,4186.63636322,1256.96969684,3882.18181779,2748.84848457,3896.0909087,3037.33333303,4263.90909048,61.818181812,4406.60606017,4162.42424201,4194.36363594,3214.54545422,4311.30302987,2711.75757549,4976.87878738,2971.3939391,4193.33333291,103.03030302,4383.42424199,3527.7575754,4187.15151473,2703.51515124,4839.33333285,2959.03030273,4474.60606016,4112.96969656,42.0,42.0,?
2017-08-01 19:17:59.244534,4523.54545409,3029.09090879,4189.21212079,1256.96969684,3883.21212082,2748.84848457,3888.87878749,3037.33333303,4268.54545412,61.818181812,4406.60606017,4162.42424201,4183.54545413,3214.54545422,4304.09090866,2711.75757549,4958.33333284,2971.3939391,4185.60606019,103.03030302,4380.84848441,3527.7575754,4189.21212079,2703.51515124,4836.24242376,2959.03030273,4470.99999955,4112.96969656,42.0,42.0,?
2017-08-01 19:17:59.252659,4526.63636318,3029.09090879,4186.1212117,1256.96969684,3879.0909087,2748.84848457,3880.63636325,3037.33333303,4266.99999957,61.818181812,4404.54545411,4162.42424201,4175.8181814,3214.54545422,4301.51515109,2711.75757549,4948.03030254,2971.3939391,4174.78787837,103.03030302,4380.3333329,3527.7575754,4187.15151473,2703.51515124,4833.15151467,2959.03030273,4465.8484844,4112.96969656,42.0,42.0,?
2017-08-01 19:17:59.261659,4529.21212076,3029.09090879,4184.57575716,1256.96969684,3882.69696931,2748.84848457,3890.42424204,3037.33333303,4267.51515109,61.818181812,4407.6363632,4162.42424201,4181.99999958,3214.54545422,4310.78787836,2711.75757549,4971.21212072,2971.3939391,4182.5151511,103.03030302,4390.12121168,3527.7575754,4187.66666625,2703.51515124,4843.96969649,2959.03030273,4474.60606016,4112.96969656,42.0,42.0,?
2017-08-01 19:17:59.267329,4518.39393894,3029.09090879,4183.54545413,1256.96969684,3879.0909087,2748.84848457,3895.57575719,3037.33333303,4266.48484806,61.818181812,4405.57575714,4162.42424201,4189.72727231,3214.54545422,4318.51515108,2711.75757549,4989.24242374,2971.3939391,4188.18181776,103.03030302,4390.12121168,3527.7575754,4189.21212079,2703.51515124,4844.99999952,2959.03030273,4477.69696925,4112.96969656,42.0,42.0,?
2017-08-01 19:17:59.274639,4516.8484844,3029.09090879,4187.66666625,1256.96969684,3874.45454507,2748.84848457,3879.60606022,3037.33333303,4262.36363594,61.818181812,4401.96969653,4162.42424201,4192.30302988,3214.54545422,4321.09090866,2711.75757549,4976.36363587,2971.3939391,4179.93939352,103.03030302,4385.48484805,3527.7575754,4186.63636322,2703.51515124,4839.84848436,2959.03030273,4473.57575713,4112.96969656,42.0,42.0,?
2017-08-01 19:17:59.282549,4537.454545,3029.09090879,4191.78787837,1256.96969684,3884.24242385,2748.84848457,3879.0909087,3037.33333303,4264.93939351,61.818181812,4412.78787835,4162.42424201,4202.09090867,3214.54545422,4331.39393896,2711.75757549,4976.87878738,2971.3939391,4183.03030261,103.03030302,4388.57575714,3527.7575754,4189.72727231,2703.51515124,4848.60606012,2959.03030273,4487.99999955,4112.96969656,42.0,42.0,?
2017-08-01 19:17:59.290374,4544.1515147,3029.09090879,4190.75757534,1256.96969684,3892.4848481,2748.84848457,3903.81818143,3037.33333303,4270.09090866,61.818181812,4427.21212077,4162.42424201,4214.96969655,3214.54545422,4343.75757532,2711.75757549,4996.96969647,2971.3939391,4195.39393897,103.03030302,4391.15151471,3527.7575754,4197.45454503,2703.51515124,4852.21212073,2959.03030273,4502.42424197,4112.96969656,42.0,42.0,?
2017-08-01 19:17:59.297610,4527.1515147,3029.09090879,4188.18181776,1256.96969684,3883.21212082,2748.84848457,3903.81818143,3037.33333303,4272.15151472,61.818181812,4423.60606016,4162.42424201,4209.30302988,3214.54545422,4335.51515108,2711.75757549,4989.75757526,2971.3939391,4189.21212079,103.03030302,4385.48484805,3527.7575754,4194.36363594,2703.51515124,4838.30302982,2959.03030273,4488.51515107,4112.96969656,42.0,42.0,?
2017-08-01 19:17:59.306802,4518.90909046,3029.09090879,4184.57575716,1256.96969684,3875.4848481,2748.84848457,3890.42424204,3037.33333303,4272.15151472,61.818181812,4415.87878744,4162.42424201,4195.90909049,3214.54545422,4311.81818139,2711.75757549,4961.42424193,2971.3939391,4178.39393898,103.03030302,4375.69696926,3527.7575754,4188.18181776,2703.51515124,4828.51515103,2959.03030273,4471.51515107,4112.96969656,42.0,42.0,?
2017-08-01 19:17:59.314114,4532.30302985,3029.09090879,4186.63636322,1256.96969684,3883.72727234,2748.84848457,3900.72727234,3037.33333303,4271.63636321,61.818181812,4418.45454501,4162.42424201,4195.39393897,3214.54545422,4299.45454502,2711.75757549,4954.21212072,2971.3939391,4179.93939352,103.03030302,4374.66666623,3527.7575754,4188.69696928,2703.51515124,4831.60606012,2959.03030273,4472.03030258,4112.96969656,42.0,42.0,?
2017-08-01 19:17:59.321553,4537.454545,3029.09090879,4188.18181776,1256.96969684,3891.45454507,2748.84848457,3896.60606022,3037.33333303,4272.15151472,61.818181812,4416.90909047,4162.42424201,4190.24242382,3214.54545422,4297.90909048,2711.75757549,4956.78787829,2971.3939391,4174.27272686,103.03030302,4378.78787835,3527.7575754,4189.72727231,2703.51515124,4830.57575709,2959.03030273,4473.57575713,4112.96969656,42.0,42.0,?
2017-08-01 19:17:59.329072,4527.66666621,3029.09090879,4185.09090867,1256.96969684,3891.96969658,2748.84848457,3875.4848481,3037.33333303,4274.21212078,61.818181812,4410.21212077,4162.42424201,4173.75757534,3214.54545422,4298.42424199,2711.75757549,4949.57575708,2971.3939391,4166.54545413,103.03030302,4379.81818138,3527.7575754,4189.21212079,2703.51515124,4830.57575709,2959.03030273,4478.21212076,4112.96969656,42.0,42.0,?
2017-08-01 19:17:59.340251,4525.09090864,3029.09090879,4188.18181776,1256.96969684,3901.24242385,2748.84848457,3888.87878749,3037.33333303,4270.09090866,61.818181812,4407.12121168,4162.42424201,4170.66666625,3214.54545422,4309.24242381,2711.75757549,4957.81818132,2971.3939391,4175.8181814,103.03030302,4385.48484805,3527.7575754,4189.72727231,2703.51515124,4835.72727224,2959.03030273,4485.93939349,4112.96969656,42.0,42.0,?
