Timestamp,F3 Value,F3 Quality,FC5 Value,FC5 Quality,F7 Value,F7 Quality,T7 Value,T7 Quality,P7 Value,P7 Quality,O1 Value,O1 Quality,O2 Value,O2 Quality,P8 Value,P8 Quality,T8 Value,T8 Quality,F8 Value,F8 Quality,AF4 Value,AF4 Quality,FC6 Value,FC6 Quality,F4 Value,F4 Quality,AF3 Value,AF3 Quality,X Value,Y Value,Z Value
2017-07-31 18:30:08.065775,8281.57575675,0,3264.51515119,0,80.3636363556,0,6377.57575694,0,737.181818108,0,1390.90909077,0,454.363636318,0,6975.15151445,0,7787.03030225,0,8097.66666586,0,6532.12121147,0,6648.03030237,0,1489.81818167,0,3001.78787849,0,42.0,42.0,?
2017-07-31 18:30:08.065873,4576.60606015,0,4227.33333291,0,3857.45454507,0,3931.12121173,0,4364.87878744,0,5366.84848431,0,4255.66666624,0,4389.09090865,0,5014.9999995,0,4232.48484806,0,4433.90909047,0,4244.84848442,0,4781.63636316,0,4493.1515147,0,42.0,42.0,?
2017-07-31 18:30:08.065936,4557.03030257,0,4223.7272723,0,3837.36363598,0,3913.60606021,0,4350.96969653,0,5352.42424189,0,4238.66666624,0,4364.36363593,0,4990.27272677,0,4218.57575715,0,4414.84848441,0,4243.30302988,0,4767.72727225,0,4476.66666622,0,42.0,42.0,?
2017-07-31 18:30:08.065959,4560.63636318,0,4226.30302988,0,3856.42424204,0,3905.87878749,0,4348.90909047,0,5353.96969643,0,4241.75757533,0,4362.30302987,0,4992.33333283,0,4225.27272685,0,4414.33333289,0,4241.75757533,0,4770.81818134,0,4475.63636319,0,42.0,42.0,?
2017-07-31 18:30:08.075767,4564.24242379,0,4226.8181814,0,3857.45454507,0,3920.30302991,0,4353.54545411,0,5359.6363631,0,4243.30302988,0,4368.99999956,0,4987.6969692,0,4223.21212079,0,4423.60606016,0,4243.81818139,0,4778.03030255,0,4484.39393895,0,42.0,42.0,?
2017-07-31 18:30:08.079387,4564.24242379,0,4226.8181814,0,3857.45454507,0,3920.30302991,0,4353.54545411,0,5354.48484795,0,4240.7272723,0,4367.96969653,0,4987.6969692,0,4223.21212079,0,4428.2424238,0,4243.81818139,0,4781.63636316,0,4483.87878743,0,42.0,42.0,?
2017-07-31 18:30:08.083115,4574.54545409,0,4232.48484806,0,3861.06060567,0,3920.30302991,0,4358.69696926,0,5347.27272674,0,4243.30302988,0,4365.90909047,0,4987.18181768,0,4230.93939352,0,4432.36363592,0,4246.39393897,0,4789.36363588,0,4488.51515107,0,42.0,42.0,?
2017-07-31 18:30:08.087170,4572.48484803,0,4227.84848443,0,3869.81818143,0,3920.81818143,0,4359.72727229,0,5343.66666613,0,4249.99999958,0,4373.6363632,0,4999.03030253,0,4245.87878745,0,4436.99999956,0,4243.81818139,0,4793.48484801,0,4498.30302985,0,42.0,42.0,?
2017-07-31 18:30:08.090064,4558.0606056,0,4217.54545412,0,3866.21212083,0,3909.48484809,0,4355.09090866,0,5333.36363583,0,4254.1212117,0,4384.45454502,0,5001.09090859,0,4240.21212079,0,4432.36363592,0,4239.69696927,0,4786.78787831,0,4496.24242379,0,42.0,42.0,?
2017-07-31 18:30:08.093468,4560.12121167,0,4218.57575715,0,3853.84848446,0,3903.30302991,0,4347.36363593,0,5319.45454492,0,4243.81818139,0,4384.45454502,0,4992.84848435,0,4222.18181776,0,4419.48484804,0,4239.69696927,0,4779.5757571,0,4486.96969652,0,42.0,42.0,?
2017-07-31 18:30:08.100370,4564.7575753,0,4217.03030261,0,3852.81818143,0,3912.57575718,0,4349.42424199,0,5318.42424189,0,4234.54545412,0,4373.6363632,0,4992.33333283,0,4220.63636321,0,4411.2424238,0,4241.75757533,0,4775.96969649,0,4478.21212076,0,42.0,42.0,?
2017-07-31 18:30:08.103494,4548.78787833,0,4221.66666624,0,3854.87878749,0,3908.45454506,0,4354.57575714,0,5314.81818129,0,4234.54545412,0,4364.87878744,0,4992.84848435,0,4224.75757534,0,4404.54545411,0,4242.27272685,0,4773.90909043,0,4475.63636319,0,42.0,42.0,?
2017-07-31 18:30:08.107801,4549.30302985,0,4227.33333291,0,3855.39393901,0,3898.15151476,0,4354.06060563,0,5306.06060553,0,4245.36363594,0,4376.72727229,0,5001.09090859,0,4230.424242,0,4414.84848441,0,4241.24242382,0,4783.1818177,0,4486.96969652,0,42.0,42.0,?
2017-07-31 18:30:08.112450,4574.54545409,0,4224.24242382,0,3866.21212083,0,3906.393939,0,4349.9393935,0,5305.54545401,0,4254.1212117,0,4390.6363632,0,5006.24242374,0,4246.90909048,0,4436.99999956,0,4244.84848442,0,4801.21212073,0,4498.30302985,0,42.0,42.0,?
2017-07-31 18:30:08.116042,4580.21212075,0,4226.8181814,0,3881.15151476,0,3921.84848446,0,4347.36363593,0,5305.0303025,0,4247.93939351,0,4383.9393935,0,4996.45454495,0,4257.21212079,0,4444.21212077,0,4249.99999958,0,4810.99999952,0,4502.93939349,0,42.0,42.0,?
2017-07-31 18:30:08.119037,4568.87878742,0,4224.75757534,0,3882.18181779,0,3925.45454506,0,4351.48484805,0,5305.0303025,0,4243.30302988,0,4376.72727229,0,5000.06060556,0,4254.1212117,0,4438.03030259,0,4244.33333291,0,4804.81818134,0,4501.39393894,0,42.0,42.0,?
2017-07-31 18:30:08.122051,4567.33333288,0,4222.69696927,0,3869.81818143,0,3915.15151476,0,4349.9393935,0,5300.39393886,0,4240.7272723,0,4373.6363632,0,5003.66666617,0,4241.75757533,0,4426.69696925,0,4237.63636321,0,4788.33333285,0,4491.60606016,0,42.0,42.0,?
2017-07-31 18:30:08.125045,4561.1515147,0,4223.7272723,0,3865.1818178,0,3905.87878749,0,4342.72727229,0,5292.15151462,0,4235.57575715,0,4370.54545411,0,4988.21212071,0,4226.8181814,0,4415.87878744,0,4237.63636321,0,4779.06060558,0,4484.90909046,0,42.0,42.0,?
2017-07-31 18:30:08.129369,4550.84848439,0,4218.57575715,0,3869.81818143,0,3907.93939355,0,4342.72727229,0,5287.51515099,0,4234.54545412,0,4369.51515108,0,4984.60606011,0,4222.18181776,0,4412.78787835,0,4239.18181776,0,4783.1818177,0,4489.03030258,0,42.0,42.0,?
2017-07-31 18:30:08.134780,4551.87878742,0,4222.18181776,0,3867.75757537,0,3907.42424203,0,4338.60606017,0,5256.60606008,0,4232.48484806,0,4360.24242381,0,4990.78787829,0,4220.1212117,0,4408.66666623,0,4242.27272685,0,4783.1818177,0,4488.51515107,0,42.0,42.0,?
2017-07-31 18:30:08.142438,4553.93939348,0,4227.84848443,0,3871.36363598,0,3903.81818143,0,4331.90909048,0,5202.51515099,0,4227.84848443,0,4358.69696926,0,4986.66666617,0,4223.21212079,0,4403.51515107,0,4242.78787836,0,4779.06060558,0,4483.87878743,0,42.0,42.0,?
2017-07-31 18:30:08.149996,4551.87878742,0,4225.78787837,0,3880.12121173,0,3905.36363597,0,4334.48484805,0,5162.33333282,0,4227.84848443,0,4376.21212077,0,4990.78787829,0,4235.06060564,0,4411.2424238,0,4241.75757533,0,4785.75757528,0,4489.03030258,0,42.0,42.0,?
2017-07-31 18:30:08.160179,4560.63636318,0,4227.84848443,0,3877.54545416,0,3907.93939355,0,4337.57575714,0,5144.30302979,0,4226.30302988,0,4376.21212077,0,4994.90909041,0,4237.63636321,0,4421.03030259,0,4244.33333291,0,4794.51515104,0,4494.69696925,0,42.0,42.0,?
2017-07-31 18:30:08.166072,4566.30302985,0,4225.78787837,0,3875.4848481,0,3907.93939355,0,4331.90909048,0,5126.27272676,0,4217.03030261,0,4355.09090866,0,4980.48484799,0,4229.39393897,0,4413.81818138,0,4243.81818139,0,4788.33333285,0,4486.96969652,0,42.0,42.0,?
2017-07-31 18:30:08.174147,4550.33333288,0,4225.27272685,0,3874.96969658,0,3905.36363597,0,4322.12121169,0,5108.24242373,0,4209.30302988,0,4349.9393935,0,4975.33333284,0,4220.63636321,0,4397.84848441,0,4239.69696927,0,4773.90909043,0,4477.18181773,0,42.0,42.0,?
2017-07-31 18:30:08.183809,4540.54545409,0,4225.27272685,0,3870.84848446,0,3902.7878784,0,4324.69696926,0,5110.30302979,0,4215.48484806,0,4358.69696926,0,4984.60606011,0,4219.60606018,0,4396.30302986,0,4239.69696927,0,4776.48484801,0,4476.1515147,0,42.0,42.0,?
2017-07-31 18:30:08.189042,4538.99999955,0,4222.18181776,0,3865.69696931,0,3896.60606022,0,4323.66666623,0,5107.2121207,0,4222.18181776,0,4357.66666623,0,4975.33333284,0,4213.424242,0,4401.45454501,0,4240.7272723,0,4787.81818134,0,4475.63636319,0,42.0,42.0,?
2017-07-31 18:30:08.197231,4537.96969652,0,4223.7272723,0,3865.69696931,0,3895.57575719,0,4314.39393896,0,5087.63636313,0,4220.63636321,0,4354.57575714,0,4969.15151465,0,4209.8181814,0,4401.45454501,0,4240.21212079,0,4789.36363588,0,4474.09090864,0,42.0,42.0,?
2017-07-31 18:30:08.207985,4545.69696924,0,4224.75757534,0,3874.96969658,0,3911.54545415,0,4322.6363632,0,5086.09090858,0,4227.33333291,0,4365.90909047,0,4992.33333283,0,4223.21212079,0,4409.69696926,0,4241.75757533,0,4791.93939346,0,4475.63636319,0,42.0,42.0,?
2017-07-31 18:30:08.213571,4545.69696924,0,4225.78787837,0,3870.33333295,0,3909.99999961,0,4330.87878745,0,5090.72727222,0,4232.99999958,0,4369.51515108,0,4997.48484799,0,4225.27272685,0,4413.81818138,0,4244.33333291,0,4795.03030255,0,4470.48484804,0,42.0,42.0,?
2017-07-31 18:30:08.219982,4536.42424197,0,4222.69696927,0,3855.90909052,0,3897.63636325,0,4322.6363632,0,5076.81818131,0,4224.24242382,0,4359.72727229,0,4984.60606011,0,4213.424242,0,4411.2424238,0,4241.24242382,0,4792.96969649,0,4460.18181774,0,42.0,42.0,?
2017-07-31 18:30:08.229624,4529.72727227,0,4217.54545412,0,3853.33333295,0,3900.21212082,0,4320.06060563,0,5062.39393889,0,4217.54545412,0,4353.03030259,0,4988.21212071,0,4212.39393897,0,4419.99999956,0,4238.15151473,0,4792.45454498,0,4455.03030258,0,42.0,42.0,?
2017-07-31 18:30:08.237915,4525.09090864,0,4224.24242382,0,3857.45454507,0,3897.12121173,0,4320.57575714,0,5058.27272677,0,4213.424242,0,4347.36363593,0,4984.60606011,0,4214.45454503,0,4429.27272683,0,4241.24242382,0,4789.8787874,0,4450.39393895,0,42.0,42.0,?
2017-07-31 18:30:08.245262,4523.03030258,0,4222.18181776,0,3863.12121173,0,3892.4848481,0,4319.54545411,0,5059.3030298,0,4211.36363594,0,4347.87878744,0,4974.30302981,0,4212.39393897,0,4429.78787834,0,4242.78787836,0,4783.1818177,0,4441.12121168,0,42.0,42.0,?
2017-07-31 18:30:08.252742,4530.7575753,0,4220.1212117,0,3863.63636325,0,3898.66666628,0,4322.12121169,0,5069.6060601,0,4212.39393897,0,4352.51515108,0,4971.21212072,0,4210.84848443,0,4431.84848441,0,4240.7272723,0,4779.5757571,0,4435.96969653,0,42.0,42.0,?
2017-07-31 18:30:08.260197,4531.27272682,0,4224.24242382,0,3860.54545416,0,3900.72727234,0,4326.24242381,0,5084.54545404,0,4212.39393897,0,4353.03030259,0,4971.72727223,0,4207.75757534,0,4434.9393935,0,4240.21212079,0,4776.48484801,0,4433.90909047,0,42.0,42.0,?
2017-07-31 18:30:08.267997,4517.36363591,0,4218.06060564,0,3864.15151477,0,3900.72727234,0,4329.84848442,0,5096.39393888,0,4218.06060564,0,4358.69696926,0,4976.87878738,0,4206.21212079,0,4434.9393935,0,4239.18181776,0,4773.39393892,0,4428.75757531,0,42.0,42.0,?
2017-07-31 18:30:08.275006,4511.69696925,0,4219.60606018,0,3863.12121173,0,3897.63636325,0,4331.39393896,0,5105.66666616,0,4222.18181776,0,4359.72727229,0,4974.81818132,0,4198.48484806,0,4426.69696925,0,4241.75757533,0,4774.93939346,0,4419.99999956,0,42.0,42.0,?
2017-07-31 18:30:08.283538,4528.18181773,0,4192.8181814,0,3870.33333295,0,3910.51515112,0,4348.90909047,0,5127.81818131,0,4236.09090867,0,4373.12121168,0,4990.78787829,0,4209.30302988,0,4434.9393935,0,4240.21212079,0,4782.66666619,0,4415.36363592,0,42.0,42.0,?
2017-07-31 18:30:08.291083,4526.12121167,0,4213.424242,0,3862.60606022,0,3902.27272688,0,4340.15151472,0,5118.54545403,0,4226.30302988,0,4368.48484805,0,4988.72727223,0,4205.69696928,0,4427.21212077,0,4237.1212117,0,4770.81818134,0,4408.66666623,0,42.0,42.0,?
2017-07-31 18:30:08.299567,4496.24242379,0,4315.42424199,0,3818.30302992,0,3846.12121174,0,4281.93939351,0,5061.36363586,0,4164.48484807,0,4299.96969654,0,4921.75757527,0,4141.8181814,0,4366.42424199,0,4242.27272685,0,4737.84848437,0,4404.54545411,0,42.0,42.0,?
2017-07-31 18:30:08.307462,4572.48484803,0,4086.69696929,0,3929.06060567,0,3979.03030263,0,4399.39393895,0,5181.90909039,0,4271.12121169,0,4419.48484804,0,5044.87878737,0,4268.0303026,0,4475.12121167,0,4232.48484806,0,4818.21212073,0,4444.21212077,0,42.0,42.0,?
2017-07-31 18:30:08.316346,4522.51515106,3540.12121177,4240.21212079,0,3866.21212083,0,3905.36363597,0,4328.81818139,0,5111.84848434,0,4218.57575715,0,4371.06060562,0,4993.87878738,0,4201.57575716,0,4426.18181774,0,4241.75757533,0,4787.81818134,0,4398.87878744,0,42.0,42.0,?
2017-07-31 18:30:08.322510,4343.24242381,3540.12121177,4840.36363588,993.212121113,3562.78787843,0,3536.51515116,0,3988.3030299,0,4787.30302982,0,3890.42424204,0,3983.15151475,0,4604.42424196,0,3826.54545416,0,4089.78787838,0,4277.30302988,0,4583.81818136,0,4322.12121169,0,42.0,42.0,?
2017-07-31 18:30:08.330752,4515.81818137,3540.12121177,4328.81818139,993.212121113,3789.45454508,0,3803.8787875,0,4235.06060564,0,5036.63636313,0,4117.60606019,0,4217.03030261,0,4859.42424194,0,4094.93939353,0,4309.24242381,0,4251.54545412,0,4720.33333286,0,4432.36363592,2823.03030275,42.0,42.0,?
2017-07-31 18:30:08.341639,4638.93939348,3540.12121177,3923.90909052,993.212121113,4007.87878748,3919.27272688,4073.3030299,0,4482.8484844,0,5264.33333281,0,4373.12121168,0,4528.18181773,0,5171.60606009,0,4376.72727229,0,4568.87878742,0,4224.24242382,0,4865.60606012,0,4473.06060561,2823.03030275,42.0,42.0,?
2017-07-31 18:30:08.346706,4515.30302985,3540.12121177,4320.57575714,993.212121113,3830.15151477,3919.27272688,3858.4848481,375.030302993,4286.06060563,0,5068.57575707,0,4184.06060564,0,4314.90909048,0,4941.33333284,0,4150.06060565,0,4379.30302987,0,4242.27272685,0,4751.24242377,0,4409.69696926,2823.03030275,42.0,42.0,?
2017-07-31 18:30:08.354603,4552.90909045,3540.12121177,4207.75757534,993.212121113,3877.54545416,3919.27272688,3907.93939355,375.030302993,4331.39393896,4.1212121208,5112.87878737,0,4225.78787837,0,4344.78787835,0,4983.06060556,0,4197.45454503,0,4414.84848441,0,4236.60606018,0,4783.1818177,0,4439.57575713,2823.03030275,42.0,42.0,?
2017-07-31 18:30:08.361112,4570.42424197,3540.12121177,4118.12121171,993.212121113,3920.30302991,3919.27272688,3962.03030263,375.030302993,4376.72727229,4.1212121208,5144.30302979,4211.87878746,4278.33333291,0,4419.48484804,0,5066.51515101,0,4258.75757533,0,4468.42424198,0,4230.424242,0,4817.1818177,0,4440.60606016,2823.03030275,42.0,42.0,?
2017-07-31 18:30:08.371258,4535.90909046,3540.12121177,4206.72727231,993.212121113,3875.99999961,3919.27272688,3908.96969658,375.030302993,4326.24242381,4.1212121208,5086.09090858,4211.87878746,4219.09090867,3317.57575724,4364.87878744,0,5001.09090859,0,4199.5151511,0,4414.84848441,0,4238.15151473,0,4786.27272679,0,4424.12121168,2823.03030275,42.0,42.0,?
2017-07-31 18:30:08.379063,4550.33333288,3540.12121177,4178.39393898,993.212121113,3890.93939355,3919.27272688,3923.90909052,375.030302993,4340.66666623,4.1212121208,5096.9090904,4211.87878746,4230.424242,3317.57575724,4372.60606017,2909.57575728,5005.21212071,0,4218.57575715,0,4430.81818138,0,4238.15151473,0,4791.93939346,0,4427.72727228,2823.03030275,42.0,42.0,?
2017-07-31 18:30:08.386182,4546.72727227,3540.12121177,4204.66666625,993.212121113,3877.54545416,3919.27272688,3904.84848446,375.030302993,4323.66666623,4.1212121208,5073.72727222,4211.87878746,4218.06060564,3317.57575724,4356.12121169,2909.57575728,4994.90909041,2855.99999971,4209.8181814,0,4422.06060562,0,4236.60606018,0,4788.33333285,0,4424.12121168,2823.03030275,42.0,42.0,?
2017-07-31 18:30:08.392309,4548.78787833,3540.12121177,4186.63636322,993.212121113,3888.87878749,3919.27272688,3920.30302991,375.030302993,4333.45454502,4.1212121208,5070.63636313,4211.87878746,4225.78787837,3317.57575724,4372.09090865,2909.57575728,5017.06060556,2855.99999971,4226.8181814,4001.6969693,4434.9393935,0,4237.63636321,0,4800.1818177,0,4432.87878744,2823.03030275,42.0,42.0,?
2017-07-31 18:30:08.401722,4551.87878742,3540.12121177,4191.78787837,993.212121113,3894.54545416,3919.27272688,3927.51515112,375.030302993,4339.12121169,4.1212121208,5064.96969646,4211.87878746,4233.51515109,3317.57575724,4377.2424238,2909.57575728,5029.93939344,2855.99999971,4234.54545412,4001.6969693,4442.15151471,3610.18181782,4239.69696927,0,4803.27272679,0,4435.45454501,2823.03030275,42.0,42.0,?
2017-07-31 18:30:08.408339,4555.48484803,3540.12121177,4200.54545413,993.212121113,3885.27272688,3919.27272688,3913.0909087,375.030302993,4331.39393896,4.1212121208,5055.18181768,4211.87878746,4228.36363594,3317.57575724,4363.84848441,2909.57575728,5020.66666616,2855.99999971,4224.75757534,4001.6969693,4433.90909047,3610.18181782,4237.1212117,4.1212121208,4800.1818177,0,4431.84848441,2823.03030275,42.0,42.0,?
2017-07-31 18:30:08.417874,4551.87878742,3540.12121177,4188.18181776,993.212121113,3880.63636325,3919.27272688,3912.57575718,375.030302993,4331.39393896,4.1212121208,5045.9090904,4211.87878746,4228.36363594,3317.57575724,4366.42424199,2909.57575728,5011.39393889,2855.99999971,4221.15151473,4001.6969693,4429.27272683,3610.18181782,4235.57575715,4.1212121208,4795.54545407,3012.6060603,4427.21212077,2823.03030275,42.0,42.0,?
2017-07-31 18:30:08.424787,4543.12121167,3540.12121177,4192.8181814,993.212121113,3883.21212082,3919.27272688,3920.81818143,375.030302993,4335.51515108,4.1212121208,5014.9999995,4211.87878746,4228.36363594,3317.57575724,4373.6363632,2909.57575728,5009.84848435,2855.99999971,4215.48484806,4001.6969693,4423.60606016,3610.18181782,4237.1212117,4.1212121208,4790.39393891,3012.6060603,4420.51515107,2823.03030275,42.0,42.0,?
2017-07-31 18:30:08.437412,4545.69696924,3540.12121177,4195.90909049,993.212121113,3886.30302991,3919.27272688,3925.45454506,375.030302993,4335.51515108,4.1212121208,4962.96969647,4211.87878746,4226.30302988,3317.57575724,4372.09090865,2909.57575728,5015.51515101,2855.99999971,4214.45454503,4001.6969693,4424.63636319,3618.42424206,4235.57575715,4.1212121208,4796.5757571,3012.6060603,4418.96969653,2823.03030275,42.0,42.0,?
2017-07-31 18:30:08.442557,4545.69696924,3540.12121177,4194.36363594,993.212121113,3883.21212082,3919.27272688,3923.90909052,375.030302993,4323.66666623,4.1212121208,4909.90909042,4211.87878746,4220.1212117,3317.57575724,4361.27272684,2909.57575728,5007.27272677,2855.99999971,4211.87878746,4001.6969693,4422.57575713,3618.42424206,4238.66666624,4.1212121208,4798.63636316,3012.6060603,4422.57575713,2823.03030275,42.0,42.0,?
2017-07-31 18:30:08.453290,4541.06060561,3540.12121177,4194.36363594,993.212121113,3885.27272688,3919.27272688,3929.57575718,375.030302993,4324.69696926,4.1212121208,4879.51515103,4211.87878746,4218.57575715,3317.57575724,4361.78787835,2909.57575728,5006.24242374,2855.99999971,4210.33333291,4001.6969693,4418.96969653,3618.42424206,4241.24242382,4.1212121208,4793.48484801,3012.6060603,4425.15151471,2823.03030275,42.0,42.0,?
2017-07-31 18:30:08.455993,4546.21212076,3540.12121177,4196.424242,993.212121113,3886.30302991,3919.27272688,3931.12121173,375.030302993,4333.45454502,4.1212121208,4860.96969648,4211.87878746,4221.15151473,3317.57575724,4366.42424199,2909.57575728,5019.63636313,2855.99999971,4214.45454503,4001.6969693,4419.48484804,3618.42424206,4237.1212117,4.1212121208,4797.09090861,3012.6060603,4428.2424238,2823.03030275,42.0,42.0,?
2017-07-31 18:30:08.469759,4552.39393894,3540.12121177,4195.90909049,993.212121113,3883.72727234,3919.27272688,3927.51515112,375.030302993,4327.27272684,4.1212121208,4834.69696921,4211.87878746,4220.63636321,3317.57575724,4364.87878744,2909.57575728,5023.24242374,2855.99999971,4219.09090867,4001.6969693,4421.5454541,3618.42424206,4238.15151473,4.1212121208,4803.78787831,3012.6060603,4431.84848441,2823.03030275,42.0,42.0,?
2017-07-31 18:30:08.472348,4555.99999954,3540.12121177,4200.54545413,993.212121113,3889.393939,3919.27272688,3928.54545415,375.030302993,4323.15151472,4.1212121208,4811.51515103,4211.87878746,4220.63636321,3317.57575724,4361.78787835,2909.57575728,5015.51515101,2855.99999971,4220.63636321,4001.6969693,4424.63636319,3618.42424206,4241.75757533,4.1212121208,4805.84848437,3012.6060603,4438.03030259,2823.03030275,42.0,42.0,?
2017-07-31 18:30:08.479757,4562.69696924,3540.12121177,4200.54545413,993.212121113,3891.96969658,3919.27272688,3928.54545415,375.030302993,4331.90909048,4.1212121208,4800.1818177,4211.87878746,4220.1212117,3317.57575724,4356.6363632,2909.57575728,5012.42424192,2855.99999971,4221.66666624,4001.6969693,4428.2424238,3618.42424206,4239.18181776,4.1212121208,4807.39393891,3012.6060603,4442.15151471,2823.03030275,42.0,42.0,?
2017-07-31 18:30:08.487177,4559.60606015,3540.12121177,4194.36363594,993.212121113,3886.30302991,3919.27272688,3933.18181779,375.030302993,4334.48484805,4.1212121208,4790.39393891,4211.87878746,4219.60606018,3317.57575724,4357.66666623,2909.57575728,5017.57575707,2855.99999971,4223.21212079,4001.6969693,4428.2424238,3618.42424206,4237.63636321,4.1212121208,4805.33333285,3012.6060603,4438.5454541,2823.03030275,42.0,42.0,?
2017-07-31 18:30:08.494531,4548.27272682,3540.12121177,4192.8181814,993.212121113,3888.36363597,3919.27272688,3935.24242385,375.030302993,4327.27272684,4.1212121208,4776.48484801,4211.87878746,4223.7272723,3317.57575724,4367.45454502,2909.57575728,5020.66666616,2855.99999971,4220.1212117,4001.6969693,4423.60606016,3618.42424206,4239.69696927,4.1212121208,4799.66666619,3012.6060603,4433.90909047,2823.03030275,42.0,42.0,?
2017-07-31 18:30:08.504013,4547.7575753,3540.12121177,4194.36363594,993.212121113,3890.93939355,3919.27272688,3926.48484809,375.030302993,4322.12121169,4.1212121208,4758.96969649,4211.87878746,4220.63636321,3317.57575724,4370.54545411,2909.57575728,5017.06060556,2855.99999971,4210.84848443,4001.6969693,4414.33333289,3618.42424206,4238.66666624,4.1212121208,4795.03030255,3012.6060603,4429.78787834,2823.03030275,42.0,42.0,?
2017-07-31 18:30:08.510102,4552.39393894,3540.12121177,4198.48484806,993.212121113,3881.15151476,3919.27272688,3916.69696931,375.030302993,4319.0303026,4.1212121208,4741.45454498,4211.87878746,4207.24242382,3317.57575724,4356.6363632,2909.57575728,5006.75757526,2855.99999971,4205.18181776,4001.6969693,4411.75757532,3618.42424206,4236.60606018,4.1212121208,4797.60606013,3012.6060603,4427.72727228,2823.03030275,42.0,42.0,?
2017-07-31 18:30:08.518423,4554.454545,3540.12121177,4198.48484806,993.212121113,3880.63636325,3919.27272688,3925.96969658,375.030302993,4320.57575714,4.1212121208,4736.81818134,4211.87878746,4206.21212079,3317.57575724,4348.39393896,2909.57575728,5003.15151465,2855.99999971,4214.45454503,4001.6969693,4424.63636319,3618.42424206,4239.18181776,4.1212121208,4808.42424194,3012.6060603,4433.39393895,2823.03030275,42.0,42.0,?
2017-07-31 18:30:08.530267,4561.1515147,3540.12121177,4197.45454503,993.212121113,3894.54545416,3919.27272688,3931.63636324,375.030302993,4327.78787836,4.1212121208,4731.15151468,4211.87878746,4220.63636321,3317.57575724,4354.57575714,2909.57575728,5013.45454495,2855.99999971,4229.90909049,4001.6969693,4433.90909047,3618.42424206,4241.24242382,4.1212121208,4817.69696922,3012.6060603,4439.57575713,2823.03030275,42.0,42.0,?
2017-07-31 18:30:08.535033,4551.36363591,3540.12121177,4195.39393897,993.212121113,3883.72727234,3919.27272688,3903.30302991,375.030302993,4317.48484805,4.1212121208,4693.54545408,4211.87878746,4214.96969655,3317.57575724,4342.21212078,2909.57575728,5018.09090859,2855.99999971,4215.99999958,4001.6969693,4415.36363592,3618.42424206,4237.1212117,4.1212121208,4806.36363588,3012.6060603,4426.18181774,2823.03030275,42.0,42.0,?
2017-07-31 18:30:08.541817,4523.54545409,3540.12121177,4187.66666625,993.212121113,3858.4848481,3919.27272688,3880.12121173,375.030302993,4294.30302987,4.1212121208,4650.78787832,4211.87878746,4187.66666625,3317.57575724,4321.09090866,2909.57575728,5000.06060556,2855.99999971,4184.06060564,4001.6969693,4388.57575714,3618.42424206,4232.99999958,4.1212121208,4782.15151467,3012.6060603,4404.03030259,2823.03030275,42.0,42.0,?
2017-07-31 18:30:08.549105,4533.8484844,3540.12121177,4195.90909049,993.212121113,3868.7878784,3919.27272688,3900.21212082,375.030302993,4303.57575715,4.1212121208,4645.63636317,4211.87878746,4188.18181776,3317.57575724,4311.30302987,2909.57575728,4994.39393889,2855.99999971,4187.66666625,4001.6969693,4396.30302986,3618.42424206,4237.1212117,4.1212121208,4788.33333285,3012.6060603,4416.39393895,2823.03030275,42.0,42.0,?
2017-07-31 18:30:08.559038,4576.09090863,3540.12121177,4207.24242382,993.212121113,3900.72727234,3919.27272688,3933.18181779,375.030302993,4344.78787835,4.1212121208,4664.69696923,4211.87878746,4224.24242382,3317.57575724,4318.51515108,2909.57575728,5026.84848435,2855.99999971,4224.24242382,4001.6969693,4432.87878744,3618.42424206,4243.30302988,4.1212121208,4826.96969649,3012.6060603,4451.42424198,2823.03030275,42.0,42.0,?
2017-07-31 18:30:08.566828,4570.93939348,3540.12121177,4206.21212079,993.212121113,3894.03030264,3919.27272688,3926.48484809,375.030302993,4343.24242381,4.1212121208,4649.24242378,4211.87878746,4229.39393897,3317.57575724,4327.27272684,2909.57575728,5035.09090859,2855.99999971,4221.66666624,4001.6969693,4430.30302986,3618.42424206,4238.15151473,4.1212121208,4827.484848,3012.6060603,4446.27272683,2823.03030275,42.0,42.0,?
2017-07-31 18:30:08.572506,4536.93939349,3540.12121177,4197.45454503,993.212121113,3864.15151477,3919.27272688,3901.24242385,375.030302993,4307.18181775,4.1212121208,4612.66666621,4211.87878746,4196.93939352,3317.57575724,4320.06060563,2909.57575728,4999.54545405,2855.99999971,4192.8181814,4001.6969693,4394.75757532,3618.42424206,4235.06060564,4.1212121208,4791.93939346,3012.6060603,4418.45454501,2823.03030275,42.0,42.0,?
2017-07-31 18:30:08.581023,4557.54545409,3540.12121177,4155.72727231,993.212121113,3893.51515113,3919.27272688,3931.63636324,375.030302993,4338.60606017,4.1212121208,4630.18181772,4211.87878746,4221.66666624,3317.57575724,4355.09090866,2909.57575728,5025.81818132,2855.99999971,4232.99999958,4001.6969693,4424.12121168,3618.42424206,4240.7272723,4.1212121208,4810.484848,3012.6060603,4432.87878744,2823.03030275,42.0,42.0,?
2017-07-31 18:30:08.589985,4555.48484803,3540.12121177,4272.66666624,993.212121113,3874.96969658,3919.27272688,3891.96969658,375.030302993,4317.99999957,4.1212121208,4592.0606056,4211.87878746,4207.75757534,3317.57575724,4338.60606017,2909.57575728,5010.36363586,2855.99999971,4204.15151473,4001.6969693,4407.12121168,3618.42424206,4250.51515109,4.1212121208,4813.06060558,3012.6060603,4451.93939349,2823.03030275,42.0,42.0,?
2017-07-31 18:30:08.597304,4587.42424197,3540.12121177,4192.30302988,993.212121113,3917.21212082,3919.27272688,3932.66666627,375.030302993,4357.66666623,4.1212121208,4627.60606014,4211.87878746,4243.30302988,3317.57575724,4387.54545411,2909.57575728,5045.9090904,2855.99999971,4243.30302988,4001.6969693,4445.2424238,3618.42424206,4242.27272685,4.1212121208,4843.45454497,3012.6060603,4485.42424198,2823.03030275,42.0,42.0,?
2017-07-31 18:30:08.604055,4641.51515105,3540.12121177,3953.27272688,993.212121113,4024.87878748,3919.27272688,4062.48484808,375.030302993,4473.57575713,4.1212121208,4730.63636316,4211.87878746,4348.90909047,3317.57575724,4520.454545,2909.57575728,5164.90909039,2855.99999971,4383.9393935,4001.6969693,4567.84848439,3618.42424206,4224.75757534,4.1212121208,4909.90909042,3012.6060603,4495.21212076,2823.03030275,42.0,42.0,?
2017-07-31 18:30:08.611362,4538.48484803,3540.12121177,4271.12121169,993.212121113,3875.99999961,3919.27272688,3886.81818143,375.030302993,4309.75757533,4.1212121208,4554.454545,4211.87878746,4185.09090867,3317.57575724,4330.36363593,2909.57575728,4981.51515102,2855.99999971,4204.66666625,4001.6969693,4413.81818138,3618.42424206,4243.81818139,4.1212121208,4814.60606012,3012.6060603,4436.99999956,2823.03030275,42.0,42.0,?
2017-07-31 18:30:08.619764,4565.27272682,3540.12121177,4217.54545412,993.212121113,3901.75757537,3919.27272688,3908.96969658,375.030302993,4328.30302987,4.1212121208,4562.18181773,4211.87878746,4197.96969655,3317.57575724,4327.27272684,2909.57575728,4991.81818132,2855.99999971,4212.90909049,4001.6969693,4422.06060562,3618.42424206,4240.7272723,4.1212121208,4830.06060558,3012.6060603,4472.03030258,2823.03030275,42.0,42.0,?
2017-07-31 18:30:08.627805,4613.18181772,3540.12121177,4030.03030263,993.212121113,3990.36363596,3919.27272688,4018.6969693,375.030302993,4419.99999956,4.1212121208,4635.84848438,4211.87878746,4306.66666624,3317.57575724,4462.2424238,2909.57575728,5109.27272676,2855.99999971,4327.27272684,4001.6969693,4524.06060561,3618.42424206,4227.84848443,4.1212121208,4886.21212072,3012.6060603,4484.90909046,2823.03030275,42.0,42.0,?
2017-07-31 18:30:08.637317,4516.8484844,3540.12121177,4324.69696926,993.212121113,3849.72727234,3919.27272688,3855.39393901,375.030302993,4261.84848442,4.1212121208,4474.60606016,4211.87878746,4162.42424201,3317.57575724,4300.99999957,2909.57575728,4920.72727224,2855.99999971,4160.87878746,4001.6969693,4369.51515108,3618.42424206,4247.93939351,4.1212121208,4795.03030255,3012.6060603,4439.57575713,2823.03030275,42.0,42.0,?
2017-07-31 18:30:08.643639,4557.54545409,3540.12121177,4224.75757534,993.212121113,3906.90909052,3919.27272688,3913.0909087,375.030302993,4325.72727229,4.1212121208,4527.66666621,4211.87878746,4217.03030261,3317.57575724,4346.3333329,2909.57575728,4972.75757526,2855.99999971,4222.69696927,4001.6969693,4414.33333289,3618.42424206,4244.33333291,4.1212121208,4830.06060558,3012.6060603,4476.66666622,2823.03030275,42.0,42.0,?
2017-07-31 18:30:08.651123,4570.42424197,3540.12121177,4174.27272686,993.212121113,3928.54545415,3919.27272688,3934.21212082,375.030302993,4354.57575714,4.1212121208,4541.57575712,4211.87878746,4248.96969654,3317.57575724,4389.09090865,2909.57575728,5028.90909041,2855.99999971,4254.63636321,4001.6969693,4452.45454501,3618.42424206,4237.63636321,4.1212121208,4842.93939346,3012.6060603,4474.09090864,2823.03030275,42.0,42.0,?
2017-07-31 18:30:08.658711,4535.39393894,3540.12121177,4264.424242,993.212121113,3869.81818143,3919.27272688,3861.57575719,375.030302993,4281.93939351,4.1212121208,4469.45454501,4211.87878746,4171.18181776,3317.57575724,4300.99999957,2909.57575728,4951.63636314,2855.99999971,4175.8181814,4001.6969693,4391.66666623,3618.42424206,4244.33333291,4.1212121208,4803.27272679,3012.6060603,4458.63636319,2823.03030275,42.0,42.0,?
2017-07-31 18:30:08.666085,4563.21212076,3540.12121177,4204.66666625,993.212121113,3909.99999961,3919.27272688,3901.75757537,375.030302993,4321.09090866,4.1212121208,4504.48484803,4211.87878746,4203.63636322,3317.57575724,4329.3333329,2909.57575728,4974.30302981,2855.99999971,4220.63636321,4001.6969693,4430.30302986,3618.42424206,4245.36363594,4.1212121208,4834.69696921,3012.6060603,4479.75757531,2823.03030275,42.0,42.0,?
2017-07-31 18:30:08.675839,4573.51515106,3540.12121177,4236.60606018,993.212121113,3912.06060567,3919.27272688,3902.27272688,375.030302993,4331.90909048,4.1212121208,4506.54545409,4211.87878746,4206.72727231,3317.57575724,4351.48484805,2909.57575728,4968.12121162,2855.99999971,4230.93939352,4001.6969693,4439.57575713,3618.42424206,4245.36363594,4.1212121208,4845.51515103,3012.6060603,4487.48484804,2823.03030275,42.0,42.0,?
2017-07-31 18:30:08.682371,4580.21212075,3540.12121177,4227.84848443,993.212121113,3913.60606021,3919.27272688,3909.48484809,375.030302993,4332.42424199,4.1212121208,4503.454545,4211.87878746,4204.15151473,3317.57575724,4367.45454502,2909.57575728,4982.03030253,2855.99999971,4236.60606018,4001.6969693,4443.69696925,3618.42424206,4241.24242382,4.1212121208,4844.99999952,3012.6060603,4492.12121167,2823.03030275,42.0,42.0,?
2017-07-31 18:30:08.690692,4568.87878742,3540.12121177,4220.1212117,993.212121113,3909.48484809,3919.27272688,3906.393939,375.030302993,4316.96969654,4.1212121208,4485.93939349,4211.87878746,4201.06060564,3317.57575724,4349.42424199,2909.57575728,4982.54545405,2855.99999971,4225.78787837,4001.6969693,4431.33333289,3618.42424206,4239.18181776,4.1212121208,4833.15151467,3012.6060603,4484.39393895,2823.03030275,42.0,42.0,?
2017-07-31 18:30:08.698069,4566.81818136,3540.12121177,4220.1212117,993.212121113,3912.57575718,3919.27272688,3907.42424203,375.030302993,4320.57575714,4.1212121208,4484.39393895,4211.87878746,4214.45454503,3317.57575724,4349.42424199,2909.57575728,4972.75757526,2855.99999971,4224.75757534,4001.6969693,4429.27272683,3618.42424206,4240.21212079,4.1212121208,4836.75757527,3012.6060603,4486.45454501,2823.03030275,42.0,42.0,?
2017-07-31 18:30:08.705127,4570.42424197,3540.12121177,4222.69696927,993.212121113,3911.54545415,3919.27272688,3905.87878749,375.030302993,4328.30302987,4.1212121208,4483.87878743,4211.87878746,4224.75757534,3317.57575724,4362.81818138,2909.57575728,4975.84848435,2855.99999971,4235.06060564,4001.6969693,4435.96969653,3618.42424206,4242.78787836,4.1212121208,4842.42424194,3012.6060603,4489.03030258,2823.03030275,42.0,42.0,?
2017-07-31 18:30:08.713695,4567.33333288,3540.12121177,4228.36363594,993.212121113,3900.21212082,3919.27272688,3893.51515113,375.030302993,4315.93939351,4.1212121208,4463.78787834,4211.87878746,4214.96969655,3317.57575724,4345.81818138,2909.57575728,4970.18181768,2855.99999971,4227.33333291,4001.6969693,4424.63636319,3618.42424206,4243.81818139,4.1212121208,4833.66666618,3012.6060603,4484.39393895,2823.03030275,42.0,42.0,?
2017-07-31 18:30:08.724140,4575.57575712,3540.12121177,4224.24242382,993.212121113,3908.45454506,3919.27272688,3906.393939,375.030302993,4323.66666623,4.1212121208,4468.93939349,4211.87878746,4222.69696927,3317.57575724,4351.99999956,2909.57575728,4973.27272678,2855.99999971,4228.87878746,4001.6969693,4427.21212077,3618.42424206,4242.27272685,4.1212121208,4837.27272679,3012.6060603,4490.06060561,2823.03030275,42.0,42.0,?
2017-07-31 18:30:08.731790,4576.60606015,3540.12121177,4228.87878746,993.212121113,3918.75757537,3919.27272688,3916.69696931,375.030302993,4335.51515108,4.1212121208,4475.63636319,4211.87878746,4223.21212079,3317.57575724,4370.54545411,2909.57575728,4979.45454496,2855.99999971,4231.45454503,4001.6969693,4434.9393935,3618.42424206,4242.27272685,4.1212121208,4841.90909042,3012.6060603,4495.21212076,2823.03030275,42.0,42.0,?
2017-07-31 18:30:08.737465,4558.57575712,3540.12121177,4229.90909049,993.212121113,3908.45454506,3919.27272688,3907.42424203,375.030302993,4324.18181775,4.1212121208,4458.63636319,4211.87878746,4197.96969655,3317.57575724,4349.9393935,2909.57575728,4968.12121162,2855.99999971,4220.1212117,4001.6969693,4422.57575713,3618.42424206,4243.30302988,4.1212121208,4828.51515103,3012.6060603,4483.87878743,2823.03030275,42.0,42.0,?
2017-07-31 18:30:08.748035,4544.66666621,3540.12121177,4220.63636321,993.212121113,3892.99999961,3919.27272688,3897.12121173,375.030302993,4314.90909048,4.1212121208,4453.48484804,4211.87878746,4184.06060564,3317.57575724,4319.54545411,2909.57575728,4954.72727223,2855.99999971,4208.78787837,4001.6969693,4407.12121168,3618.42424206,4241.24242382,4.1212121208,4814.60606012,3012.6060603,4470.48484804,2823.03030275,42.0,42.0,?
2017-07-31 18:30:08.753734,4547.24242379,3540.12121177,4220.1212117,993.212121113,3891.96969658,3919.27272688,3886.81818143,375.030302993,4316.96969654,4.1212121208,4461.72727228,4211.87878746,4197.45454503,3317.57575724,4331.39393896,2909.57575728,4957.30302981,2855.99999971,4209.30302988,4001.6969693,4405.57575714,3618.42424206,4239.18181776,4.1212121208,4816.15151467,3012.6060603,4471.51515107,2823.03030275,42.0,42.0,?
2017-07-31 18:30:08.760040,4554.454545,3540.12121177,4228.36363594,993.212121113,3900.21212082,3919.27272688,3888.36363597,375.030302993,4321.09090866,4.1212121208,4462.75757531,4211.87878746,4216.51515109,3317.57575724,4356.12121169,2909.57575728,4973.27272678,2855.99999971,4218.57575715,4001.6969693,4412.27272683,3618.42424206,4239.18181776,4.1212121208,4823.36363588,3012.6060603,4476.66666622,2823.03030275,42.0,42.0,?
2017-07-31 18:30:08.768011,4558.57575712,3540.12121177,4224.75757534,993.212121113,3906.393939,3919.27272688,3906.393939,375.030302993,4329.3333329,4.1212121208,4466.36363592,4211.87878746,4223.21212079,3317.57575724,4359.72727229,2909.57575728,4981.51515102,2855.99999971,4225.27272685,4001.6969693,4419.48484804,3618.42424206,4242.78787836,4.1212121208,4825.42424194,3012.6060603,4477.18181773,2823.03030275,42.0,42.0,?
2017-07-31 18:30:08.776764,4557.54545409,3540.12121177,4226.8181814,993.212121113,3906.90909052,3919.27272688,3914.63636324,375.030302993,4331.90909048,4.1212121208,4469.96969652,4211.87878746,4221.66666624,3317.57575724,4358.69696926,2909.57575728,4982.03030253,2855.99999971,4225.27272685,4001.6969693,4424.63636319,3618.42424206,4247.424242,4.1212121208,4824.39393891,3012.6060603,4479.75757531,2823.03030275,42.0,42.0,?
2017-07-31 18:30:08.783875,4555.48484803,3540.12121177,4229.90909049,993.212121113,3911.54545415,3919.27272688,3916.18181779,375.030302993,4331.39393896,4.1212121208,4465.33333289,4211.87878746,4222.69696927,3317.57575724,4367.45454502,2909.57575728,4987.18181768,2855.99999971,4231.96969655,4001.6969693,4428.2424238,3618.42424206,4244.84848442,4.1212121208,4829.03030255,3012.6060603,4482.8484844,2823.03030275,42.0,42.0,?
2017-07-31 18:30:08.791509,4554.96969651,3540.12121177,4224.75757534,993.212121113,3914.63636324,3919.27272688,3917.72727234,375.030302993,4329.3333329,4.1212121208,4456.06060561,4211.87878746,4221.15151473,3317.57575724,4369.51515108,2909.57575728,4986.15151465,2855.99999971,4238.66666624,4001.6969693,4426.18181774,3618.42424206,4240.21212079,4.1212121208,4829.03030255,3012.6060603,4482.33333289,2823.03030275,42.0,42.0,?
2017-07-31 18:30:08.801124,4553.93939348,3540.12121177,4225.78787837,993.212121113,3909.48484809,3919.27272688,3908.45454506,375.030302993,4322.6363632,4.1212121208,4450.39393895,4211.87878746,4210.33333291,3317.57575724,4360.75757532,2909.57575728,4977.3939389,2855.99999971,4230.93939352,4001.6969693,4421.03030259,3618.42424206,4242.27272685,4.1212121208,4822.84848437,3012.6060603,4483.87878743,2823.03030275,42.0,42.0,?
2017-07-31 18:30:08.807179,4553.42424197,3540.12121177,4223.21212079,993.212121113,3909.99999961,3919.27272688,3901.24242385,375.030302993,4316.96969654,4.1212121208,4450.39393895,4211.87878746,4200.54545413,3317.57575724,4351.99999956,2909.57575728,4969.15151465,2855.99999971,4217.54545412,4001.6969693,4416.39393895,3618.42424206,4243.30302988,4.1212121208,4821.81818134,3012.6060603,4481.30302985,2823.03030275,42.0,42.0,?
2017-07-31 18:30:08.815643,4550.84848439,3399.99999966,4224.24242382,993.212121113,3908.96969658,3919.27272688,3904.33333294,375.030302993,4310.78787836,4.1212121208,4451.42424198,4211.87878746,4195.39393897,3317.57575724,4341.69696926,2909.57575728,4958.33333284,2855.99999971,4212.39393897,4001.6969693,4412.78787835,3618.42424206,4241.24242382,4.1212121208,4819.75757528,3012.6060603,4474.09090864,2823.03030275,42.0,42.0,?
2017-07-31 18:30:08.828063,4556.51515106,3399.99999966,4228.87878746,1256.96969684,3915.66666628,3919.27272688,3914.63636324,375.030302993,4316.45454502,4.1212121208,4459.66666622,4211.87878746,4209.8181814,3317.57575724,4348.90909047,2909.57575728,4967.09090859,2855.99999971,4228.87878746,4001.6969693,4422.06060562,3618.42424206,4243.30302988,4.1212121208,4825.42424194,3012.6060603,4479.75757531,2823.03030275,42.0,42.0,?
2017-07-31 18:30:08.832805,4571.454545,3399.99999966,4227.33333291,1256.96969684,3930.60606021,3919.27272688,3918.24242385,375.030302993,4330.87878745,4.1212121208,4470.48484804,4211.87878746,4232.48484806,3317.57575724,4370.03030259,2909.57575728,4990.27272677,2855.99999971,4244.84848442,4001.6969693,4435.45454501,3618.42424206,4244.84848442,4.1212121208,4840.87878739,3012.6060603,4495.72727228,2810.66666639,42.0,42.0,?
2017-07-31 18:30:08.844167,4563.72727227,3399.99999966,4227.33333291,1256.96969684,3924.42424203,3791.51515114,3900.72727234,276.121212094,4317.99999957,4.1212121208,4458.63636319,4211.87878746,4220.63636321,3317.57575724,4365.39393896,2909.57575728,4990.27272677,2855.99999971,4225.78787837,4001.6969693,4427.21212077,3618.42424206,4244.33333291,4.1212121208,4831.60606012,3012.6060603,4486.45454501,2810.66666639,42.0,42.0,?
2017-07-31 18:30:08.850014,4563.72727227,3399.99999966,4227.33333291,1256.96969684,3924.42424203,3791.51515114,3900.72727234,276.121212094,4317.99999957,4.1212121208,4458.63636319,4211.87878746,4220.63636321,3317.57575724,4365.39393896,2909.57575728,4990.27272677,2855.99999971,4225.78787837,4001.6969693,4427.21212077,3618.42424206,4244.33333291,4.1212121208,4831.60606012,3012.6060603,4486.45454501,2810.66666639,42.0,42.0,?
2017-07-31 18:30:08.854391,4560.12121167,3399.99999966,4227.33333291,1256.96969684,3927.51515112,3791.51515114,3902.7878784,276.121212094,4319.54545411,4174.78787837,4461.72727228,4211.87878746,4221.15151473,3317.57575724,4363.3333329,2909.57575728,4988.72727223,2855.99999971,4240.7272723,4001.6969693,4431.33333289,3618.42424206,4244.33333291,4.1212121208,4832.12121164,3012.6060603,4482.33333289,2810.66666639,42.0,42.0,?
2017-07-31 18:30:08.862694,4557.03030257,3399.99999966,4225.27272685,1256.96969684,3922.87878749,3791.51515114,3901.75757537,276.121212094,4319.0303026,4174.78787837,4464.30302986,107.151515141,4219.60606018,3317.57575724,4361.27272684,2909.57575728,4984.60606011,2855.99999971,4239.69696927,4001.6969693,4428.75757531,3618.42424206,4241.24242382,4.1212121208,4834.69696921,3012.6060603,4481.30302985,2810.66666639,42.0,42.0,?
2017-07-31 18:30:08.870616,4545.18181773,3399.99999966,4217.03030261,1256.96969684,3911.54545415,3791.51515114,3901.75757537,276.121212094,4311.30302987,4174.78787837,4463.78787834,107.151515141,4209.30302988,3334.06060573,4357.66666623,2909.57575728,4974.81818132,2855.99999971,4217.54545412,4001.6969693,4419.48484804,3618.42424206,4238.66666624,4.1212121208,4826.45454497,3012.6060603,4471.51515107,2810.66666639,42.0,42.0,?
2017-07-31 18:30:08.883702,4535.39393894,3399.99999966,4219.09090867,1256.96969684,3908.96969658,3791.51515114,3896.60606022,276.121212094,4305.63636321,4174.78787837,4466.36363592,107.151515141,4196.93939352,3334.06060573,4342.21212078,2909.57575728,4957.81818132,2855.99999971,4205.18181776,4001.6969693,4410.72727229,3618.42424206,4239.69696927,4.1212121208,4820.78787831,3012.6060603,4465.33333289,2810.66666639,42.0,42.0,?
2017-07-31 18:30:08.887424,4542.09090864,3399.99999966,4221.66666624,1256.96969684,3918.24242385,3791.51515114,3894.03030264,276.121212094,4314.90909048,4174.78787837,4473.57575713,107.151515141,4202.60606019,3334.06060573,4327.27272684,2909.57575728,4972.24242375,2917.81818153,4220.1212117,4001.6969693,4414.84848441,3618.42424206,4241.75757533,4.1212121208,4827.99999952,3012.6060603,4473.06060561,2810.66666639,42.0,42.0,?
2017-07-31 18:30:08.895676,4557.03030257,3399.99999966,4228.36363594,1256.96969684,3921.84848446,3791.51515114,3905.87878749,276.121212094,4315.42424199,4174.78787837,4451.42424198,107.151515141,4224.24242382,3334.06060573,4361.78787835,2909.57575728,4992.84848435,2917.81818153,4232.99999958,3923.393939,4427.21212077,3564.84848449,4242.27272685,4.1212121208,4837.7878783,3012.6060603,4482.8484844,2810.66666639,42.0,42.0,?
2017-07-31 18:30:08.901586,4557.03030257,3399.99999966,4228.36363594,1256.96969684,3921.84848446,3791.51515114,3905.87878749,276.121212094,4315.42424199,4174.78787837,4451.42424198,107.151515141,4224.24242382,3334.06060573,4361.78787835,2909.57575728,4992.84848435,2917.81818153,4232.99999958,3923.393939,4427.21212077,3564.84848449,4242.27272685,4.1212121208,4837.7878783,3012.6060603,4482.8484844,2810.66666639,42.0,42.0,?
2017-07-31 18:30:08.909045,4557.54545409,3399.99999966,4223.21212079,1256.96969684,3915.66666628,3791.51515114,3903.30302991,276.121212094,4312.84848442,4174.78787837,4455.5454541,107.151515141,4218.06060564,3334.06060573,4357.15151472,2909.57575728,4976.87878738,2917.81818153,4229.39393897,3923.393939,4423.09090865,3564.84848449,4243.30302988,4.1212121208,4833.15151467,3012.6060603,4476.66666622,2810.66666639,42.0,42.0,?
2017-07-31 18:30:08.917288,4545.69696924,3399.99999966,4222.18181776,1256.96969684,3909.99999961,3791.51515114,3890.93939355,276.121212094,4313.36363593,4174.78787837,4456.57575713,107.151515141,4206.21212079,3334.06060573,4329.3333329,2909.57575728,4973.27272678,2917.81818153,4217.54545412,3923.393939,4408.66666623,3564.84848449,4245.36363594,4.1212121208,4820.27272679,2996.12121182,4461.72727228,2810.66666639,42.0,42.0,?
2017-07-31 18:30:08.928069,4532.30302985,3399.99999966,4226.8181814,1256.96969684,3908.45454506,3791.51515114,3887.33333294,276.121212094,4318.51515108,4174.78787837,4449.87878743,107.151515141,4206.21212079,3334.06060573,4325.72727229,2909.57575728,4966.06060556,2917.81818153,4207.24242382,3931.63636324,4400.42424198,3564.84848449,4243.30302988,4.1212121208,4813.06060558,2996.12121182,4452.96969652,2810.66666639,42.0,42.0,?
2017-07-31 18:30:08.934169,4516.33333288,3399.99999966,4247.424242,1256.96969684,3887.33333294,3791.51515114,3875.4848481,276.121212094,4309.24242381,4174.78787837,4436.48484804,107.151515141,4196.93939352,3334.06060573,4324.18181775,2909.57575728,4946.48484799,2917.81818153,4180.45454504,3931.63636324,4381.36363593,3560.72727237,4241.75757533,4.1212121208,4799.15151467,2996.12121182,4442.66666622,2810.66666639,42.0,42.0,?
2017-07-31 18:30:08.940835,4511.69696925,3399.99999966,4244.33333291,1256.96969684,3878.57575719,3791.51515114,3866.72727234,276.121212094,4301.51515109,4174.78787837,4440.09090865,107.151515141,4185.60606019,3334.06060573,4316.96969654,2909.57575728,4940.81818132,2917.81818153,4164.99999958,3931.63636324,4365.39393896,3560.72727237,4242.27272685,12.3636363624,4786.27272679,2996.12121182,4442.66666622,2810.66666639,42.0,42.0,?
2017-07-31 18:30:08.948158,4563.21212076,3399.99999966,4120.18181777,1256.96969684,3959.96969657,3791.51515114,3946.57575718,276.121212094,4366.9393935,4174.78787837,4525.09090864,107.151515141,4251.54545412,3334.06060573,4393.72727229,2909.57575728,5020.15151465,2917.81818153,4256.69696927,3931.63636324,4442.66666622,3560.72727237,4235.57575715,12.3636363624,4833.66666618,2996.12121182,4474.60606016,2810.66666639,42.0,42.0,?
2017-07-31 18:30:08.955775,4530.7575753,3399.99999966,4296.87878745,1256.96969684,3904.84848446,3791.51515114,3865.69696931,276.121212094,4287.09090866,4174.78787837,4465.33333289,107.151515141,4186.63636322,3334.06060573,4319.54545411,2909.57575728,4947.51515102,2917.81818153,4188.69696928,3931.63636324,4389.60606017,3560.72727237,4248.45454503,12.3636363624,4804.81818134,2996.12121182,4456.57575713,2810.66666639,42.0,42.0,?
2017-07-31 18:30:08.963669,4524.06060561,3399.99999966,4331.39393896,1256.96969684,3880.63636325,3791.51515114,3832.72727234,276.121212094,4258.75757533,4174.78787837,4462.75757531,107.151515141,4151.60606019,3334.06060573,4270.09090866,2909.57575728,4893.42424193,2917.81818153,4145.93939352,3931.63636324,4350.45454502,3560.72727237,4250.51515109,12.3636363624,4788.84848437,2996.12121182,4466.87878743,2810.66666639,42.0,42.0,?
2017-07-31 18:30:08.973669,4753.30302983,3399.99999966,3564.33333298,1256.96969684,4245.87878745,3791.51515114,4274.7272723,276.121212094,4671.39393893,4174.78787837,4882.0909086,107.151515141,4546.21212076,3334.06060573,4727.54545407,2909.57575728,5345.21212068,2917.81818153,4599.27272681,3931.63636324,4744.54545407,3560.72727237,4199.5151511,12.3636363624,5026.84848435,2996.12121182,4580.21212075,2810.66666639,42.0,42.0,?
2017-07-31 18:30:08.980780,4690.9696965,3399.99999966,3757.51515114,1256.96969684,4166.03030261,3791.51515114,4180.96969655,276.121212094,4594.12121166,4174.78787837,4803.78787831,107.151515141,4490.57575713,3334.06060573,4683.75757529,2909.57575728,5313.78787826,2917.81818153,4534.87878743,3931.63636324,4696.63636317,3560.72727237,4207.75757534,12.3636363624,4986.66666617,2996.12121182,4513.75757531,2810.66666639,42.0,42.0,?
2017-07-31 18:30:08.988932,4563.21212076,3399.99999966,4519.93939349,1256.96969684,3773.99999962,3791.51515114,3704.45454508,276.121212094,4313.36363593,4174.78787837,4390.12121168,107.151515141,4054.24242384,3334.06060573,4166.54545413,2909.57575728,4816.66666619,2917.81818153,4040.33333293,3931.63636324,4255.15151473,3560.72727237,4239.69696927,12.3636363624,4734.75757528,2996.12121182,4411.75757532,2810.66666639,42.0,42.0,?
2017-07-31 18:30:08.995535,4563.21212076,3399.99999966,4196.424242,1256.96969684,3917.21212082,3791.51515114,3883.72727234,276.121212094,4313.36363593,4174.78787837,4558.0606056,107.151515141,4190.24242382,3334.06060573,4317.48484805,2909.57575728,4952.66666617,2917.81818153,4199.5151511,3931.63636324,4388.06060562,3560.72727237,4239.69696927,12.3636363624,4826.96969649,2996.12121182,4490.57575713,2810.66666639,42.0,42.0,?
2017-07-31 18:30:09.004116,4580.72727227,3399.99999966,4101.12121171,1256.96969684,3970.78787839,3791.51515114,3960.48484809,276.121212094,4381.36363593,4174.78787837,4629.15151469,107.151515141,4268.0303026,3334.06060573,4431.84848441,2909.57575728,5042.3030298,2917.81818153,4281.424242,3931.63636324,4466.36363592,3560.72727237,4232.99999958,12.3636363624,4859.42424194,2996.12121182,4485.93939349,2810.66666639,42.0,42.0,?
2017-07-31 18:30:09.011138,4509.63636319,3399.99999966,4311.81818139,1256.96969684,3862.60606022,3791.51515114,3819.84848447,276.121212094,4258.24242382,4174.78787837,4519.93939349,107.151515141,4149.54545413,3334.06060573,4290.69696927,2909.57575728,4915.57575708,2917.81818153,4146.96969656,3931.63636324,4339.12121169,3560.72727237,4248.45454503,12.3636363624,4783.69696922,2996.12121182,4447.81818137,2810.66666639,42.0,42.0,?
2017-07-31 18:30:09.019390,4553.42424197,3399.99999966,4215.48484806,1256.96969684,3920.81818143,3791.51515114,3880.63636325,276.121212094,4316.96969654,4174.78787837,4583.81818136,107.151515141,4210.33333291,3334.06060573,4347.36363593,2909.57575728,4982.54545405,2917.81818153,4209.30302988,3931.63636324,4395.78787835,3560.72727237,4243.81818139,12.3636363624,4827.99999952,2996.12121182,4476.66666622,2810.66666639,42.0,42.0,?
2017-07-31 18:30:09.029194,4564.24242379,3399.99999966,4221.15151473,1256.96969684,3929.06060567,3791.51515114,3895.06060567,276.121212094,4329.84848442,4174.78787837,4598.24242378,107.151515141,4220.63636321,3334.06060573,4358.18181775,2909.57575728,4989.75757526,2917.81818153,4218.57575715,3931.63636324,4414.33333289,3560.72727237,4240.21212079,12.3636363624,4838.81818133,2996.12121182,4485.93939349,2810.66666639,42.0,42.0,?
2017-07-31 18:30:09.035021,4555.48484803,3399.99999966,4210.84848443,1256.96969684,3920.81818143,3791.51515114,3882.69696931,276.121212094,4319.54545411,4174.78787837,4595.15151469,107.151515141,4207.75757534,3334.06060573,4340.15151472,2909.57575728,4973.78787829,2917.81818153,4213.93939352,3931.63636324,4404.54545411,3560.72727237,4241.24242382,12.3636363624,4826.45454497,2996.12121182,4481.81818137,2810.66666639,42.0,42.0,?
2017-07-31 18:30:09.044325,4540.03030258,3399.99999966,4209.30302988,1256.96969684,3912.06060567,3791.51515114,3866.72727234,276.121212094,4303.57575715,4174.78787837,4584.84848439,107.151515141,4201.06060564,3334.06060573,4333.96969654,2909.57575728,4963.9999995,2917.81818153,4204.66666625,3931.63636324,4393.21212077,3560.72727237,4242.27272685,12.3636363624,4815.63636315,2996.12121182,4471.51515107,2810.66666639,42.0,42.0,?
2017-07-31 18:30:09.049226,4549.81818136,3399.99999966,4220.1212117,1256.96969684,3917.72727234,3791.51515114,3872.39393901,276.121212094,4305.63636321,4174.78787837,4582.78787833,107.151515141,4200.54545413,3334.06060573,4334.99999957,2909.57575728,4967.09090859,2917.81818153,4203.1212117,3931.63636324,4396.30302986,3560.72727237,4239.69696927,12.3636363624,4821.30302982,2996.12121182,4482.33333289,2810.66666639,42.0,42.0,?
2017-07-31 18:30:09.057024,4575.57575712,3399.99999966,4210.84848443,1256.96969684,3931.63636324,3791.51515114,3889.90909052,276.121212094,4320.57575714,4174.78787837,4595.66666621,107.151515141,4204.15151473,3334.06060573,4343.24242381,2909.57575728,4984.60606011,2917.81818153,4218.57575715,3931.63636324,4415.87878744,3560.72727237,4237.63636321,12.3636363624,4834.1818177,2996.12121182,4494.69696925,2810.66666639,42.0,42.0,?
2017-07-31 18:30:09.064994,4566.30302985,3399.99999966,4218.57575715,1256.96969684,3921.33333294,3791.51515114,3878.06060567,276.121212094,4312.3333329,4174.78787837,4586.90909045,107.151515141,4193.33333291,3334.06060573,4329.3333329,2909.57575728,4975.84848435,2917.81818153,4209.8181814,3931.63636324,4409.69696926,3560.72727237,4240.21212079,12.3636363624,4827.484848,2996.12121182,4486.96969652,2810.66666639,42.0,42.0,?
2017-07-31 18:30:09.074564,4536.93939349,3399.99999966,4212.90909049,1256.96969684,3916.69696931,3791.51515114,3873.93939355,276.121212094,4308.7272723,4174.78787837,4568.87878742,107.151515141,4196.93939352,3334.06060573,4323.15151472,2909.57575728,4967.60606011,2917.81818153,4207.75757534,3931.63636324,4402.48484804,3560.72727237,4241.24242382,12.3636363624,4819.75757528,2996.12121182,4478.72727228,2810.66666639,42.0,42.0,?
2017-07-31 18:30:09.082788,4524.06060561,3399.99999966,4210.84848443,1256.96969684,3913.0909087,3791.51515114,3874.45454507,276.121212094,4300.48484805,4174.78787837,4546.72727227,107.151515141,4192.8181814,3334.06060573,4325.72727229,2909.57575728,4957.81818132,2917.81818153,4204.66666625,3931.63636324,4402.48484804,3560.72727237,4238.66666624,12.3636363624,4815.63636315,2996.12121182,4474.60606016,2810.66666639,42.0,42.0,?
2017-07-31 18:30:09.089172,4538.99999955,3399.99999966,4211.87878746,1256.96969684,3914.63636324,3791.51515114,3876.51515113,276.121212094,4303.06060563,4174.78787837,4558.57575712,107.151515141,4191.78787837,3334.06060573,4339.12121169,2909.57575728,4959.36363587,2917.81818153,4203.63636322,3931.63636324,4419.48484804,3560.72727237,4237.63636321,12.3636363624,4821.81818134,2996.12121182,4478.21212076,2810.66666639,42.0,42.0,?
2017-07-31 18:30:09.097009,4553.42424197,3399.99999966,4210.33333291,1256.96969684,3921.84848446,3791.51515114,3884.75757537,276.121212094,4320.57575714,4174.78787837,4596.18181772,107.151515141,4204.66666625,3334.06060573,4349.9393935,2909.57575728,4982.03030253,2917.81818153,4217.54545412,3931.63636324,4439.57575713,3560.72727237,4240.21212079,12.3636363624,4832.12121164,2996.12121182,4479.75757531,2810.66666639,42.0,42.0,?
2017-07-31 18:30:09.104908,4555.99999954,3399.99999966,4213.424242,1256.96969684,3921.84848446,3791.51515114,3884.24242385,276.121212094,4321.60606017,4174.78787837,4606.99999954,107.151515141,4210.84848443,3334.06060573,4346.3333329,2909.57575728,4985.63636314,2917.81818153,4223.7272723,3931.63636324,4443.18181774,3560.72727237,4242.27272685,12.3636363624,4831.09090861,2996.12121182,4473.06060561,2810.66666639,42.0,42.0,?
2017-07-31 18:30:09.112638,4557.03030257,3399.99999966,4215.48484806,1256.96969684,3925.96969658,3791.51515114,3873.42424204,276.121212094,4312.3333329,4174.78787837,4605.45454499,107.151515141,4209.8181814,3334.06060573,4343.24242381,2909.57575728,4970.18181768,2917.81818153,4218.57575715,3931.63636324,4447.30302986,3560.72727237,4243.30302988,12.3636363624,4831.09090861,2996.12121182,4470.99999955,2810.66666639,42.0,42.0,?
2017-07-31 18:30:09.119974,4553.93939348,3399.99999966,4214.45454503,1256.96969684,3936.27272688,3791.51515114,3873.93939355,276.121212094,4316.96969654,4174.78787837,4624.51515105,107.151515141,4211.36363594,3334.06060573,4348.90909047,2909.57575728,4982.54545405,2917.81818153,4222.69696927,3931.63636324,4456.06060561,3560.72727237,4240.21212079,12.3636363624,4834.69696921,2996.12121182,4469.45454501,2810.66666639,42.0,42.0,?
2017-07-31 18:30:09.129777,4552.39393894,3399.99999966,4210.33333291,1256.96969684,3930.60606021,3791.51515114,3884.75757537,276.121212094,4322.12121169,4174.78787837,4644.09090863,107.151515141,4210.84848443,3334.06060573,4350.96969653,2909.57575728,4996.45454495,2917.81818153,4224.75757534,3931.63636324,4453.99999955,3560.72727237,4236.09090867,12.3636363624,4824.90909043,2996.12121182,4455.5454541,2810.66666639,42.0,42.0,?
2017-07-31 18:30:09.135370,4545.69696924,3399.99999966,4209.8181814,1256.96969684,3914.12121173,3791.51515114,3883.72727234,276.121212094,4314.90909048,4174.78787837,4646.15151469,107.151515141,4205.18181776,3334.06060573,4346.3333329,2909.57575728,4979.45454496,2917.81818153,4210.33333291,3931.63636324,4442.15151471,3560.72727237,4237.63636321,12.3636363624,4810.99999952,2996.12121182,4442.15151471,2810.66666639,42.0,42.0,?
2017-07-31 18:30:09.143082,4525.60606015,3399.99999966,4212.39393897,1256.96969684,3914.12121173,3791.51515114,3880.63636325,276.121212094,4311.81818139,4174.78787837,4648.21212075,107.151515141,4203.1212117,3334.06060573,4346.3333329,2909.57575728,4966.06060556,2917.81818153,4203.1212117,3931.63636324,4434.9393935,3560.72727237,4240.21212079,12.3636363624,4809.96969649,2996.12121182,4439.57575713,2810.66666639,42.0,42.0,?
2017-07-31 18:30:09.152750,4520.96969652,3399.99999966,4211.87878746,1256.96969684,3924.42424203,3791.51515114,3889.90909052,276.121212094,4319.0303026,4174.78787837,4662.63636317,107.151515141,4206.21212079,3334.06060573,4343.75757532,2909.57575728,4977.90909041,2917.81818153,4210.33333291,3931.63636324,4432.36363592,3560.72727237,4238.15151473,12.3636363624,4813.06060558,2996.12121182,4440.09090865,2810.66666639,42.0,42.0,?
2017-07-31 18:30:09.161387,4536.42424197,3399.99999966,4211.87878746,1256.96969684,3923.90909052,3791.51515114,3891.45454507,276.121212094,4324.18181775,4174.78787837,4671.39393893,107.151515141,4205.18181776,3334.06060573,4338.09090866,2909.57575728,4983.06060556,2917.81818153,4213.424242,3931.63636324,4428.2424238,3560.72727237,4238.15151473,12.3636363624,4808.93939346,2996.12121182,4439.57575713,2810.66666639,42.0,42.0,?
2017-07-31 18:30:09.167683,4540.03030258,3399.99999966,4208.78787837,1256.96969684,3918.75757537,3791.51515114,3883.21212082,276.121212094,4323.66666623,4174.78787837,4670.87878741,107.151515141,4195.90909049,3334.06060573,4340.66666623,2909.57575728,4969.15151465,2917.81818153,4206.21212079,3931.63636324,4422.57575713,3560.72727237,4239.18181776,12.3636363624,4806.8787874,2996.12121182,4434.42424198,2810.66666639,42.0,42.0,?
2017-07-31 18:30:09.174616,4533.33333288,3399.99999966,4205.69696928,1256.96969684,3918.75757537,3791.51515114,3885.7878784,276.121212094,4317.99999957,4174.78787837,4672.42424196,107.151515141,4185.09090867,3334.06060573,4336.54545411,2909.57575728,4960.3939389,2917.81818153,4192.8181814,3931.63636324,4415.36363592,3560.72727237,4236.60606018,12.3636363624,4806.36363588,2996.12121182,4429.78787834,2810.66666639,42.0,42.0,?
2017-07-31 18:30:09.184556,4536.93939349,3399.99999966,4211.87878746,1256.96969684,3919.27272688,3791.51515114,3887.84848446,276.121212094,4312.84848442,4174.78787837,4680.15151468,107.151515141,4185.09090867,3334.06060573,4326.75757532,2909.57575728,4962.96969647,2917.81818153,4189.72727231,3931.63636324,4409.69696926,3560.72727237,4236.09090867,12.3636363624,4803.27272679,2996.12121182,4433.39393895,2810.66666639,42.0,42.0,?
2017-07-31 18:30:09.199599,4536.93939349,3399.99999966,4213.424242,1256.96969684,3920.30302991,3791.51515114,3878.06060567,276.121212094,4319.54545411,4174.78787837,4688.39393893,107.151515141,4189.72727231,3334.06060573,4331.90909048,2909.57575728,4967.09090859,2917.81818153,4207.24242382,3931.63636324,4419.99999956,3560.72727237,4239.69696927,12.3636363624,4810.99999952,2996.12121182,4438.5454541,2810.66666639,42.0,42.0,?
2017-07-31 18:30:09.201976,4536.93939349,3399.99999966,4207.75757534,1256.96969684,3919.27272688,3791.51515114,3875.99999961,276.121212094,4319.54545411,4174.78787837,4688.39393893,107.151515141,4185.60606019,3334.06060573,4340.15151472,2909.57575728,4966.06060556,2917.81818153,4207.24242382,3931.63636324,4419.99999956,3560.72727237,4239.69696927,12.3636363624,4810.99999952,2996.12121182,4434.9393935,2810.66666639,42.0,42.0,?
2017-07-31 18:30:09.206535,4514.78787834,3399.99999966,4205.18181776,1256.96969684,3917.72727234,3791.51515114,3886.30302991,276.121212094,4313.87878745,4174.78787837,4686.33333286,107.151515141,4181.48484807,3334.06060573,4336.54545411,2909.57575728,4965.54545405,2917.81818153,4193.84848443,3931.63636324,4409.69696926,3560.72727237,4239.69696927,12.3636363624,4803.27272679,2996.12121182,4423.60606016,2810.66666639,42.0,42.0,?
2017-07-31 18:30:09.214281,4506.03030258,3399.99999966,4204.15151473,1256.96969684,3913.60606021,3791.51515114,3887.33333294,276.121212094,4310.78787836,4174.78787837,4688.90909044,107.151515141,4182.5151511,3334.06060573,4331.39393896,2909.57575728,4965.54545405,2917.81818153,4189.21212079,3931.63636324,4402.48484804,3560.72727237,4240.21212079,12.3636363624,4795.03030255,2996.12121182,4417.9393935,2810.66666639,42.0,42.0,?
2017-07-31 18:30:09.221153,4519.93939349,3399.99999966,4206.72727231,1256.96969684,3908.96969658,3791.51515114,3876.51515113,276.121212094,4308.21212078,4174.78787837,4690.9696965,107.151515141,4182.5151511,3334.06060573,4329.84848442,2909.57575728,4961.93939344,2917.81818153,4190.24242382,3931.63636324,4405.57575714,3560.72727237,4237.63636321,12.3636363624,4799.15151467,2996.12121182,4422.06060562,2810.66666639,42.0,42.0,?
2017-07-31 18:30:09.229621,4538.99999955,3399.99999966,4209.30302988,1256.96969684,3914.63636324,3791.51515114,3875.4848481,276.121212094,4310.27272684,4174.78787837,4701.2727268,107.151515141,4190.75757534,3334.06060573,4333.96969654,2909.57575728,4968.12121162,2917.81818153,4198.99999958,3931.63636324,4416.90909047,3560.72727237,4235.57575715,12.3636363624,4810.99999952,2996.12121182,4430.81818138,2810.66666639,42.0,42.0,?
2017-07-31 18:30:09.237538,4537.454545,3399.99999966,4208.27272685,1256.96969684,3921.33333294,3791.51515114,3878.57575719,276.121212094,4311.30302987,4174.78787837,4711.5757571,107.151515141,4195.39393897,3334.06060573,4336.54545411,2909.57575728,4971.72727223,2917.81818153,4208.27272685,3931.63636324,4422.57575713,3560.72727237,4239.69696927,12.3636363624,4816.15151467,2996.12121182,4433.90909047,2810.66666639,42.0,42.0,?
2017-07-31 18:30:09.246554,4524.06060561,3399.99999966,4207.24242382,1256.96969684,3918.75757537,3791.51515114,3876.51515113,276.121212094,4306.15151472,4174.78787837,4711.06060559,107.151515141,4185.09090867,3334.06060573,4330.36363593,2909.57575728,4968.12121162,2917.81818153,4204.15151473,3931.63636324,4415.87878744,3560.72727237,4240.21212079,12.3636363624,4808.93939346,2996.12121182,4426.18181774,2810.66666639,42.0,42.0,?
2017-07-31 18:30:09.253597,4533.33333288,3399.99999966,4205.18181776,1256.96969684,3920.81818143,3791.51515114,3887.33333294,276.121212094,4313.87878745,4174.78787837,4722.39393892,107.151515141,4191.27272685,3334.06060573,4337.06060563,2909.57575728,4976.36363587,2917.81818153,4205.18181776,3931.63636324,4417.42424198,3560.72727237,4238.66666624,12.3636363624,4814.09090861,2996.12121182,4425.66666622,2810.66666639,42.0,42.0,?
2017-07-31 18:30:09.263416,4546.21212076,3399.99999966,4207.24242382,1256.96969684,3925.96969658,3791.51515114,3896.0909087,276.121212094,4323.66666623,4174.78787837,4741.9696965,107.151515141,4207.75757534,3334.06060573,4354.06060563,2909.57575728,4992.33333283,2917.81818153,4218.06060564,3931.63636324,4425.15151471,3560.72727237,4240.7272723,12.3636363624,4824.39393891,2996.12121182,4435.45454501,2810.66666639,42.0,42.0,?
2017-07-31 18:30:09.268823,4533.8484844,3399.99999966,4208.78787837,1256.96969684,3922.36363597,3791.51515114,3885.27272688,276.121212094,4322.6363632,4174.78787837,4744.54545407,107.151515141,4205.18181776,3334.06060573,4355.09090866,2909.57575728,4996.96969647,2917.81818153,4222.18181776,3931.63636324,4420.51515107,3560.72727237,4241.75757533,12.3636363624,4816.15151467,2996.12121182,4435.96969653,2810.66666639,42.0,42.0,?
2017-07-31 18:30:09.277866,4528.18181773,3399.99999966,4205.18181776,1256.96969684,3922.36363597,3791.51515114,3882.18181779,276.121212094,4321.60606017,4174.78787837,4744.03030256,107.151515141,4194.87878746,3334.06060573,4346.84848441,2909.57575728,4985.63636314,2917.81818153,4219.09090867,3931.63636324,4416.90909047,3560.72727237,4238.66666624,12.3636363624,4810.99999952,2996.12121182,4430.30302986,2810.66666639,42.0,42.0,?
2017-07-31 18:30:09.284469,4543.63636318,3399.99999966,4206.72727231,1256.96969684,3930.60606021,3791.51515114,3892.99999961,276.121212094,4324.69696926,4174.78787837,4750.21212074,107.151515141,4197.96969655,3334.06060573,4350.96969653,2909.57575728,4980.9999995,2917.81818153,4222.18181776,3931.63636324,4423.60606016,3560.72727237,4238.66666624,12.3636363624,4820.27272679,2996.12121182,4431.33333289,2810.66666639,42.0,42.0,?
2017-07-31 18:30:09.292013,4540.54545409,3399.99999966,4207.75757534,1256.96969684,3933.6969693,3791.51515114,3894.54545416,276.121212094,4321.60606017,4174.78787837,4746.60606013,107.151515141,4202.09090867,3334.06060573,4357.15151472,2909.57575728,4992.84848435,2917.81818153,4225.78787837,3931.63636324,4426.69696925,3560.72727237,4239.69696927,12.3636363624,4825.42424194,2996.12121182,4435.96969653,2810.66666639,42.0,42.0,?
2017-07-31 18:30:09.300934,4531.27272682,3399.99999966,4207.75757534,1256.96969684,3934.72727233,3791.51515114,3891.96969658,276.121212094,4317.99999957,4174.78787837,4740.42424195,107.151515141,4196.424242,3334.06060573,4348.39393896,2909.57575728,4997.48484799,2917.81818153,4221.15151473,3931.63636324,4421.03030259,3560.72727237,4239.18181776,12.3636363624,4822.33333285,2996.12121182,4441.12121168,2810.66666639,42.0,42.0,?
2017-07-31 18:30:09.307063,4546.21212076,3399.99999966,4209.8181814,1256.96969684,3939.36363597,3791.51515114,3890.93939355,276.121212094,4319.0303026,4174.78787837,4742.99999953,107.151515141,4195.90909049,3334.06060573,4342.21212078,2909.57575728,4986.15151465,2917.81818153,4218.57575715,3931.63636324,4419.48484804,3560.72727237,4240.7272723,12.3636363624,4823.36363588,2996.12121182,4445.2424238,2810.66666639,42.0,42.0,?
2017-07-31 18:30:09.315065,4554.96969651,3399.99999966,4210.33333291,1256.96969684,3936.78787839,3791.51515114,3884.75757537,276.121212094,4315.42424199,4174.78787837,4740.93939347,107.151515141,4195.90909049,3334.06060573,4343.75757532,2909.57575728,4976.36363587,2917.81818153,4214.96969655,3931.63636324,4417.42424198,3560.72727237,4240.21212079,12.3636363624,4822.33333285,2996.12121182,4442.66666622,2810.66666639,42.0,42.0,?
2017-07-31 18:30:09.323934,4545.69696924,3424.72727238,4207.75757534,1256.96969684,3928.54545415,3791.51515114,3881.15151476,276.121212094,4309.75757533,4174.78787837,4730.63636316,107.151515141,4188.18181776,3334.06060573,4336.0303026,2909.57575728,4974.81818132,2917.81818153,4204.66666625,3931.63636324,4411.2424238,3560.72727237,4236.09090867,12.3636363624,4816.15151467,2996.12121182,4438.03030259,2810.66666639,42.0,42.0,?
2017-07-31 18:30:09.336988,4543.63636318,3424.72727238,4207.75757534,1153.93939382,3934.21212082,3791.51515114,3888.87878749,276.121212094,4313.36363593,4174.78787837,4727.03030256,107.151515141,4190.24242382,3334.06060573,4337.57575714,2909.57575728,4978.93939344,2917.81818153,4206.21212079,3931.63636324,4412.78787835,3560.72727237,4237.1212117,12.3636363624,4821.30302982,2996.12121182,4443.18181774,2810.66666639,42.0,42.0,?
2017-07-31 18:30:09.340840,4542.60606015,3424.72727238,4208.78787837,1153.93939382,3941.93939355,3791.51515114,3891.45454507,276.121212094,4321.60606017,4174.78787837,4729.60606013,107.151515141,4199.5151511,3334.06060573,4346.84848441,2909.57575728,4980.48484799,2917.81818153,4210.33333291,3931.63636324,4416.39393895,3560.72727237,4238.15151473,12.3636363624,4825.42424194,2996.12121182,4445.2424238,2872.4848482,42.0,42.0,?
2017-07-31 18:30:09.347790,4534.36363591,3424.72727238,4205.18181776,1153.93939382,3931.63636324,3812.12121174,3881.66666628,276.121212094,4319.54545411,4174.78787837,4727.54545407,107.151515141,4192.8181814,3334.06060573,4332.93939351,2909.57575728,4973.27272678,2917.81818153,4197.45454503,3931.63636324,4406.09090865,3560.72727237,4235.57575715,12.3636363624,4814.60606012,2996.12121182,4433.39393895,2872.4848482,42.0,42.0,?
2017-07-31 18:30:09.354290,4533.8484844,3424.72727238,4205.18181776,1153.93939382,3926.48484809,3812.12121174,3878.57575719,304.969696939,4313.87878745,4174.78787837,4723.93939347,107.151515141,4186.63636322,3334.06060573,4322.6363632,2909.57575728,4967.09090859,2917.81818153,4188.69696928,3931.63636324,4396.81818138,3560.72727237,4235.06060564,12.3636363624,4812.03030255,2996.12121182,4428.2424238,2872.4848482,42.0,42.0,?
2017-07-31 18:30:09.366301,4535.39393894,3424.72727238,4210.84848443,1153.93939382,3935.24242385,3812.12121174,3886.30302991,304.969696939,4314.39393896,61.818181812,4720.33333286,107.151515141,4192.30302988,3334.06060573,4336.54545411,2909.57575728,4971.72727223,2917.81818153,4190.75757534,3931.63636324,4400.42424198,3560.72727237,4234.54545412,12.3636363624,4818.72727225,2996.12121182,4432.87878744,2872.4848482,42.0,42.0,?
2017-07-31 18:30:09.371786,4536.93939349,3424.72727238,4209.30302988,1153.93939382,3933.18181779,3812.12121174,3890.93939355,304.969696939,4315.42424199,61.818181812,4719.81818135,140.121212107,4191.27272685,3334.06060573,4344.78787835,2909.57575728,4981.51515102,2917.81818153,4191.78787837,3931.63636324,4405.57575714,3560.72727237,4238.15151473,12.3636363624,4812.54545406,2996.12121182,4431.84848441,2872.4848482,42.0,42.0,?
2017-07-31 18:30:09.380609,4542.09090864,3424.72727238,4206.72727231,1153.93939382,3925.96969658,3812.12121174,3882.69696931,304.969696939,4315.42424199,61.818181812,4723.93939347,140.121212107,4189.21212079,3354.66666633,4339.12121169,2909.57575728,4985.63636314,2917.81818153,4198.99999958,3931.63636324,4407.6363632,3560.72727237,4240.7272723,12.3636363624,4809.96969649,2996.12121182,4429.78787834,2872.4848482,42.0,42.0,?
2017-07-31 18:30:09.386520,4540.54545409,3424.72727238,4211.87878746,1153.93939382,3935.24242385,3812.12121174,3879.60606022,304.969696939,4320.06060563,61.818181812,4722.90909044,140.121212107,4197.96969655,3354.66666633,4345.30302987,2934.30303001,4986.15151465,2917.81818153,4208.78787837,3931.63636324,4408.15151471,3560.72727237,4238.66666624,12.3636363624,4820.27272679,2996.12121182,4430.30302986,2872.4848482,42.0,42.0,?
2017-07-31 18:30:09.393016,4534.87878743,3424.72727238,4210.84848443,1153.93939382,3946.06060567,3812.12121174,3890.42424204,304.969696939,4326.75757532,61.818181812,4706.93939347,140.121212107,4201.57575716,3354.66666633,4350.96969653,2934.30303001,4989.24242374,2855.99999971,4210.33333291,3931.63636324,4412.27272683,3560.72727237,4239.18181776,12.3636363624,4821.30302982,2996.12121182,4430.81818138,2872.4848482,42.0,42.0,?
2017-07-31 18:30:09.402609,4540.03030258,3424.72727238,4205.18181776,1153.93939382,3945.03030264,3812.12121174,3894.54545416,304.969696939,4324.18181775,61.818181812,4685.81818135,140.121212107,4193.33333291,3354.66666633,4342.72727229,2934.30303001,4979.96969647,2855.99999971,4210.33333291,3989.33333293,4413.30302986,3560.72727237,4241.75757533,12.3636363624,4812.54545406,2996.12121182,4431.33333289,2872.4848482,42.0,42.0,?
2017-07-31 18:30:09.409916,4540.03030258,3424.72727238,4206.21212079,1153.93939382,3935.75757536,3812.12121174,3891.45454507,304.969696939,4318.51515108,61.818181812,4677.57575711,140.121212107,4186.63636322,3354.66666633,4336.54545411,2934.30303001,4970.18181768,2855.99999971,4206.72727231,3989.33333293,4404.54545411,3610.18181782,4241.75757533,12.3636363624,4807.90909043,2996.12121182,4431.33333289,2872.4848482,42.0,42.0,?
2017-07-31 18:30:09.422009,4524.06060561,3424.72727238,4206.72727231,1153.93939382,3923.393939,3812.12121174,3886.30302991,304.969696939,4312.3333329,61.818181812,4673.45454499,140.121212107,4179.42424201,3354.66666633,4326.75757532,2934.30303001,4975.84848435,2855.99999971,4190.24242382,3989.33333293,4390.12121168,3610.18181782,4239.69696927,0.0,4800.69696922,2996.12121182,4424.63636319,2872.4848482,42.0,42.0,?
2017-07-31 18:30:09.427422,4523.03030258,3424.72727238,4207.24242382,1153.93939382,3921.33333294,3812.12121174,3874.45454507,304.969696939,4302.0303026,61.818181812,4671.90909044,140.121212107,4174.27272686,3354.66666633,4316.45454502,2934.30303001,4976.36363587,2855.99999971,4184.06060564,3989.33333293,4387.03030259,3610.18181782,4238.15151473,0.0,4795.03030255,2987.87878758,4420.51515107,2872.4848482,42.0,42.0,?
2017-07-31 18:30:09.433058,4533.8484844,3424.72727238,4207.75757534,1153.93939382,3929.06060567,3812.12121174,3867.75757537,304.969696939,4299.45454502,61.818181812,4683.24242377,140.121212107,4180.45454504,3354.66666633,4328.30302987,2934.30303001,4975.84848435,2855.99999971,4198.99999958,4001.6969693,4399.90909047,3610.18181782,4237.1212117,0.0,4803.27272679,2987.87878758,4428.75757531,2872.4848482,42.0,42.0,?
2017-07-31 18:30:09.440604,4530.7575753,3424.72727238,4205.69696928,1153.93939382,3929.57575718,3812.12121174,3877.54545416,304.969696939,4308.21212078,61.818181812,4705.90909044,140.121212107,4186.63636322,3354.66666633,4345.30302987,2934.30303001,4979.45454496,2855.99999971,4206.21212079,4001.6969693,4405.57575714,3622.54545418,4236.60606018,0.0,4807.39393891,2987.87878758,4434.42424198,2872.4848482,42.0,42.0,?
2017-07-31 18:30:09.449059,4527.66666621,3424.72727238,4204.15151473,1153.93939382,3927.51515112,3812.12121174,3889.90909052,304.969696939,4316.96969654,61.818181812,4731.66666619,140.121212107,4187.15151473,3354.66666633,4345.30302987,2934.30303001,4975.33333284,2855.99999971,4198.99999958,4001.6969693,4399.90909047,3622.54545418,4236.60606018,0.0,4806.36363588,2987.87878758,4429.27272683,2872.4848482,42.0,42.0,?
2017-07-31 18:30:09.456922,4542.09090864,3424.72727238,4208.78787837,1153.93939382,3931.63636324,3812.12121174,3890.42424204,304.969696939,4320.06060563,61.818181812,4755.8787874,140.121212107,4189.72727231,3354.66666633,4339.6363632,2934.30303001,4972.24242375,2855.99999971,4204.66666625,4001.6969693,4402.48484804,3622.54545418,4238.15151473,0.0,4813.06060558,2987.87878758,4429.78787834,2872.4848482,42.0,42.0,?
2017-07-31 18:30:09.466374,4544.1515147,3424.72727238,4209.8181814,1153.93939382,3937.30302991,3812.12121174,3889.393939,304.969696939,4320.57575714,61.818181812,4775.45454498,140.121212107,4190.24242382,3354.66666633,4338.60606017,2934.30303001,4974.81818132,2855.99999971,4215.48484806,4001.6969693,4406.09090865,3622.54545418,4238.66666624,0.0,4816.66666619,2987.87878758,4435.96969653,2872.4848482,42.0,42.0,?
2017-07-31 18:30:09.473137,4533.33333288,3424.72727238,4202.60606019,1153.93939382,3937.81818142,3812.12121174,3886.81818143,304.969696939,4317.48484805,61.818181812,4788.84848437,140.121212107,4183.54545413,3354.66666633,4331.90909048,2934.30303001,4975.84848435,2855.99999971,4207.75757534,4001.6969693,4398.87878744,3622.54545418,4237.63636321,0.0,4809.96969649,2987.87878758,4436.48484804,2872.4848482,42.0,42.0,?
2017-07-31 18:30:09.481358,4533.8484844,3424.72727238,4197.45454503,1153.93939382,3933.6969693,3812.12121174,3883.72727234,304.969696939,4308.7272723,61.818181812,4785.24242376,140.121212107,4176.84848443,3354.66666633,4331.90909048,2934.30303001,4971.72727223,2855.99999971,4192.30302988,4001.6969693,4391.66666623,3622.54545418,4237.1212117,0.0,4804.30302982,2987.87878758,4438.5454541,2872.4848482,42.0,42.0,?
2017-07-31 18:30:09.487752,4537.96969652,3424.72727238,4200.54545413,1153.93939382,3933.6969693,3812.12121174,3888.36363597,304.969696939,4304.60606018,61.818181812,4767.21212074,140.121212107,4176.84848443,3354.66666633,4336.0303026,2934.30303001,4975.84848435,2855.99999971,4192.8181814,4001.6969693,4395.78787835,3622.54545418,4237.63636321,0.0,4810.99999952,2987.87878758,4443.69696925,2872.4848482,42.0,42.0,?
2017-07-31 18:30:09.496825,4543.63636318,3424.72727238,4202.60606019,1153.93939382,3936.78787839,3812.12121174,3892.4848481,304.969696939,4308.7272723,61.818181812,4753.30302983,140.121212107,4180.45454504,3354.66666633,4324.18181775,2934.30303001,4980.9999995,2855.99999971,4205.69696928,4001.6969693,4406.60606017,3622.54545418,4240.7272723,0.0,4821.81818134,2987.87878758,4447.81818137,2872.4848482,42.0,42.0,?
2017-07-31 18:30:09.503622,4550.33333288,3424.72727238,4204.15151473,1153.93939382,3934.21212082,3812.12121174,3888.36363597,304.969696939,4311.81818139,61.818181812,4746.60606013,140.121212107,4184.57575716,3354.66666633,4316.96969654,2934.30303001,4976.87878738,2855.99999971,4207.24242382,4001.6969693,4405.57575714,3622.54545418,4241.75757533,0.0,4820.27272679,2987.87878758,4451.93939349,2872.4848482,42.0,42.0,?
2017-07-31 18:30:09.511645,4547.24242379,3424.72727238,4208.78787837,1153.93939382,3936.78787839,3812.12121174,3885.7878784,304.969696939,4313.36363593,61.818181812,4740.42424195,140.121212107,4189.72727231,3354.66666633,4337.06060563,2934.30303001,4971.72727223,2855.99999971,4200.03030261,4001.6969693,4397.33333289,3622.54545418,4239.69696927,0.0,4814.60606012,2987.87878758,4452.96969652,2872.4848482,42.0,42.0,?
2017-07-31 18:30:09.519934,4544.1515147,3424.72727238,4207.75757534,1153.93939382,3939.87878748,3812.12121174,3889.393939,304.969696939,4316.96969654,61.818181812,4733.21212074,140.121212107,4192.8181814,3354.66666633,4350.45454502,2934.30303001,4975.84848435,2855.99999971,4196.424242,4001.6969693,4395.27272683,3622.54545418,4237.63636321,0.0,4818.21212073,2987.87878758,4446.78787834,2872.4848482,42.0,42.0,?
2017-07-31 18:30:09.526383,4547.24242379,3424.72727238,4202.09090867,1153.93939382,3936.27272688,3812.12121174,3894.54545416,304.969696939,4319.54545411,61.818181812,4730.12121165,140.121212107,4194.36363594,3354.66666633,4345.81818138,2934.30303001,4983.06060556,2855.99999971,4198.99999958,4001.6969693,4399.90909047,3622.54545418,4238.66666624,0.0,4822.84848437,2987.87878758,4445.2424238,2872.4848482,42.0,42.0,?
2017-07-31 18:30:09.536053,4544.66666621,3424.72727238,4200.54545413,1153.93939382,3940.393939,3812.12121174,3900.72727234,304.969696939,4321.09090866,61.818181812,4734.75757528,140.121212107,4198.48484806,3354.66666633,4351.99999956,2934.30303001,4986.66666617,2855.99999971,4207.24242382,4001.6969693,4407.6363632,3622.54545418,4241.24242382,0.0,4824.90909043,2987.87878758,4454.51515107,2872.4848482,42.0,42.0,?
2017-07-31 18:30:09.542689,4538.99999955,3424.72727238,4203.63636322,1153.93939382,3946.06060567,3812.12121174,3898.66666628,304.969696939,4322.12121169,61.818181812,4737.84848437,140.121212107,4195.90909049,3354.66666633,4357.66666623,2934.30303001,4987.18181768,2855.99999971,4210.33333291,4001.6969693,4409.18181774,3622.54545418,4238.15151473,0.0,4822.84848437,2987.87878758,4453.99999955,2872.4848482,42.0,42.0,?
2017-07-31 18:30:09.550073,4541.06060561,3424.72727238,4206.72727231,1153.93939382,3943.99999961,3812.12121174,3887.33333294,304.969696939,4321.60606017,61.818181812,4738.36363589,140.121212107,4194.87878746,3354.66666633,4352.51515108,2934.30303001,4987.18181768,2855.99999971,4209.30302988,4001.6969693,4407.12121168,3622.54545418,4237.1212117,0.0,4825.93939346,2987.87878758,4447.30302986,2872.4848482,42.0,42.0,?
2017-07-31 18:30:09.558064,4547.24242379,3424.72727238,4206.21212079,1153.93939382,3942.45454506,3812.12121174,3886.30302991,304.969696939,4321.09090866,61.818181812,4738.36363589,140.121212107,4197.96969655,3354.66666633,4350.96969653,2934.30303001,4992.84848435,2855.99999971,4211.36363594,4001.6969693,4409.18181774,3622.54545418,4241.24242382,0.0,4832.63636315,2987.87878758,4451.42424198,2872.4848482,42.0,42.0,?
2017-07-31 18:30:09.565420,4545.69696924,3424.72727238,4200.54545413,1153.93939382,3939.36363597,3812.12121174,3890.42424204,304.969696939,4317.48484805,61.818181812,4737.33333286,140.121212107,4192.30302988,3354.66666633,4345.81818138,2934.30303001,4990.27272677,2855.99999971,4207.75757534,4001.6969693,4405.57575714,3622.54545418,4239.69696927,0.0,4824.90909043,2987.87878758,4451.42424198,2872.4848482,42.0,42.0,?
2017-07-31 18:30:09.574957,4534.87878743,3424.72727238,4197.96969655,1153.93939382,3935.75757536,3812.12121174,3882.18181779,304.969696939,4315.42424199,61.818181812,4734.75757528,140.121212107,4187.66666625,3354.66666633,4338.60606017,2934.30303001,4978.93939344,2855.99999971,4203.1212117,4001.6969693,4404.03030259,3622.54545418,4238.15151473,0.0,4817.1818177,2987.87878758,4442.66666622,2872.4848482,42.0,42.0,?
2017-07-31 18:30:09.582460,4528.69696924,3424.72727238,4202.60606019,1153.93939382,3937.30302991,3812.12121174,3878.06060567,304.969696939,4313.87878745,61.818181812,4731.66666619,140.121212107,4192.8181814,3354.66666633,4340.15151472,2934.30303001,4980.48484799,2855.99999971,4209.30302988,4001.6969693,4408.66666623,3622.54545418,4240.21212079,0.0,4822.33333285,2987.87878758,4440.60606016,2872.4848482,42.0,42.0,?
2017-07-31 18:30:09.589837,4536.93939349,3424.72727238,4203.1212117,1153.93939382,3939.87878748,3812.12121174,3891.45454507,304.969696939,4314.90909048,61.818181812,4730.12121165,140.121212107,4195.90909049,3354.66666633,4346.84848441,2934.30303001,4983.06060556,2855.99999971,4214.96969655,4001.6969693,4409.69696926,3622.54545418,4237.63636321,0.0,4826.96969649,2987.87878758,4444.72727228,2872.4848482,42.0,42.0,?
2017-07-31 18:30:09.598706,4546.72727227,3424.72727238,4202.60606019,1153.93939382,3942.96969658,3812.12121174,3896.0909087,304.969696939,4317.48484805,61.818181812,4734.75757528,140.121212107,4196.93939352,3354.66666633,4356.12121169,2934.30303001,4977.90909041,2855.99999971,4212.39393897,4001.6969693,4409.69696926,3622.54545418,4236.09090867,0.0,4830.06060558,2987.87878758,4452.96969652,2872.4848482,42.0,42.0,?
2017-07-31 18:30:09.605987,4546.21212076,3424.72727238,4206.72727231,1153.93939382,3949.66666627,3812.12121174,3881.66666628,304.969696939,4313.36363593,61.818181812,4738.36363589,140.121212107,4194.87878746,3354.66666633,4358.69696926,2934.30303001,4982.54545405,2855.99999971,4207.24242382,4001.6969693,4407.6363632,3622.54545418,4238.66666624,0.0,4830.06060558,2987.87878758,4455.03030258,2872.4848482,42.0,42.0,?
2017-07-31 18:30:09.614081,4549.30302985,3424.72727238,4207.24242382,1153.93939382,3955.84848445,3812.12121174,3880.63636325,304.969696939,4311.30302987,61.818181812,4733.21212074,140.121212107,4192.30302988,3354.66666633,4350.96969653,2934.30303001,4993.87878738,2855.99999971,4204.15151473,4001.6969693,4405.57575714,3622.54545418,4240.7272723,0.0,4823.36363588,2987.87878758,4451.42424198,2872.4848482,42.0,42.0,?
2017-07-31 18:30:09.620015,4551.87878742,3424.72727238,4204.15151473,1153.93939382,3959.45454506,3812.12121174,3891.96969658,304.969696939,4317.48484805,61.818181812,4726.51515104,140.121212107,4198.48484806,3354.66666633,4348.39393896,2934.30303001,4990.27272677,2855.99999971,4207.75757534,4001.6969693,4409.18181774,3622.54545418,4238.15151473,0.0,4823.8787874,2987.87878758,4458.12121168,2872.4848482,42.0,42.0,?
2017-07-31 18:30:09.628260,4542.09090864,3424.72727238,4207.24242382,1153.93939382,3962.03030263,3812.12121174,3894.54545416,304.969696939,4317.99999957,61.818181812,4718.2727268,140.121212107,4201.57575716,3354.66666633,4350.45454502,2934.30303001,4978.42424193,2855.99999971,4206.21212079,4001.6969693,4410.72727229,3622.54545418,4235.57575715,0.0,4827.484848,2987.87878758,4463.27272683,2872.4848482,42.0,42.0,?
2017-07-31 18:30:09.636766,4540.54545409,3424.72727238,4208.78787837,1153.93939382,3962.54545415,3812.12121174,3894.54545416,304.969696939,4316.96969654,61.818181812,4712.09090862,140.121212107,4196.424242,3354.66666633,4351.48484805,2934.30303001,4972.24242375,2855.99999971,4197.45454503,4001.6969693,4406.60606017,3622.54545418,4238.15151473,0.0,4820.27272679,2987.87878758,4456.06060561,2872.4848482,42.0,42.0,?
2017-07-31 18:30:09.644791,4545.69696924,3424.72727238,4201.06060564,1153.93939382,3962.03030263,3812.12121174,3896.60606022,304.969696939,4319.0303026,61.818181812,4703.84848438,140.121212107,4197.96969655,3354.66666633,4356.6363632,2934.30303001,4974.30302981,2855.99999971,4199.5151511,4001.6969693,4399.90909047,3622.54545418,4240.21212079,0.0,4814.60606012,2987.87878758,4450.39393895,2872.4848482,42.0,42.0,?
2017-07-31 18:30:09.651506,4536.93939349,3424.72727238,4198.99999958,1153.93939382,3954.81818142,3812.12121174,3887.33333294,304.969696939,4311.30302987,61.818181812,4686.33333286,140.121212107,4200.54545413,3354.66666633,4353.54545411,2934.30303001,4979.96969647,2855.99999971,4200.03030261,4001.6969693,4394.75757532,3622.54545418,4238.15151473,0.0,4817.69696922,2987.87878758,4450.39393895,2872.4848482,42.0,42.0,?
2017-07-31 18:30:09.659012,4527.1515147,3424.72727238,4202.60606019,1153.93939382,3951.21212082,3812.12121174,3878.57575719,304.969696939,4304.09090866,61.818181812,4673.45454499,140.121212107,4194.87878746,3354.66666633,4339.6363632,2934.30303001,4977.90909041,2855.99999971,4187.66666625,4001.6969693,4390.6363632,3622.54545418,4236.09090867,0.0,4813.06060558,2987.87878758,4450.39393895,2872.4848482,42.0,42.0,?
2017-07-31 18:30:09.667807,4532.81818136,3424.72727238,4203.63636322,1153.93939382,3955.84848445,3812.12121174,3887.84848446,304.969696939,4313.87878745,61.818181812,4671.90909044,140.121212107,4190.24242382,3354.66666633,4336.54545411,2934.30303001,4972.24242375,2855.99999971,4185.60606019,4001.6969693,4388.06060562,3622.54545418,4236.09090867,0.0,4806.8787874,2987.87878758,4448.33333289,2872.4848482,42.0,42.0,?
2017-07-31 18:30:09.675716,4536.93939349,3424.72727238,4202.09090867,1153.93939382,3954.30302991,3812.12121174,3891.96969658,304.969696939,4313.36363593,61.818181812,4666.24242378,140.121212107,4186.63636322,3354.66666633,4340.66666623,2934.30303001,4970.18181768,2855.99999971,4190.24242382,4001.6969693,4384.45454502,3622.54545418,4237.63636321,0.0,4809.96969649,2987.87878758,4444.21212077,2872.4848482,42.0,42.0,?
2017-07-31 18:30:09.685894,4532.81818136,3424.72727238,4200.03030261,1153.93939382,3946.57575718,3812.12121174,3881.66666628,304.969696939,4298.42424199,61.818181812,4654.90909044,140.121212107,4180.96969655,3354.66666633,4332.93939351,2934.30303001,4962.96969647,2855.99999971,4179.42424201,4001.6969693,4378.78787835,3622.54545418,4238.15151473,0.0,4809.45454497,2987.87878758,4442.66666622,2872.4848482,42.0,42.0,?
2017-07-31 18:30:09.691476,4534.87878743,3424.72727238,4203.1212117,1153.93939382,3951.21212082,3812.12121174,3884.75757537,304.969696939,4306.15151472,61.818181812,4662.12121166,140.121212107,4186.1212117,3354.66666633,4334.48484805,2934.30303001,4959.36363587,2855.99999971,4176.84848443,4001.6969693,4381.36363593,3622.54545418,4238.66666624,0.0,4811.51515103,2987.87878758,4450.90909046,2872.4848482,42.0,42.0,?
2017-07-31 18:30:09.698969,4540.54545409,3424.72727238,4208.27272685,1153.93939382,3961.51515112,3812.12121174,3894.03030264,304.969696939,4322.12121169,61.818181812,4670.87878741,140.121212107,4193.33333291,3354.66666633,4347.87878744,2934.30303001,4971.72727223,2855.99999971,4192.8181814,4001.6969693,4394.2424238,3622.54545418,4237.1212117,0.0,4824.39393891,2987.87878758,4460.18181774,2872.4848482,42.0,42.0,?
2017-07-31 18:30:09.708004,4540.54545409,3424.72727238,4207.24242382,1153.93939382,3953.78787839,3812.12121174,3882.18181779,304.969696939,4310.27272684,61.818181812,4660.06060559,140.121212107,4185.60606019,3354.66666633,4344.78787835,2934.30303001,4974.81818132,2855.99999971,4193.84848443,4001.6969693,4396.81818138,3622.54545418,4236.09090867,0.0,4827.484848,2987.87878758,4453.48484804,2872.4848482,42.0,42.0,?
2017-07-31 18:30:09.715596,4537.96969652,3424.72727238,4201.06060564,1153.93939382,3945.03030264,3812.12121174,3875.4848481,304.969696939,4300.48484805,61.818181812,4651.30302984,140.121212107,4178.90909049,3354.66666633,4338.60606017,2934.30303001,4970.18181768,2855.99999971,4186.1212117,4001.6969693,4388.06060562,3622.54545418,4239.18181776,0.0,4821.81818134,2987.87878758,4443.69696925,2872.4848482,42.0,42.0,?
2017-07-31 18:30:09.722105,4535.90909046,3424.72727238,4198.48484806,1153.93939382,3950.6969693,3812.12121174,3888.87878749,304.969696939,4313.87878745,61.818181812,4657.99999953,140.121212107,4190.24242382,3354.66666633,4347.36363593,2934.30303001,4981.51515102,2855.99999971,4191.27272685,4001.6969693,4386.51515108,3622.54545418,4241.24242382,0.0,4823.36363588,2987.87878758,4448.33333289,2872.4848482,42.0,42.0,?
2017-07-31 18:30:09.732149,4533.8484844,3424.72727238,4200.54545413,1153.93939382,3950.6969693,3812.12121174,3891.96969658,304.969696939,4321.09090866,61.818181812,4662.63636317,140.121212107,4201.57575716,3354.66666633,4354.57575714,2934.30303001,4986.66666617,2855.99999971,4203.1212117,4001.6969693,4395.78787835,3622.54545418,4239.18181776,0.0,4826.45454497,2987.87878758,4455.5454541,2872.4848482,42.0,42.0,?
2017-07-31 18:30:09.738919,4538.48484803,3424.72727238,4204.15151473,1153.93939382,3943.99999961,3812.12121174,3886.81818143,304.969696939,4315.42424199,61.818181812,4654.39393893,140.121212107,4204.66666625,3354.66666633,4356.12121169,2934.30303001,4978.93939344,2855.99999971,4211.87878746,4001.6969693,4405.57575714,3622.54545418,4240.7272723,0.0,4831.09090861,2987.87878758,4453.99999955,2872.4848482,42.0,42.0,?
2017-07-31 18:30:09.746817,4540.03030258,3424.72727238,4206.21212079,1153.93939382,3945.54545415,3812.12121174,3881.15151476,304.969696939,4306.66666624,61.818181812,4641.51515105,140.121212107,4200.54545413,3354.66666633,4345.81818138,2934.30303001,4980.48484799,2855.99999971,4204.66666625,4001.6969693,4405.57575714,3622.54545418,4241.24242382,0.0,4838.30302982,2987.87878758,4450.39393895,2872.4848482,42.0,42.0,?
2017-07-31 18:30:09.753020,4530.24242379,3424.72727238,4203.1212117,1153.93939382,3950.18181779,3812.12121174,3874.45454507,304.969696939,4303.06060563,61.818181812,4633.78787832,140.121212107,4186.63636322,3354.66666633,4330.36363593,2934.30303001,4980.9999995,2855.99999971,4194.87878746,4001.6969693,4393.72727229,3622.54545418,4237.1212117,0.0,4836.24242376,2987.87878758,4450.39393895,2872.4848482,42.0,42.0,?
2017-07-31 18:30:09.762754,4533.8484844,3424.72727238,4202.60606019,1153.93939382,3953.78787839,3812.12121174,3880.63636325,304.969696939,4314.39393896,61.818181812,4636.87878742,140.121212107,4179.93939352,3354.66666633,4337.06060563,2934.30303001,4978.93939344,2855.99999971,4205.18181776,4001.6969693,4388.06060562,3622.54545418,4235.06060564,0.0,4830.06060558,2987.87878758,4456.06060561,2872.4848482,42.0,42.0,?
2017-07-31 18:30:09.772902,4547.7575753,3424.72727238,4207.75757534,1153.93939382,3960.48484809,3812.12121174,3894.54545416,304.969696939,4325.21212078,61.818181812,4637.90909045,140.121212107,4186.1212117,3354.66666633,4356.6363632,2934.30303001,4988.21212071,2855.99999971,4213.424242,4001.6969693,4396.30302986,3622.54545418,4239.18181776,0.0,4832.12121164,2987.87878758,4461.21212077,2872.4848482,42.0,42.0,?
2017-07-31 18:30:09.781524,4544.66666621,3424.72727238,4204.15151473,1153.93939382,3961.51515112,3812.12121174,3893.51515113,304.969696939,4323.15151472,61.818181812,4630.69696923,140.121212107,4182.5151511,3354.66666633,4349.42424199,2934.30303001,4992.33333283,2855.99999971,4205.18181776,4001.6969693,4402.48484804,3622.54545418,4242.27272685,0.0,4835.21212073,2987.87878758,4461.21212077,2872.4848482,42.0,42.0,?
2017-07-31 18:30:09.786887,4532.30302985,3424.72727238,4197.96969655,1153.93939382,3951.21212082,3812.12121174,3889.393939,304.969696939,4318.51515108,61.818181812,4622.45454499,140.121212107,4172.72727231,3354.66666633,4334.99999957,2934.30303001,4986.66666617,2855.99999971,4201.06060564,4001.6969693,4396.30302986,3622.54545418,4240.21212079,0.0,4832.63636315,2987.87878758,4457.60606016,2872.4848482,42.0,42.0,?
2017-07-31 18:30:09.793131,4528.69696924,3424.72727238,4202.60606019,1153.93939382,3945.54545415,3812.12121174,3892.99999961,304.969696939,4319.0303026,61.818181812,4614.72727227,140.121212107,4183.54545413,3354.66666633,4346.84848441,2934.30303001,4982.54545405,2855.99999971,4200.54545413,4001.6969693,4384.96969653,3622.54545418,4238.15151473,0.0,4830.57575709,2987.87878758,4454.51515107,2872.4848482,42.0,42.0,?
2017-07-31 18:30:09.801280,4531.27272682,3424.72727238,4203.63636322,1153.93939382,3949.15151476,3812.12121174,3895.06060567,304.969696939,4323.15151472,61.818181812,4614.72727227,140.121212107,4206.72727231,3354.66666633,4363.3333329,2934.30303001,4981.51515102,2855.99999971,4194.36363594,4001.6969693,4380.3333329,3622.54545418,4238.15151473,0.0,4833.15151467,2987.87878758,4457.09090865,2872.4848482,42.0,42.0,?
2017-07-31 18:30:09.808903,4533.8484844,3424.72727238,4202.60606019,1153.93939382,3949.15151476,3812.12121174,3888.87878749,304.969696939,4323.66666623,61.818181812,4615.24242378,140.121212107,4210.84848443,3354.66666633,4360.24242381,2934.30303001,4980.9999995,2855.99999971,4194.87878746,4001.6969693,4384.45454502,3622.54545418,4236.60606018,0.0,4833.66666618,2987.87878758,4458.12121168,2872.4848482,42.0,42.0,?
2017-07-31 18:30:09.817196,4530.7575753,3424.72727238,4207.75757534,1153.93939382,3950.18181779,3812.12121174,3882.69696931,304.969696939,4314.90909048,61.818181812,4601.33333287,140.121212107,4201.06060564,3354.66666633,4350.96969653,2934.30303001,4986.66666617,2855.99999971,4203.1212117,4001.6969693,4386.51515108,3622.54545418,4238.15151473,0.0,4835.21212073,2987.87878758,4454.51515107,2872.4848482,42.0,42.0,?
2017-07-31 18:30:09.829934,4531.78787833,3449.45454511,4208.27272685,1153.93939382,3957.393939,3812.12121174,3887.33333294,304.969696939,4310.27272684,61.818181812,4587.42424197,140.121212107,4196.93939352,3354.66666633,4353.03030259,2934.30303001,4995.42424192,2855.99999971,4207.24242382,4001.6969693,4387.54545411,3622.54545418,4239.69696927,0.0,4838.30302982,2987.87878758,4457.09090865,2872.4848482,42.0,42.0,?
2017-07-31 18:30:09.832889,4543.63636318,3449.45454511,4209.8181814,1108.6060605,3960.9999996,3812.12121174,3895.57575719,304.969696939,4317.99999957,61.818181812,4589.48484803,140.121212107,4193.33333291,3354.66666633,4357.66666623,2934.30303001,4996.96969647,2855.99999971,4213.424242,4001.6969693,4394.75757532,3622.54545418,4238.66666624,0.0,4841.39393891,2987.87878758,4464.81818137,2872.4848482,42.0,42.0,?
2017-07-31 18:30:09.843109,4545.18181773,3449.45454511,4208.78787837,1108.6060605,3959.45454506,3812.12121174,3891.96969658,304.969696939,4326.75757532,61.818181812,4597.21212075,140.121212107,4184.06060564,3354.66666633,4356.12121169,2934.30303001,4994.39393889,2855.99999971,4219.09090867,4001.6969693,4398.87878744,3622.54545418,4238.66666624,0.0,4841.90909042,2987.87878758,4465.33333289,2835.39393911,42.0,42.0,?
2017-07-31 18:30:09.847563,4527.66666621,3449.45454511,4204.15151473,1108.6060605,3956.36363597,3840.96969659,3884.24242385,304.969696939,4324.69696926,61.818181812,4595.15151469,140.121212107,4179.93939352,3354.66666633,4353.54545411,2934.30303001,4994.39393889,2855.99999971,4210.33333291,4001.6969693,4388.06060562,3622.54545418,4239.69696927,0.0,4833.15151467,2987.87878758,4453.99999955,2835.39393911,42.0,42.0,?
2017-07-31 18:30:09.857434,4522.51515106,3449.45454511,4203.63636322,1108.6060605,3952.75757536,3840.96969659,3895.06060567,329.696969664,4322.6363632,61.818181812,4595.15151469,140.121212107,4192.8181814,3354.66666633,4356.12121169,2934.30303001,4998.51515102,2855.99999971,4205.18181776,4001.6969693,4383.42424199,3622.54545418,4240.21212079,0.0,4831.60606012,2987.87878758,4451.42424198,2835.39393911,42.0,42.0,?
2017-07-31 18:30:09.863815,4531.78787833,3449.45454511,4201.57575716,1108.6060605,3951.72727233,3840.96969659,3909.99999961,329.696969664,4331.39393896,123.636363624,4606.48484802,140.121212107,4208.78787837,3354.66666633,4363.3333329,2934.30303001,5001.60606011,2855.99999971,4217.03030261,4001.6969693,4390.12121168,3622.54545418,4239.69696927,0.0,4837.7878783,2987.87878758,4456.57575713,2835.39393911,42.0,42.0,?
2017-07-31 18:30:09.870524,4527.66666621,3449.45454511,4203.1212117,1108.6060605,3951.72727233,3840.96969659,3901.75757537,329.696969664,4329.84848442,123.636363624,4601.84848439,185.454545436,4206.21212079,3354.66666633,4361.27272684,2934.30303001,5002.12121162,2855.99999971,4215.48484806,4001.6969693,4388.06060562,3622.54545418,4239.18181776,0.0,4834.1818177,2987.87878758,4452.96969652,2835.39393911,42.0,42.0,?
2017-07-31 18:30:09.879003,4522.51515106,3449.45454511,4204.15151473,1108.6060605,3956.36363597,3840.96969659,3896.60606022,329.696969664,4320.57575714,123.636363624,4592.57575712,185.454545436,4208.27272685,3424.72727238,4358.69696926,2934.30303001,5010.36363586,2855.99999971,4211.36363594,4001.6969693,4389.09090865,3622.54545418,4240.7272723,0.0,4835.21212073,2987.87878758,4455.03030258,2835.39393911,42.0,42.0,?
2017-07-31 18:30:09.886871,4535.39393894,3449.45454511,4203.63636322,1108.6060605,3964.09090869,3840.96969659,3904.84848446,329.696969664,4327.78787836,123.636363624,4600.81818136,185.454545436,4222.69696927,3424.72727238,4371.06060562,3029.09090879,5017.06060556,2855.99999971,4228.36363594,4001.6969693,4400.42424198,3622.54545418,4240.21212079,0.0,4844.484848,2987.87878758,4467.39393895,2835.39393911,42.0,42.0,?
2017-07-31 18:30:09.894608,4550.84848439,3449.45454511,4208.78787837,1108.6060605,3966.66666627,3840.96969659,3902.27272688,329.696969664,4335.51515108,123.636363624,4597.72727227,185.454545436,4218.57575715,3424.72727238,4376.72727229,3029.09090879,5011.90909041,2905.45454516,4237.1212117,4001.6969693,4402.99999956,3622.54545418,4239.18181776,0.0,4844.99999952,2987.87878758,4472.5454541,2835.39393911,42.0,42.0,?
2017-07-31 18:30:09.903935,4545.18181773,3449.45454511,4206.21212079,1108.6060605,3965.63636324,3840.96969659,3897.63636325,329.696969664,4330.36363593,123.636363624,4583.81818136,185.454545436,4197.96969655,3424.72727238,4363.84848441,3029.09090879,5001.60606011,2905.45454516,4221.15151473,4079.99999959,4393.72727229,3622.54545418,4238.66666624,0.0,4837.27272679,2987.87878758,4464.30302986,2835.39393911,42.0,42.0,?
2017-07-31 18:30:09.910123,4525.60606015,3449.45454511,4200.03030261,1108.6060605,3962.03030263,3840.96969659,3899.69696931,329.696969664,4327.27272684,123.636363624,4597.21212075,185.454545436,4188.18181776,3424.72727238,4350.96969653,3029.09090879,4991.81818132,2905.45454516,4202.09090867,4079.99999959,4379.81818138,3709.09090872,4235.06060564,0.0,4831.09090861,2987.87878758,4454.51515107,2835.39393911,42.0,42.0,?
2017-07-31 18:30:09.918491,4519.93939349,3449.45454511,4200.03030261,1108.6060605,3954.30302991,3840.96969659,3896.60606022,329.696969664,4331.39393896,123.636363624,4630.18181772,185.454545436,4189.72727231,3424.72727238,4350.96969653,3029.09090879,4995.93939344,2905.45454516,4202.60606019,4079.99999959,4371.06060562,3709.09090872,4234.03030261,0.0,4823.36363588,2987.87878758,4451.42424198,2835.39393911,42.0,42.0,?
2017-07-31 18:30:09.925081,4520.96969652,3449.45454511,4201.57575716,1108.6060605,3948.63636324,3840.96969659,3891.45454507,329.696969664,4329.84848442,123.636363624,4648.72727226,185.454545436,4193.84848443,3424.72727238,4350.45454502,3029.09090879,5001.09090859,2905.45454516,4206.72727231,4079.99999959,4370.03030259,3709.09090872,4234.54545412,0.0,4813.57575709,2983.75757546,4444.72727228,2835.39393911,42.0,42.0,?
2017-07-31 18:30:09.933504,4523.03030258,3449.45454511,4202.60606019,1108.6060605,3952.24242385,3840.96969659,3892.99999961,329.696969664,4328.30302987,123.636363624,4665.72727226,185.454545436,4200.54545413,3424.72727238,4350.45454502,3029.09090879,4985.12121162,2905.45454516,4194.87878746,4075.87878747,4374.15151471,3709.09090872,4237.1212117,0.0,4819.24242376,2983.75757546,4447.81818137,2835.39393911,42.0,42.0,?
2017-07-31 18:30:09.945293,4535.39393894,3449.45454511,4202.60606019,1108.6060605,3959.96969657,3840.96969659,3897.63636325,329.696969664,4331.90909048,123.636363624,4688.39393893,185.454545436,4204.15151473,3424.72727238,4359.72727229,3029.09090879,4972.75757526,2905.45454516,4189.21212079,4075.87878747,4385.99999956,3713.21212084,4239.69696927,0.0,4834.1818177,2983.75757546,4460.18181774,2835.39393911,42.0,42.0,?
2017-07-31 18:30:09.949652,4540.03030258,3449.45454511,4201.06060564,1108.6060605,3952.24242385,3840.96969659,3892.4848481,329.696969664,4327.78787836,123.636363624,4699.21212074,185.454545436,4198.48484806,3424.72727238,4356.6363632,3029.09090879,4980.9999995,2905.45454516,4195.90909049,4075.87878747,4390.12121168,3713.21212084,4235.57575715,8.2424242416,4832.63636315,2983.75757546,4452.45454501,2835.39393911,42.0,42.0,?
2017-07-31 18:30:09.968240,4531.78787833,3449.45454511,4198.99999958,1108.6060605,3946.57575718,3840.96969659,3889.90909052,329.696969664,4327.78787836,123.636363624,4706.93939347,185.454545436,4197.45454503,3424.72727238,4348.90909047,3029.09090879,4986.66666617,2905.45454516,4196.424242,4075.87878747,4388.57575714,3713.21212084,4238.66666624,8.2424242416,4825.42424194,2983.75757546,4443.69696925,2835.39393911,42.0,42.0,?
2017-07-31 18:30:09.968663,4531.78787833,3449.45454511,4201.06060564,1108.6060605,3959.45454506,3840.96969659,3899.69696931,329.696969664,4327.78787836,123.636363624,4724.45454498,185.454545436,4206.21212079,3424.72727238,4359.72727229,3029.09090879,4988.21212071,2905.45454516,4199.5151511,4075.87878747,4398.36363592,3713.21212084,4238.66666624,8.2424242416,4826.96969649,2983.75757546,4448.33333289,2835.39393911,42.0,42.0,?
2017-07-31 18:30:09.973963,4538.99999955,3449.45454511,4203.63636322,1108.6060605,3959.45454506,3840.96969659,3892.99999961,329.696969664,4326.75757532,123.636363624,4738.8787874,185.454545436,4203.63636322,3424.72727238,4362.81818138,3029.09090879,4990.78787829,2905.45454516,4206.21212079,4075.87878747,4408.66666623,3713.21212084,4237.63636321,8.2424242416,4826.96969649,2983.75757546,4439.06060562,2835.39393911,42.0,42.0,?
2017-07-31 18:30:09.983103,4528.18181773,3449.45454511,4198.48484806,1108.6060605,3942.45454506,3840.96969659,3879.60606022,329.696969664,4317.48484805,123.636363624,4743.51515104,185.454545436,4191.78787837,3424.72727238,4349.42424199,3029.09090879,4983.06060556,2905.45454516,4201.06060564,4075.87878747,4409.18181774,3713.21212084,4233.51515109,8.2424242416,4824.90909043,2983.75757546,4423.60606016,2835.39393911,42.0,42.0,?
2017-07-31 18:30:09.988465,4523.54545409,3449.45454511,4197.96969655,1108.6060605,3942.96969658,3840.96969659,3883.21212082,329.696969664,4318.51515108,123.636363624,4750.72727225,185.454545436,4194.36363594,3424.72727238,4349.42424199,3029.09090879,4978.93939344,2905.45454516,4200.03030261,4075.87878747,4411.75757532,3713.21212084,4236.09090867,8.2424242416,4830.06060558,2983.75757546,4423.09090865,2835.39393911,42.0,42.0,?
2017-07-31 18:30:09.996759,4537.454545,3449.45454511,4206.21212079,1108.6060605,3951.72727233,3840.96969659,3880.12121173,329.696969664,4323.66666623,123.636363624,4763.09090861,185.454545436,4205.18181776,3424.72727238,4359.21212078,3029.09090879,4989.24242374,2905.45454516,4212.90909049,4075.87878747,4422.57575713,3713.21212084,4238.66666624,8.2424242416,4835.72727224,2983.75757546,4424.63636319,2835.39393911,42.0,42.0,?
2017-07-31 18:30:10.004265,4533.8484844,3449.45454511,4200.54545413,1108.6060605,3940.393939,3840.96969659,3864.15151477,329.696969664,4317.48484805,123.636363624,4769.2727268,185.454545436,4201.57575716,3424.72727238,4355.60606017,3029.09090879,4986.15151465,2905.45454516,4209.30302988,4075.87878747,4416.39393895,3713.21212084,4237.63636321,8.2424242416,4830.06060558,2983.75757546,4410.21212077,2835.39393911,42.0,42.0,?
2017-07-31 18:30:10.014995,4511.18181773,3449.45454511,4188.18181776,1108.6060605,3923.393939,3840.96969659,3865.69696931,329.696969664,4305.12121169,123.636363624,4759.99999952,185.454545436,4183.03030261,3424.72727238,4339.12121169,3029.09090879,4967.09090859,2905.45454516,4190.75757534,4075.87878747,4397.33333289,3713.21212084,4238.15151473,8.2424242416,4816.15151467,2983.75757546,4397.84848441,2835.39393911,42.0,42.0,?
2017-07-31 18:30:10.020082,4516.33333288,3449.45454511,4192.30302988,1108.6060605,3928.03030264,3840.96969659,3879.0909087,329.696969664,4302.0303026,123.636363624,4755.36363589,185.454545436,4176.33333292,3424.72727238,4333.96969654,3029.09090879,4968.63636314,2905.45454516,4193.84848443,4075.87878747,4400.42424198,3713.21212084,4237.63636321,8.2424242416,4817.1818177,2983.75757546,4407.6363632,2835.39393911,42.0,42.0,?
2017-07-31 18:30:10.034103,4533.33333288,3449.45454511,4200.03030261,1108.6060605,3939.87878748,3840.96969659,3879.0909087,329.696969664,4306.15151472,123.636363624,4765.15151467,185.454545436,4181.99999958,3424.72727238,4338.09090866,3029.09090879,4982.03030253,2905.45454516,4201.57575716,4075.87878747,4410.21212077,3713.21212084,4236.09090867,8.2424242416,4826.96969649,2983.75757546,4418.96969653,2835.39393911,42.0,42.0,?
2017-07-31 18:30:10.040205,4523.54545409,3449.45454511,4197.96969655,1108.6060605,3933.6969693,3840.96969659,3867.24242386,329.696969664,4302.54545412,123.636363624,4772.8787874,185.454545436,4177.36363595,3424.72727238,4334.99999957,3029.09090879,4968.63636314,2905.45454516,4192.30302988,4075.87878747,4400.9393935,3713.21212084,4238.15151473,8.2424242416,4826.45454497,2983.75757546,4411.2424238,2835.39393911,42.0,42.0,?
2017-07-31 18:30:10.043300,4515.81818137,3449.45454511,4194.87878746,1108.6060605,3927.51515112,3840.96969659,3863.12121173,329.696969664,4300.48484805,123.636363624,4780.60606013,185.454545436,4176.84848443,3424.72727238,4334.48484805,3029.09090879,4962.45454496,2905.45454516,4194.36363594,4075.87878747,4398.87878744,3713.21212084,4240.7272723,8.2424242416,4824.39393891,2983.75757546,4405.57575714,2835.39393911,42.0,42.0,?
2017-07-31 18:30:10.051839,4527.1515147,3449.45454511,4198.48484806,1108.6060605,3937.81818142,3840.96969659,3873.93939355,329.696969664,4311.30302987,123.636363624,4794.51515104,185.454545436,4189.21212079,3424.72727238,4346.84848441,3029.09090879,4985.12121162,2905.45454516,4208.78787837,4075.87878747,4412.27272683,3713.21212084,4239.69696927,8.2424242416,4828.51515103,2983.75757546,4415.87878744,2835.39393911,42.0,42.0,?
2017-07-31 18:30:10.059983,4537.454545,3449.45454511,4194.36363594,1108.6060605,3945.03030264,3840.96969659,3886.30302991,329.696969664,4320.57575714,123.636363624,4806.36363588,185.454545436,4200.03030261,3424.72727238,4360.24242381,3029.09090879,4996.45454495,2905.45454516,4211.87878746,4075.87878747,4417.9393935,3713.21212084,4238.66666624,8.2424242416,4836.75757527,2983.75757546,4425.66666622,2835.39393911,42.0,42.0,?
2017-07-31 18:30:10.067403,4544.1515147,3449.45454511,4194.87878746,1108.6060605,3942.45454506,3840.96969659,3884.75757537,329.696969664,4321.60606017,123.636363624,4813.57575709,185.454545436,4207.75757534,3424.72727238,4365.39393896,3029.09090879,5003.15151465,2905.45454516,4217.54545412,4075.87878747,4415.87878744,3713.21212084,4238.66666624,8.2424242416,4840.36363588,2983.75757546,4425.15151471,2835.39393911,42.0,42.0,?
2017-07-31 18:30:10.076100,4543.12121167,3449.45454511,4202.60606019,1108.6060605,3946.57575718,3840.96969659,3877.54545416,329.696969664,4320.57575714,123.636363624,4809.45454497,185.454545436,4209.8181814,3424.72727238,4359.72727229,3029.09090879,5015.51515101,2905.45454516,4226.30302988,4075.87878747,4416.39393895,3713.21212084,4237.1212117,8.2424242416,4835.72727224,2983.75757546,4420.51515107,2835.39393911,42.0,42.0,?
2017-07-31 18:30:10.082469,4535.39393894,3449.45454511,4194.36363594,1108.6060605,3947.60606021,3840.96969659,3881.15151476,329.696969664,4320.57575714,123.636363624,4801.72727225,185.454545436,4205.18181776,3424.72727238,4356.6363632,3029.09090879,5006.75757526,2905.45454516,4220.1212117,4075.87878747,4418.45454501,3713.21212084,4235.06060564,8.2424242416,4838.30302982,2983.75757546,4417.9393935,2835.39393911,42.0,42.0,?
2017-07-31 18:30:10.092203,4530.24242379,3449.45454511,4188.18181776,1108.6060605,3934.21212082,3840.96969659,3885.27272688,329.696969664,4321.09090866,123.636363624,4803.27272679,185.454545436,4203.63636322,3424.72727238,4364.87878744,3029.09090879,4993.36363586,2905.45454516,4210.84848443,4075.87878747,4412.27272683,3713.21212084,4236.60606018,8.2424242416,4837.7878783,2983.75757546,4415.36363592,2835.39393911,42.0,42.0,?
2017-07-31 18:30:10.100383,4527.1515147,3449.45454511,4197.96969655,1108.6060605,3932.66666627,3840.96969659,3883.21212082,329.696969664,4319.0303026,123.636363624,4802.75757528,185.454545436,4204.66666625,3424.72727238,4369.51515108,3029.09090879,5002.12121162,2905.45454516,4214.96969655,4075.87878747,4407.6363632,3713.21212084,4240.21212079,8.2424242416,4827.99999952,2983.75757546,4412.27272683,2835.39393911,42.0,42.0,?
2017-07-31 18:30:10.105757,4531.27272682,3449.45454511,4202.60606019,1108.6060605,3947.0909087,3840.96969659,3881.15151476,329.696969664,4317.99999957,123.636363624,4800.1818177,185.454545436,4202.09090867,3424.72727238,4362.81818138,3029.09090879,5007.27272677,2905.45454516,4225.78787837,4075.87878747,4415.36363592,3713.21212084,4239.18181776,8.2424242416,4830.57575709,2983.75757546,4416.90909047,2835.39393911,42.0,42.0,?
2017-07-31 18:30:10.114384,4540.54545409,3449.45454511,4202.09090867,1108.6060605,3948.12121173,3840.96969659,3880.63636325,329.696969664,4320.06060563,123.636363624,4804.81818134,185.454545436,4202.09090867,3424.72727238,4359.72727229,3029.09090879,4995.93939344,2905.45454516,4228.87878746,4075.87878747,4422.57575713,3713.21212084,4237.63636321,8.2424242416,4843.96969649,2983.75757546,4422.06060562,2835.39393911,42.0,42.0,?
2017-07-31 18:30:10.125383,4538.48484803,3449.45454511,4197.96969655,1108.6060605,3936.27272688,3840.96969659,3884.24242385,329.696969664,4323.66666623,123.636363624,4808.42424194,185.454545436,4205.18181776,3424.72727238,4362.81818138,3029.09090879,4997.48484799,2905.45454516,4221.66666624,4075.87878747,4419.48484804,3713.21212084,4241.24242382,8.2424242416,4848.60606012,2983.75757546,4417.9393935,2835.39393911,42.0,42.0,?
2017-07-31 18:30:10.130331,4533.33333288,3449.45454511,4194.36363594,1108.6060605,3932.15151476,3840.96969659,3884.24242385,329.696969664,4319.0303026,123.636363624,4802.24242376,185.454545436,4199.5151511,3424.72727238,4355.60606017,3029.09090879,4995.93939344,2905.45454516,4212.39393897,4075.87878747,4411.75757532,3713.21212084,4240.7272723,8.2424242416,4844.484848,2983.75757546,4410.72727229,2835.39393911,42.0,42.0,?
2017-07-31 18:30:10.136757,4540.54545409,3449.45454511,4201.57575716,1108.6060605,3934.72727233,3840.96969659,3878.06060567,329.696969664,4311.81818139,123.636363624,4800.1818177,185.454545436,4193.84848443,3424.72727238,4342.72727229,3029.09090879,4985.63636314,2905.45454516,4209.30302988,4075.87878747,4407.6363632,3713.21212084,4238.15151473,8.2424242416,4840.36363588,2983.75757546,4408.66666623,2835.39393911,42.0,42.0,?
2017-07-31 18:30:10.144050,4540.03030258,3449.45454511,4205.69696928,1108.6060605,3934.72727233,3840.96969659,3873.93939355,329.696969664,4308.21212078,123.636363624,4798.63636316,185.454545436,4194.36363594,3424.72727238,4341.69696926,3029.09090879,4988.21212071,2905.45454516,4210.33333291,4075.87878747,4400.42424198,3713.21212084,4238.66666624,8.2424242416,4832.12121164,2983.75757546,4406.09090865,2835.39393911,42.0,42.0,?
2017-07-31 18:30:10.152342,4531.78787833,3449.45454511,4201.06060564,1108.6060605,3938.33333294,3840.96969659,3877.54545416,329.696969664,4309.75757533,123.636363624,4789.36363588,185.454545436,4192.8181814,3424.72727238,4348.90909047,3029.09090879,4992.33333283,2905.45454516,4209.30302988,4075.87878747,4395.27272683,3713.21212084,4239.69696927,8.2424242416,4827.484848,2983.75757546,4410.21212077,2835.39393911,42.0,42.0,?
2017-07-31 18:30:10.161034,4543.12121167,3449.45454511,4203.1212117,1108.6060605,3948.12121173,3840.96969659,3884.75757537,329.696969664,4319.54545411,123.636363624,4789.8787874,185.454545436,4191.27272685,3424.72727238,4355.09090866,3029.09090879,4996.96969647,2905.45454516,4214.96969655,4075.87878747,4402.48484804,3713.21212084,4239.18181776,8.2424242416,4834.69696921,2983.75757546,4426.18181774,2835.39393911,42.0,42.0,?
2017-07-31 18:30:10.168967,4552.39393894,3449.45454511,4204.66666625,1108.6060605,3948.12121173,3840.96969659,3885.7878784,329.696969664,4320.57575714,123.636363624,4795.03030255,185.454545436,4186.63636322,3424.72727238,4350.45454502,3029.09090879,4997.48484799,2905.45454516,4212.39393897,4075.87878747,4404.03030259,3713.21212084,4238.66666624,8.2424242416,4840.87878739,2983.75757546,4424.63636319,2835.39393911,42.0,42.0,?
2017-07-31 18:30:10.175224,4540.54545409,3449.45454511,4201.06060564,1108.6060605,3938.84848445,3840.96969659,3879.0909087,329.696969664,4309.24242381,123.636363624,4789.36363588,185.454545436,4176.33333292,3424.72727238,4337.06060563,3029.09090879,4982.54545405,2905.45454516,4201.06060564,4075.87878747,4390.6363632,3713.21212084,4238.66666624,8.2424242416,4833.15151467,2983.75757546,4411.2424238,2835.39393911,42.0,42.0,?
2017-07-31 18:30:10.184922,4532.30302985,3449.45454511,4200.03030261,1108.6060605,3934.72727233,3840.96969659,3877.54545416,329.696969664,4305.12121169,123.636363624,4780.09090861,185.454545436,4173.75757534,3424.72727238,4333.96969654,3029.09090879,4970.6969692,2905.45454516,4194.36363594,4075.87878747,4383.42424199,3713.21212084,4238.15151473,8.2424242416,4820.27272679,2983.75757546,4411.75757532,2835.39393911,42.0,42.0,?
2017-07-31 18:30:10.194964,4540.54545409,3449.45454511,4200.03030261,1108.6060605,3928.03030264,3840.96969659,3883.21212082,329.696969664,4308.21212078,123.636363624,4779.5757571,185.454545436,4178.90909049,3424.72727238,4336.54545411,3029.09090879,4968.63636314,2905.45454516,4185.09090867,4075.87878747,4387.03030259,3713.21212084,4237.63636321,8.2424242416,4824.39393891,2983.75757546,4415.87878744,2835.39393911,42.0,42.0,?
2017-07-31 18:30:10.200783,4544.1515147,3449.45454511,4200.03030261,1108.6060605,3929.06060567,3840.96969659,3883.21212082,329.696969664,4309.75757533,123.636363624,4788.84848437,185.454545436,4181.99999958,3424.72727238,4335.51515108,3029.09090879,4972.24242375,2905.45454516,4194.36363594,4075.87878747,4386.51515108,3713.21212084,4239.18181776,8.2424242416,4832.63636315,2983.75757546,4413.30302986,2835.39393911,42.0,42.0,?
2017-07-31 18:30:10.207926,4538.99999955,3449.45454511,4204.15151473,1108.6060605,3942.96969658,3840.96969659,3878.57575719,329.696969664,4313.36363593,123.636363624,4794.51515104,185.454545436,4186.1212117,3424.72727238,4339.12121169,3029.09090879,4978.42424193,2905.45454516,4214.45454503,4075.87878747,4385.99999956,3713.21212084,4239.18181776,8.2424242416,4825.42424194,2983.75757546,4413.81818138,2835.39393911,42.0,42.0,?
2017-07-31 18:30:10.215156,4538.48484803,3449.45454511,4205.69696928,1108.6060605,3943.48484809,3840.96969659,3880.63636325,329.696969664,4316.96969654,123.636363624,4796.06060558,185.454545436,4197.96969655,3424.72727238,4346.84848441,3029.09090879,4978.93939344,2905.45454516,4208.78787837,4075.87878747,4393.72727229,3713.21212084,4238.15151473,8.2424242416,4824.39393891,2983.75757546,4421.03030259,2835.39393911,42.0,42.0,?
2017-07-31 18:30:10.222430,4538.99999955,3449.45454511,4203.1212117,1108.6060605,3932.66666627,3840.96969659,3883.72727234,329.696969664,4313.87878745,123.636363624,4798.12121164,185.454545436,4201.57575716,3424.72727238,4345.81818138,3029.09090879,4979.96969647,2905.45454516,4197.96969655,4075.87878747,4394.2424238,3713.21212084,4236.60606018,8.2424242416,4829.03030255,2983.75757546,4418.96969653,2835.39393911,42.0,42.0,?
2017-07-31 18:30:10.230846,4538.99999955,3449.45454511,4202.60606019,1108.6060605,3938.84848445,3840.96969659,3883.21212082,329.696969664,4312.3333329,123.636363624,4797.09090861,185.454545436,4196.93939352,3424.72727238,4342.72727229,3029.09090879,4990.78787829,2905.45454516,4211.36363594,4075.87878747,4391.66666623,3713.21212084,4236.60606018,8.2424242416,4825.42424194,2983.75757546,4414.33333289,2835.39393911,42.0,42.0,?
2017-07-31 18:30:10.238714,4546.72727227,3449.45454511,4202.09090867,1108.6060605,3949.15151476,3840.96969659,3884.75757537,329.696969664,4315.93939351,123.636363624,4801.21212073,185.454545436,4201.06060564,3424.72727238,4351.48484805,3029.09090879,4994.39393889,2905.45454516,4219.09090867,4075.87878747,4396.81818138,3713.21212084,4241.24242382,8.2424242416,4825.93939346,2983.75757546,4421.03030259,2835.39393911,42.0,42.0,?
2017-07-31 18:30:10.246368,4541.57575712,3449.45454511,4200.54545413,1108.6060605,3935.24242385,3840.96969659,3881.66666628,329.696969664,4315.42424199,123.636363624,4810.99999952,185.454545436,4196.93939352,3424.72727238,4348.39393896,3029.09090879,4983.57575708,2905.45454516,4204.15151473,4075.87878747,4388.06060562,3713.21212084,4240.7272723,8.2424242416,4823.36363588,2983.75757546,4415.87878744,2835.39393911,42.0,42.0,?
2017-07-31 18:30:10.254063,4524.57575712,3449.45454511,4200.54545413,1108.6060605,3919.7878784,3840.96969659,3878.57575719,329.696969664,4311.81818139,123.636363624,4800.1818177,185.454545436,4179.42424201,3424.72727238,4333.45454502,3029.09090879,4980.9999995,2905.45454516,4193.84848443,4075.87878747,4374.66666623,3713.21212084,4236.09090867,8.2424242416,4816.15151467,2983.75757546,4402.48484804,2835.39393911,42.0,42.0,?
2017-07-31 18:30:10.261521,4529.21212076,3449.45454511,4202.60606019,1108.6060605,3928.03030264,3840.96969659,3883.72727234,329.696969664,4315.42424199,123.636363624,4766.18181771,185.454545436,4176.84848443,3424.72727238,4337.57575714,3029.09090879,4991.3030298,2905.45454516,4198.99999958,4075.87878747,4383.9393935,3713.21212084,4237.63636321,8.2424242416,4822.84848437,2983.75757546,4411.2424238,2835.39393911,42.0,42.0,?
2017-07-31 18:30:10.271041,4543.12121167,3449.45454511,4206.72727231,1108.6060605,3939.36363597,3840.96969659,3883.21212082,329.696969664,4315.42424199,123.636363624,4734.75757528,185.454545436,4187.15151473,3424.72727238,4347.87878744,3029.09090879,4991.81818132,2905.45454516,4199.5151511,4075.87878747,4388.06060562,3713.21212084,4239.69696927,8.2424242416,4820.78787831,2983.75757546,4419.99999956,2835.39393911,42.0,42.0,?
2017-07-31 18:30:10.277136,4535.39393894,3449.45454511,4202.60606019,1108.6060605,3934.72727233,3840.96969659,3874.45454507,329.696969664,4306.66666624,123.636363624,4711.06060559,185.454545436,4185.09090867,3424.72727238,4336.0303026,3029.09090879,4976.36363587,2905.45454516,4187.15151473,4075.87878747,4371.06060562,3713.21212084,4236.60606018,8.2424242416,4804.81818134,2983.75757546,4410.72727229,2835.39393911,42.0,42.0,?
2017-07-31 18:30:10.285109,4521.99999955,3449.45454511,4193.84848443,1108.6060605,3928.54545415,3840.96969659,3877.54545416,329.696969664,4306.15151472,123.636363624,4689.93939347,185.454545436,4182.5151511,3424.72727238,4324.69696926,3029.09090879,4968.63636314,2905.45454516,4184.06060564,4075.87878747,4369.51515108,3713.21212084,4236.09090867,8.2424242416,4806.36363588,2983.75757546,4405.06060562,2835.39393911,42.0,42.0,?
2017-07-31 18:30:10.294937,4528.69696924,3449.45454511,4198.99999958,1108.6060605,3936.78787839,3840.96969659,3885.7878784,329.696969664,4313.36363593,123.636363624,4681.69696923,185.454545436,4200.54545413,3424.72727238,4338.09090866,3029.09090879,4984.09090859,2905.45454516,4202.09090867,4075.87878747,4382.90909047,3713.21212084,4239.18181776,8.2424242416,4817.1818177,2983.75757546,4411.75757532,2835.39393911,42.0,42.0,?
2017-07-31 18:30:10.301309,4538.48484803,3449.45454511,4206.72727231,1108.6060605,3942.96969658,3840.96969659,3880.63636325,329.696969664,4314.39393896,123.636363624,4677.57575711,185.454545436,4210.84848443,3424.72727238,4347.87878744,3029.09090879,4994.39393889,2905.45454516,4211.36363594,4075.87878747,4382.39393896,3713.21212084,4239.18181776,8.2424242416,4814.60606012,2983.75757546,4415.87878744,2835.39393911,42.0,42.0,?
2017-07-31 18:30:10.309497,4532.30302985,3449.45454511,4201.57575716,1108.6060605,3937.30302991,3840.96969659,3879.60606022,329.696969664,4313.36363593,123.636363624,4665.72727226,185.454545436,4196.93939352,3424.72727238,4338.09090866,3029.09090879,4982.03030253,2905.45454516,4196.93939352,4075.87878747,4377.2424238,3713.21212084,4237.1212117,8.2424242416,4812.03030255,2983.75757546,4412.27272683,2835.39393911,42.0,42.0,?
2017-07-31 18:30:10.316899,4529.72727227,3449.45454511,4196.424242,1108.6060605,3930.60606021,3840.96969659,3888.87878749,329.696969664,4315.42424199,123.636363624,4657.48484802,185.454545436,4185.60606019,3424.72727238,4333.96969654,3029.09090879,4976.87878738,2905.45454516,4187.15151473,4075.87878747,4384.45454502,3713.21212084,4236.60606018,8.2424242416,4823.36363588,2983.75757546,4412.27272683,2835.39393911,42.0,42.0,?
2017-07-31 18:30:10.325923,4536.93939349,3449.45454511,4202.09090867,1108.6060605,3932.66666627,3840.96969659,3888.36363597,329.696969664,4315.93939351,123.636363624,4662.12121166,185.454545436,4189.72727231,3424.72727238,4342.21212078,3029.09090879,4987.18181768,2905.45454516,4195.39393897,4075.87878747,4385.48484805,3713.21212084,4238.15151473,8.2424242416,4824.39393891,2983.75757546,4413.81818138,2835.39393911,42.0,42.0,?
