Timestamp,F3 Value,F3 Quality,FC5 Value,FC5 Quality,F7 Value,F7 Quality,T7 Value,T7 Quality,P7 Value,P7 Quality,O1 Value,O1 Quality,O2 Value,O2 Quality,P8 Value,P8 Quality,T8 Value,T8 Quality,F8 Value,F8 Quality,AF4 Value,AF4 Quality,FC6 Value,FC6 Quality,F4 Value,F4 Quality,AF3 Value,AF3 Quality,X Value,Y Value,Z Value
2017-07-31 19:12:50.415702,4535.39393894,0,4223.21212079,0,3794.60606023,0,3796.15151477,0,4310.27272684,0,4540.03030258,0,4176.33333292,0,4426.18181774,0,4937.72727223,0,4158.30302989,0,4406.60606017,0,4166.03030261,0,4826.45454497,0,4432.36363592,0,42.0,42.0,?
2017-07-31 19:12:50.416654,4535.39393894,0,4223.21212079,0,3794.60606023,0,3796.15151477,0,4310.27272684,0,4263.39393897,0,4256.69696927,0,4426.18181774,0,4937.72727223,3132.12121181,4158.30302989,0,4406.60606017,0,4166.03030261,0,4867.66666618,0,4593.60606015,0,42.0,42.0,?
2017-07-31 19:12:50.422902,4534.36363591,0,4220.1212117,0,3801.81818144,0,3793.06060568,0,4300.99999957,0,4256.69696927,0,4256.18181776,0,4421.03030259,0,4922.7878783,3132.12121181,4155.72727231,210.181818161,4405.57575714,0,4167.57575716,0,4868.69696921,0,4583.30302984,0,42.0,42.0,?
2017-07-31 19:12:50.425959,4538.48484803,0,4222.18181776,0,3815.21212083,0,3779.66666629,0,4308.7272723,0,4271.12121169,0,4262.87878745,0,4428.75757531,0,4935.66666617,3132.12121181,4176.84848443,210.181818161,4414.84848441,3803.8787875,4169.63636322,0,4876.42424194,0,4590.51515106,0,42.0,42.0,?
2017-07-31 19:12:50.428948,4542.60606015,0,4229.90909049,0,3813.15151477,0,3749.2727269,0,4289.66666624,0,4254.1212117,0,4259.27272685,0,4418.96969653,0,4938.24242375,3132.12121181,4176.84848443,210.181818161,4416.39393895,3803.8787875,4166.03030261,2827.15151487,4877.96969648,0,4588.96969651,0,42.0,42.0,?
2017-07-31 19:12:50.431840,4529.72727227,0,4218.06060564,0,3807.4848481,0,3754.42424205,0,4277.30302988,0,4242.27272685,0,4252.57575715,0,4404.03030259,0,4934.12121163,3132.12121181,4155.2121208,210.181818161,4406.09090865,3803.8787875,4163.45454504,2827.15151487,4867.66666618,3226.90909059,4579.18181772,0,42.0,42.0,?
2017-07-31 19:12:50.436734,4538.48484803,0,4222.18181776,0,3812.12121174,0,3795.12121174,0,4302.54545412,0,4266.48484806,0,4256.69696927,0,4408.66666623,0,4938.75757526,3132.12121181,4153.66666625,206.06060604,4408.66666623,3803.8787875,4168.09090867,2827.15151487,4868.69696921,3226.90909059,4582.27272681,0,42.0,42.0,?
2017-07-31 19:12:50.438870,4554.96969651,0,4226.8181814,0,3828.09090871,0,3811.60606022,0,4317.99999957,0,4279.36363594,0,4282.45454503,0,4437.51515107,0,4964.51515102,3132.12121181,4188.69696928,206.06060604,4432.36363592,3803.8787875,4173.24242383,2827.15151487,4884.66666618,3226.90909059,4592.0606056,0,42.0,42.0,?
2017-07-31 19:12:50.447981,4555.99999954,0,4226.8181814,0,3829.12121174,0,3803.8787875,0,4313.87878745,0,4275.24242381,0,4295.84848442,0,4448.8484844,0,4980.48484799,3132.12121181,4197.96969655,206.06060604,4438.03030259,3803.8787875,4169.63636322,2831.27272699,4890.33333284,3226.90909059,4589.99999954,0,42.0,42.0,?
2017-07-31 19:12:50.455370,4554.96969651,0,4229.39393897,0,3822.93939356,0,3805.93939356,0,4321.09090866,0,4274.7272723,0,4274.21212078,0,4430.81818138,0,4963.48484799,3132.12121181,4172.21212079,206.06060604,4423.60606016,3803.8787875,4164.99999958,2831.27272699,4883.63636315,3226.90909059,4584.84848439,0,42.0,42.0,?
2017-07-31 19:12:50.458637,4545.18181773,0,4220.63636321,0,3831.1818178,0,3785.33333295,0,4323.66666623,0,4269.06060563,0,4253.60606018,0,4419.99999956,0,4945.45454496,3132.12121181,4169.63636322,206.06060604,4418.45454501,3803.8787875,4167.06060564,2831.27272699,4876.42424194,3226.90909059,4582.27272681,0,42.0,42.0,?
2017-07-31 19:12:50.465984,4547.24242379,0,4226.30302988,0,3828.60606022,0,3763.69696932,0,4313.87878745,0,4276.27272685,0,4262.87878745,0,4415.87878744,0,4934.12121163,3132.12121181,4179.93939352,206.06060604,4423.09090865,3803.8787875,4170.15151473,2831.27272699,4878.99999951,3226.90909059,4575.57575712,0,42.0,42.0,?
2017-07-31 19:12:50.471742,4554.454545,0,4225.27272685,0,3820.8787875,0,3806.96969659,0,4321.09090866,0,4298.93939351,0,4288.63636321,0,4418.45454501,0,4935.15151466,3132.12121181,4179.93939352,206.06060604,4428.2424238,3803.8787875,4170.15151473,2831.27272699,4886.72727224,3226.90909059,4578.15151469,0,42.0,42.0,?
2017-07-31 19:12:50.475957,4556.51515106,0,4222.18181776,0,3827.06060568,0,3837.87878749,0,4322.12121169,0,4299.96969654,0,4291.7272723,0,4431.84848441,0,4953.18181769,3132.12121181,4176.33333292,206.06060604,4427.21212077,3803.8787875,4167.06060564,2831.27272699,4886.72727224,3226.90909059,4581.7575753,0,42.0,42.0,?
2017-07-31 19:12:50.481475,4565.27272682,0,4234.54545412,0,3838.90909053,0,3805.42424204,0,4313.36363593,0,4281.424242,0,4281.424242,0,4462.75757531,0,4974.30302981,3132.12121181,4179.93939352,206.06060604,4428.2424238,3803.8787875,4166.54545413,2831.27272699,4886.72727224,3226.90909059,4575.57575712,0,42.0,42.0,?
2017-07-31 19:12:50.486893,4564.7575753,0,4226.30302988,0,3846.12121174,0,3786.36363599,0,4324.69696926,0,4279.87878745,0,4286.57575715,0,4502.42424197,0,4982.03030253,3132.12121181,4189.21212079,206.06060604,4431.33333289,3803.8787875,4167.57575716,2831.27272699,4888.27272678,3226.90909059,4575.57575712,0,42.0,42.0,?
2017-07-31 19:12:50.491027,4565.78787833,0,4226.8181814,0,3837.36363598,0,3804.90909053,0,4329.3333329,0,4288.12121169,0,4278.84848442,0,4506.03030258,0,4965.54545405,3132.12121181,4178.90909049,206.06060604,4431.33333289,3803.8787875,4167.57575716,2831.27272699,4887.75757527,3226.90909059,4571.96969651,0,42.0,42.0,?
2017-07-31 19:12:50.494534,4566.30302985,0,4228.36363594,0,3834.27272689,0,3813.15151477,0,4313.87878745,0,4288.12121169,0,4269.06060563,0,4498.30302985,0,4957.30302981,3132.12121181,4184.06060564,206.06060604,4438.03030259,3803.8787875,4170.15151473,2831.27272699,4891.36363587,3226.90909059,4565.27272682,0,42.0,42.0,?
2017-07-31 19:12:50.499146,4564.7575753,0,4222.69696927,0,3840.96969659,0,3802.84848447,0,4306.66666624,0,4282.96969654,0,4276.78787836,0,4512.72727228,0,4970.6969692,3132.12121181,4204.66666625,206.06060604,4446.78787834,3803.8787875,4170.15151473,2831.27272699,4898.57575709,3226.90909059,4564.24242379,0,42.0,42.0,?
2017-07-31 19:12:50.502344,4573.51515106,0,4232.48484806,0,3843.54545416,0,3798.72727235,0,4317.48484805,0,4287.09090866,0,4283.48484806,0,4515.81818137,0,4971.72727223,3132.12121181,4194.87878746,206.06060604,4447.81818137,3803.8787875,4170.15151473,2831.27272699,4903.21212072,3226.90909059,4567.33333288,0,42.0,42.0,?
2017-07-31 19:12:50.505310,4567.33333288,0,4226.8181814,0,3848.1818178,0,3811.60606022,0,4324.69696926,0,4300.99999957,0,4291.7272723,0,4512.72727228,0,4965.54545405,3132.12121181,4188.18181776,206.06060604,4446.78787834,3803.8787875,4173.24242383,2831.27272699,4899.60606012,3226.90909059,4567.84848439,0,42.0,42.0,?
2017-07-31 19:12:50.512255,4563.21212076,0,4227.33333291,0,3850.75757537,0,3817.27272689,0,4312.84848442,0,4297.39393896,0,4288.63636321,0,4515.81818137,0,4955.24242375,3132.12121181,4196.93939352,206.06060604,4445.75757531,3803.8787875,4171.69696928,2831.27272699,4895.99999951,3226.90909059,4560.12121167,0,42.0,42.0,?
2017-07-31 19:12:50.521984,4569.39393894,0,4231.96969655,0,3855.39393901,0,3813.66666629,0,4321.09090866,0,4296.36363593,0,4274.7272723,0,4517.36363591,0,4947.51515102,3132.12121181,4198.99999958,206.06060604,4446.78787834,3803.8787875,4169.1212117,2831.27272699,4900.63636315,3226.90909059,4558.57575712,0,42.0,42.0,?
2017-07-31 19:12:50.528500,4571.96969651,0,4222.18181776,0,3860.54545416,0,3809.03030265,0,4337.57575714,0,4300.48484805,0,4279.36363594,0,4522.51515106,0,4964.51515102,3132.12121181,4201.06060564,206.06060604,4453.99999955,3803.8787875,4170.15151473,2831.27272699,4903.21212072,3226.90909059,4567.33333288,0,42.0,42.0,?
2017-07-31 19:12:50.541244,4557.54545409,0,4219.09090867,0,3844.06060568,0,3802.33333295,0,4298.93939351,0,4256.18181776,0,4263.39393897,0,4517.36363591,0,4969.15151465,3132.12121181,4186.63636322,206.06060604,4440.09090865,3803.8787875,4168.60606019,2831.27272699,4886.21212072,3226.90909059,4543.12121167,0,42.0,42.0,?
2017-07-31 19:12:50.544059,4557.54545409,0,4219.09090867,0,3844.06060568,0,3802.33333295,0,4298.93939351,0,4256.18181776,0,4263.39393897,0,4517.36363591,0,4969.15151465,3132.12121181,4186.63636322,206.06060604,4440.09090865,3803.8787875,4168.60606019,2831.27272699,4886.21212072,3226.90909059,4543.12121167,0,42.0,42.0,?
2017-07-31 19:12:50.550827,4561.1515147,0,4224.24242382,0,3853.33333295,0,3823.45454507,0,4311.81818139,0,4283.99999957,0,4260.81818139,0,4514.27272682,0,4957.81818132,3132.12121181,4192.30302988,206.06060604,4441.12121168,3803.8787875,4171.69696928,2831.27272699,4894.96969648,3226.90909059,4538.99999955,0,42.0,42.0,?
2017-07-31 19:12:50.563941,4579.18181772,0,4233.51515109,0,3861.57575719,0,3829.12121174,0,4315.93939351,0,4301.51515109,0,4278.84848442,0,4522.51515106,0,4966.06060556,3132.12121181,4212.39393897,206.06060604,4457.09090865,3803.8787875,4174.27272686,2831.27272699,4913.51515102,3226.90909059,4549.30302985,0,42.0,42.0,?
2017-07-31 19:12:50.568219,4575.0606056,0,4224.24242382,0,3865.69696931,0,3828.60606022,0,4317.48484805,0,4295.3333329,0,4286.06060563,0,4531.27272682,0,4973.78787829,3132.12121181,4213.424242,206.06060604,4459.66666622,3803.8787875,4171.18181776,2831.27272699,4910.42424193,3226.90909059,4555.48484803,0,42.0,42.0,?
2017-07-31 19:12:50.574900,4575.57575712,0,4229.39393897,0,3864.66666628,0,3829.63636325,0,4321.09090866,0,4295.84848442,0,4272.66666624,0,4523.03030258,0,4968.12121162,3132.12121181,4198.48484806,206.06060604,4450.90909046,3803.8787875,4170.66666625,2831.27272699,4900.63636315,3226.90909059,4548.27272682,0,42.0,42.0,?
2017-07-31 19:12:50.580918,4571.454545,0,4226.30302988,0,3864.15151477,0,3824.4848481,0,4321.60606017,0,4307.18181775,0,4275.24242381,0,4515.81818137,0,4965.54545405,3132.12121181,4198.48484806,206.06060604,4447.81818137,3803.8787875,4171.18181776,2831.27272699,4899.60606012,3226.90909059,4538.99999955,0,42.0,42.0,?
2017-07-31 19:12:50.591486,4566.81818136,0,4223.7272723,0,3863.63636325,0,3816.75757538,0,4320.57575714,0,4312.3333329,0,4282.96969654,0,4514.78787834,0,4958.33333284,3132.12121181,4201.57575716,206.06060604,4446.27272683,3803.8787875,4169.1212117,2831.27272699,4900.12121163,3226.90909059,4534.36363591,0,42.0,42.0,?
2017-07-31 19:12:50.597106,4576.60606015,0,4230.93939352,0,3864.66666628,0,3823.45454507,0,4320.06060563,0,4302.0303026,0,4273.69696927,0,4512.72727228,0,4958.33333284,3132.12121181,4206.21212079,206.06060604,4449.87878743,3803.8787875,4170.15151473,2831.27272699,4903.72727224,3226.90909059,4535.39393894,0,42.0,42.0,?
2017-07-31 19:12:50.606368,4570.42424197,0,4222.18181776,0,3868.7878784,0,3826.03030265,0,4317.99999957,0,4292.24242381,0,4263.90909048,0,4512.21212076,0,4972.75757526,3132.12121181,4209.8181814,206.06060604,4448.33333289,3803.8787875,4171.69696928,2831.27272699,4900.63636315,3226.90909059,4533.33333288,0,42.0,42.0,?
2017-07-31 19:12:50.612802,4567.84848439,0,4225.78787837,0,3866.21212083,0,3816.75757538,0,4309.75757533,0,4295.3333329,0,4258.24242382,0,4502.93939349,0,4969.15151465,3132.12121181,4189.72727231,206.06060604,4439.57575713,3803.8787875,4168.60606019,2831.27272699,4896.51515103,3226.90909059,4525.09090864,0,42.0,42.0,?
2017-07-31 19:12:50.619497,4572.48484803,0,4224.75757534,0,3868.27272689,0,3827.06060568,0,4307.18181775,0,4304.09090866,0,4266.48484806,0,4504.99999955,0,4963.9999995,3132.12121181,4186.1212117,206.06060604,4443.69696925,3803.8787875,4170.15151473,2831.27272699,4900.63636315,3226.90909059,4526.12121167,0,42.0,42.0,?
2017-07-31 19:12:50.627432,4574.03030257,0,4219.60606018,0,3873.93939355,0,3845.09090871,0,4314.90909048,0,4312.3333329,0,4282.45454503,0,4522.51515106,0,4979.45454496,3132.12121181,4210.84848443,206.06060604,4455.03030258,3803.8787875,4172.72727231,2831.27272699,4906.30302981,3226.90909059,4529.72727227,0,42.0,42.0,?
2017-07-31 19:12:50.635508,4577.12121166,0,4230.424242,0,3875.99999961,0,3833.75757537,0,4321.09090866,0,4320.06060563,0,4279.36363594,0,4525.60606015,0,4991.3030298,3132.12121181,4212.39393897,206.06060604,4456.57575713,3803.8787875,4171.18181776,2831.27272699,4908.36363587,3226.90909059,4528.69696924,0,42.0,42.0,?
2017-07-31 19:12:50.643913,4565.27272682,0,4223.21212079,0,3874.96969658,0,3813.15151477,0,4320.06060563,0,4319.0303026,0,4261.84848442,0,4510.66666622,0,4980.9999995,3132.12121181,4198.48484806,206.06060604,4448.33333289,3803.8787875,4168.09090867,2831.27272699,4897.54545406,3226.90909059,4524.06060561,0,42.0,42.0,?
2017-07-31 19:12:50.652865,4566.30302985,0,4225.27272685,0,3869.81818143,0,3816.24242386,0,4314.39393896,0,4305.12121169,0,4252.57575715,0,4493.1515147,0,4955.75757526,3132.12121181,4196.93939352,206.06060604,4445.75757531,3803.8787875,4170.66666625,2831.27272699,4891.87878739,3226.90909059,4517.87878743,0,42.0,42.0,?
2017-07-31 19:12:50.659689,4576.09090863,0,4229.39393897,0,3877.03030264,0,3846.12121174,0,4320.57575714,0,4307.18181775,0,4273.69696927,0,4498.81818137,0,4954.21212072,3132.12121181,4211.87878746,206.06060604,4456.57575713,3803.8787875,4176.33333292,2831.27272699,4903.21212072,3226.90909059,4527.1515147,0,42.0,42.0,?
2017-07-31 19:12:50.666772,4564.7575753,0,4218.57575715,0,3880.63636325,0,3857.45454507,0,4322.6363632,0,4314.90909048,0,4286.57575715,0,4508.09090864,0,4967.60606011,3132.12121181,4213.93939352,206.06060604,4458.63636319,3803.8787875,4172.21212079,2831.27272699,4900.63636315,3226.90909059,4535.90909046,0,42.0,42.0,?
2017-07-31 19:12:50.674006,4555.99999954,0,4222.18181776,0,3865.1818178,0,3832.21212083,0,4311.30302987,0,4308.7272723,0,4268.0303026,0,4497.27272682,0,4962.96969647,3132.12121181,4192.30302988,206.06060604,4441.12121168,3803.8787875,4166.03030261,2831.27272699,4884.66666618,3226.90909059,4519.93939349,0,42.0,42.0,?
2017-07-31 19:12:50.683854,4559.60606015,0,4222.69696927,0,3868.27272689,0,3823.45454507,0,4314.90909048,0,4326.24242381,0,4287.09090866,0,4507.57575713,0,4965.54545405,3132.12121181,4193.84848443,206.06060604,4435.45454501,3803.8787875,4170.15151473,2831.27272699,4888.7878783,3226.90909059,4511.18181773,0,42.0,42.0,?
2017-07-31 19:12:50.691382,4568.36363591,0,4225.78787837,0,3878.06060567,0,3824.4848481,0,4308.21212078,0,4342.72727229,0,4313.36363593,0,4521.48484803,0,4969.66666617,3132.12121181,4206.21212079,206.06060604,4446.27272683,3803.8787875,4170.66666625,2831.27272699,4899.0909086,3226.90909059,4515.81818137,0,42.0,42.0,?
2017-07-31 19:12:50.707193,4564.24242379,0,4222.18181776,0,3875.4848481,0,3825.51515113,0,4296.87878745,0,4320.06060563,0,4284.51515109,0,4510.66666622,0,4973.78787829,3132.12121181,4203.1212117,206.06060604,4444.72727228,3803.8787875,4168.09090867,2831.27272699,4889.81818133,3226.90909059,4510.1515147,0,42.0,42.0,?
2017-07-31 19:12:50.709911,4558.0606056,0,4213.93939352,0,3879.60606022,0,3841.99999962,0,4321.09090866,0,4314.90909048,0,4272.15151472,0,4506.03030258,0,4985.12121162,3132.12121181,4207.75757534,206.06060604,4440.09090865,3803.8787875,4172.72727231,2831.27272699,4889.30302981,3226.90909059,4506.54545409,0,42.0,42.0,?
2017-07-31 19:12:50.712981,4571.454545,0,4229.39393897,0,3883.72727234,0,3845.60606022,0,4338.60606017,0,4332.42424199,0,4298.42424199,0,4513.24242379,0,4977.3939389,3132.12121181,4215.48484806,206.06060604,4448.33333289,3803.8787875,4175.8181814,2831.27272699,4906.30302981,3226.90909059,4507.57575713,0,42.0,42.0,?
2017-07-31 19:12:50.721026,4561.66666621,0,4224.24242382,0,3879.60606022,0,3839.42424204,0,4314.90909048,0,4316.96969654,0,4292.24242381,0,4512.72727228,0,4967.60606011,3132.12121181,4202.60606019,206.06060604,4442.66666622,3803.8787875,4170.15151473,2831.27272699,4893.42424193,3226.90909059,4495.72727228,0,42.0,42.0,?
2017-07-31 19:12:50.730723,4549.81818136,0,4216.51515109,0,3874.45454507,0,3840.45454507,0,4297.39393896,0,4303.57575715,0,4264.93939351,0,4505.51515106,0,4977.3939389,3132.12121181,4186.1212117,206.06060604,4427.72727228,3803.8787875,4168.60606019,2831.27272699,4873.33333285,3226.90909059,4484.90909046,0,42.0,42.0,?
2017-07-31 19:12:50.738912,4564.7575753,0,4225.27272685,0,3880.12121173,0,3844.57575719,0,4319.0303026,0,4331.90909048,0,4283.48484806,0,4515.30302985,0,4992.84848435,3132.12121181,4203.1212117,206.06060604,4438.03030259,3803.8787875,4173.75757534,2831.27272699,4890.84848436,3226.90909059,4497.27272682,0,42.0,42.0,?
2017-07-31 19:12:50.745479,4562.69696924,0,4219.60606018,0,3888.36363597,0,3843.54545416,0,4332.93939351,0,4332.93939351,0,4302.54545412,0,4521.99999955,0,4999.54545405,3132.12121181,4223.21212079,206.06060604,4449.87878743,3803.8787875,4174.27272686,2831.27272699,4903.21212072,3226.90909059,4515.30302985,0,42.0,42.0,?
2017-07-31 19:12:50.752152,4559.09090864,0,4223.7272723,0,3888.36363597,0,3851.7878784,0,4322.12121169,0,4313.87878745,0,4281.93939351,0,4508.09090864,0,4993.36363586,3132.12121181,4215.48484806,206.06060604,4445.75757531,3803.8787875,4172.72727231,2831.27272699,4893.93939345,3226.90909059,4514.27272682,0,42.0,42.0,?
2017-07-31 19:12:50.761875,4561.1515147,0,4226.8181814,0,3891.45454507,0,3869.30302992,0,4327.78787836,0,4335.51515108,0,4288.63636321,0,4512.72727228,0,4988.72727223,3132.12121181,4213.93939352,206.06060604,4445.75757531,3803.8787875,4171.69696928,2831.27272699,4892.3939389,3226.90909059,4506.54545409,0,42.0,42.0,?
2017-07-31 19:12:50.769023,4559.60606015,0,4227.33333291,0,3888.87878749,0,3862.0909087,0,4323.66666623,0,4345.30302987,0,4310.78787836,0,4519.93939349,0,4978.42424193,3132.12121181,4217.03030261,206.06060604,4448.8484844,3803.8787875,4171.69696928,2831.27272699,4893.42424193,3226.90909059,4502.93939349,0,42.0,42.0,?
2017-07-31 19:12:50.776810,4567.33333288,0,4234.03030261,0,3890.93939355,0,3853.33333295,0,4311.81818139,0,4327.78787836,0,4304.60606018,0,4513.24242379,0,4976.87878738,3132.12121181,4224.24242382,206.06060604,4455.5454541,3803.8787875,4174.78787837,2831.27272699,4897.03030254,3226.90909059,4508.60606016,0,42.0,42.0,?
2017-07-31 19:12:50.784113,4569.39393894,0,4228.87878746,0,3906.393939,0,3844.57575719,0,4320.06060563,0,4328.30302987,0,4290.69696927,0,4518.90909046,0,4991.81818132,3132.12121181,4236.60606018,206.06060604,4463.27272683,3803.8787875,4174.27272686,2831.27272699,4901.15151466,3226.90909059,4515.30302985,0,42.0,42.0,?
2017-07-31 19:12:50.792337,4570.93939348,3095.03030272,4234.03030261,0,3905.87878749,0,3826.54545416,0,4322.6363632,0,4347.36363593,0,4289.66666624,0,4521.48484803,0,4995.42424192,3132.12121181,4224.75757534,206.06060604,4458.12121168,3803.8787875,4171.18181776,2831.27272699,4900.12121163,3226.90909059,4509.63636319,0,42.0,42.0,?
2017-07-31 19:12:50.800164,4569.39393894,3095.03030272,4232.48484806,2781.81818154,3903.81818143,0,3847.15151477,0,4321.09090866,0,4365.90909047,0,4310.78787836,0,4517.87878743,0,5005.72727223,3132.12121181,4212.90909049,206.06060604,4452.45454501,3803.8787875,4172.21212079,2831.27272699,4895.99999951,3226.90909059,4504.48484803,0,42.0,42.0,?
2017-07-31 19:12:50.808324,4567.84848439,3095.03030272,4230.424242,2781.81818154,3909.48484809,0,3879.0909087,0,4325.72727229,0,4350.96969653,0,4317.99999957,0,4520.454545,0,5014.48484798,3132.12121181,4222.18181776,206.06060604,4455.03030258,3803.8787875,4172.21212079,2831.27272699,4895.99999951,3226.90909059,4505.51515106,4014.06060566,42.0,42.0,?
2017-07-31 19:12:50.816398,4565.78787833,3095.03030272,4234.03030261,2781.81818154,3902.27272688,251.393939369,3878.06060567,0,4323.66666623,0,4317.48484805,0,4292.24242381,0,4515.81818137,0,4989.75757526,3132.12121181,4219.09090867,206.06060604,4450.39393895,3803.8787875,4171.69696928,2831.27272699,4893.42424193,3226.90909059,4499.33333288,4014.06060566,42.0,42.0,?
2017-07-31 19:12:50.828933,4554.96969651,3095.03030272,4223.7272723,2781.81818154,3896.60606022,251.393939369,3867.75757537,445.090909046,4328.30302987,0,4323.15151472,0,4286.57575715,0,4509.12121167,0,4974.81818132,3132.12121181,4211.36363594,206.06060604,4445.2424238,3803.8787875,4174.78787837,2831.27272699,4888.7878783,3226.90909059,4493.66666622,4014.06060566,42.0,42.0,?
2017-07-31 19:12:50.834408,4569.39393894,3095.03030272,4233.51515109,2781.81818154,3902.27272688,251.393939369,3857.96969658,445.090909046,4340.66666623,304.969696939,4348.90909047,0,4299.96969654,0,4506.03030258,0,4995.42424192,3132.12121181,4218.06060564,206.06060604,4458.12121168,3803.8787875,4175.30302989,2831.27272699,4899.0909086,3226.90909059,4501.39393894,4014.06060566,42.0,42.0,?
2017-07-31 19:12:50.838581,4584.33333287,3095.03030272,4237.63636321,2781.81818154,3918.24242385,251.393939369,3863.63636325,445.090909046,4339.6363632,304.969696939,4350.96969653,436.848484805,4300.48484805,0,4510.1515147,0,5014.48484798,3132.12121181,4231.96969655,206.06060604,4476.66666622,3803.8787875,4174.78787837,2831.27272699,4914.03030254,3226.90909059,4518.90909046,4014.06060566,42.0,42.0,?
2017-07-31 19:12:50.846231,4580.72727227,3095.03030272,4230.424242,2781.81818154,3926.99999961,251.393939369,3872.90909052,445.090909046,4323.66666623,304.969696939,4342.21212078,436.848484805,4288.12121169,3614.30302994,4519.93939349,0,5008.81818132,3132.12121181,4239.69696927,206.06060604,4479.75757531,3803.8787875,4176.84848443,2831.27272699,4916.0909086,3226.90909059,4527.1515147,4014.06060566,42.0,42.0,?
2017-07-31 19:12:50.856201,4589.99999954,3095.03030272,4240.7272723,2781.81818154,3925.45454506,251.393939369,3858.99999961,445.090909046,4319.0303026,304.969696939,4345.81818138,436.848484805,4284.51515109,3614.30302994,4526.63636318,2950.78787849,5010.36363586,3132.12121181,4243.81818139,206.06060604,4483.36363592,3803.8787875,4178.90909049,2831.27272699,4920.72727224,3226.90909059,4526.12121167,4014.06060566,42.0,42.0,?
2017-07-31 19:12:50.862729,4588.96969651,3095.03030272,4234.54545412,2781.81818154,3926.48484809,251.393939369,3849.72727234,445.090909046,4313.87878745,304.969696939,4358.18181775,436.848484805,4292.75757533,3614.30302994,4527.66666621,2950.78787849,5023.75757526,3115.63636332,4248.96969654,206.06060604,4490.57575713,3803.8787875,4173.75757534,2831.27272699,4923.81818133,3226.90909059,4526.63636318,4014.06060566,42.0,42.0,?
2017-07-31 19:12:50.870432,4582.78787833,3095.03030272,4234.54545412,2781.81818154,3926.99999961,251.393939369,3863.12121173,445.090909046,4279.36363594,304.969696939,4350.96969653,436.848484805,4297.90909048,3614.30302994,4507.57575713,2950.78787849,5003.66666617,3115.63636332,4239.69696927,239.030303006,4481.30302985,3803.8787875,4167.57575716,2831.27272699,4908.87878739,3226.90909059,4521.99999955,4014.06060566,42.0,42.0,?
2017-07-31 19:12:50.879650,4585.36363591,3095.03030272,4240.21212079,2781.81818154,3933.6969693,251.393939369,3883.72727234,445.090909046,4288.63636321,304.969696939,4342.72727229,436.848484805,4300.48484805,3614.30302994,4489.5454541,2950.78787849,4983.06060556,3115.63636332,4244.84848442,239.030303006,4476.66666622,3717.33333296,4172.21212079,2831.27272699,4901.66666618,3226.90909059,4528.18181773,4014.06060566,42.0,42.0,?
2017-07-31 19:12:50.886372,4586.90909045,3095.03030272,4231.45454503,2781.81818154,3940.90909052,251.393939369,3890.42424204,445.090909046,4311.30302987,304.969696939,4367.96969653,436.848484805,4283.99999957,3614.30302994,4487.99999955,2950.78787849,4990.78787829,3115.63636332,4270.09090866,239.030303006,4490.57575713,3717.33333296,4175.8181814,2831.27272699,4908.87878739,3226.90909059,4547.24242379,4014.06060566,42.0,42.0,?
2017-07-31 19:12:50.892939,4591.54545409,3095.03030272,4239.18181776,2781.81818154,3938.33333294,251.393939369,3866.21212083,445.090909046,4251.03030261,304.969696939,4365.90909047,436.848484805,4249.99999958,3614.30302994,4471.51515107,2950.78787849,4974.30302981,3115.63636332,4269.06060563,239.030303006,4501.39393894,3717.33333296,4172.21212079,2831.27272699,4907.84848436,3259.87878755,4556.51515106,4014.06060566,42.0,42.0,?
2017-07-31 19:12:50.904823,4598.24242378,3095.03030272,4243.30302988,2781.81818154,3963.06060566,251.393939369,3848.1818178,445.090909046,4245.87878745,304.969696939,4330.36363593,436.848484805,4263.90909048,3614.30302994,4459.66666622,2950.78787849,4967.60606011,3115.63636332,4278.84848442,239.030303006,4518.39393894,3717.33333296,4178.90909049,2831.27272699,4911.96969648,3259.87878755,4581.24242378,4014.06060566,42.0,42.0,?
2017-07-31 19:12:50.909865,4617.81818136,3095.03030272,4246.90909048,2781.81818154,3996.54545415,251.393939369,3869.30302992,445.090909046,4349.42424199,304.969696939,4332.93939351,436.848484805,4303.57575715,3614.30302994,4477.18181773,2950.78787849,4998.51515102,3115.63636332,4309.24242381,239.030303006,4544.66666621,3721.45454508,4183.54545413,2831.27272699,4931.03030254,3259.87878755,4621.93939348,4014.06060566,42.0,42.0,?
2017-07-31 19:12:50.917289,4623.48484802,3095.03030272,4247.93939351,2781.81818154,3995.51515112,251.393939369,3894.03030264,445.090909046,4387.54545411,304.969696939,4353.54545411,436.848484805,4302.0303026,3614.30302994,4503.96969652,2950.78787849,5005.21212071,3115.63636332,4312.3333329,239.030303006,4549.81818136,3721.45454508,4176.84848443,2831.27272699,4932.57575708,3259.87878755,4633.78787832,4014.06060566,42.0,42.0,?
2017-07-31 19:12:50.926488,4605.96969651,3095.03030272,4236.60606018,2781.81818154,3984.18181778,251.393939369,3891.96969658,445.090909046,4344.78787835,304.969696939,4343.75757532,436.848484805,4279.87878745,3614.30302994,4511.69696925,2950.78787849,4989.24242374,3115.63636332,4293.78787836,239.030303006,4537.96969652,3721.45454508,4171.69696928,2831.27272699,4917.12121163,3259.87878755,4622.45454499,4014.06060566,42.0,42.0,?
2017-07-31 19:12:50.933278,4607.51515105,3095.03030272,4244.33333291,2781.81818154,3985.21212081,251.393939369,3875.99999961,445.090909046,4313.36363593,304.969696939,4331.90909048,436.848484805,4263.39393897,3614.30302994,4486.45454501,2950.78787849,4981.51515102,3115.63636332,4279.36363594,239.030303006,4534.87878743,3721.45454508,4171.69696928,2831.27272699,4914.54545405,3259.87878755,4614.72727227,4014.06060566,42.0,42.0,?
2017-07-31 19:12:50.947930,4610.60606014,3095.03030272,4240.7272723,2781.81818154,3988.3030299,251.393939369,3871.36363598,445.090909046,4292.24242381,304.969696939,4345.30302987,436.848484805,4270.09090866,3614.30302994,4465.8484844,2950.78787849,4959.87878738,3115.63636332,4295.84848442,239.030303006,4536.93939349,3721.45454508,4177.87878746,2831.27272699,4916.60606011,3259.87878755,4600.81818136,4014.06060566,42.0,42.0,?
2017-07-31 19:12:50.949308,4603.90909045,3095.03030272,4234.03030261,2781.81818154,3974.393939,251.393939369,3871.36363598,445.090909046,4282.96969654,304.969696939,4345.30302987,436.848484805,4270.09090866,3614.30302994,4465.8484844,2950.78787849,4959.87878738,3115.63636332,4295.84848442,239.030303006,4536.93939349,3721.45454508,4177.87878746,2831.27272699,4916.60606011,3259.87878755,4600.81818136,4014.06060566,42.0,42.0,?
2017-07-31 19:12:50.956955,4598.7575753,3095.03030272,4238.66666624,2781.81818154,3955.84848445,251.393939369,3849.21212083,445.090909046,4288.63636321,304.969696939,4339.12121169,436.848484805,4278.33333291,3614.30302994,4463.78787834,2950.78787849,4959.87878738,3115.63636332,4290.69696927,239.030303006,4526.12121167,3721.45454508,4174.78787837,2831.27272699,4912.48484799,3259.87878755,4578.15151469,4014.06060566,42.0,42.0,?
2017-07-31 19:12:50.963504,4582.27272681,3095.03030272,4228.87878746,2781.81818154,3946.57575718,251.393939369,3833.75757537,445.090909046,4274.7272723,304.969696939,4334.48484805,436.848484805,4277.81818139,3614.30302994,4456.57575713,2950.78787849,4963.9999995,3115.63636332,4266.99999957,239.030303006,4504.99999955,3721.45454508,4170.66666625,2831.27272699,4895.99999951,3259.87878755,4551.36363591,4014.06060566,42.0,42.0,?
2017-07-31 19:12:50.972940,4571.96969651,3095.03030272,4230.93939352,2781.81818154,3921.84848446,251.393939369,3824.99999962,445.090909046,4256.69696927,304.969696939,4309.75757533,436.848484805,4243.81818139,3614.30302994,4441.12121168,2950.78787849,4947.51515102,3115.63636332,4235.57575715,239.030303006,4482.33333289,3721.45454508,4168.60606019,2831.27272699,4881.57575709,3259.87878755,4516.8484844,4014.06060566,42.0,42.0,?
2017-07-31 19:12:50.979374,4557.54545409,3095.03030272,4224.24242382,2781.81818154,3900.72727234,251.393939369,3807.99999962,445.090909046,4253.60606018,304.969696939,4287.60606018,436.848484805,4221.66666624,3614.30302994,4435.96969653,2950.78787849,4936.18181769,3115.63636332,4234.03030261,239.030303006,4464.30302986,3721.45454508,4168.60606019,2831.27272699,4867.15151466,3259.87878755,4483.87878743,4014.06060566,42.0,42.0,?
2017-07-31 19:12:50.986909,4542.09090864,3095.03030272,4214.96969655,2781.81818154,3894.54545416,251.393939369,3809.54545416,445.090909046,4245.36363594,304.969696939,4285.0303026,436.848484805,4244.84848442,3614.30302994,4440.60606016,2950.78787849,4926.90909042,3115.63636332,4244.84848442,239.030303006,4448.8484844,3721.45454508,4168.09090867,2831.27272699,4852.72727224,3259.87878755,4462.2424238,4014.06060566,42.0,42.0,?
2017-07-31 19:12:50.996479,4544.1515147,3095.03030272,4225.27272685,2781.81818154,3892.4848481,251.393939369,3835.81818143,445.090909046,4237.63636321,304.969696939,4286.57575715,436.848484805,4248.96969654,3614.30302994,4435.96969653,2950.78787849,4912.48484799,3115.63636332,4235.57575715,239.030303006,4439.06060562,3721.45454508,4166.03030261,2831.27272699,4850.66666618,3259.87878755,4450.39393895,4014.06060566,42.0,42.0,?
2017-07-31 19:12:51.004432,4539.51515106,3095.03030272,4220.1212117,2781.81818154,3889.90909052,251.393939369,3844.06060568,445.090909046,4231.45454503,304.969696939,4284.51515109,436.848484805,4211.87878746,3614.30302994,4431.33333289,2950.78787849,4922.7878783,3115.63636332,4232.99999958,239.030303006,4438.03030259,3721.45454508,4166.54545413,2831.27272699,4852.72727224,3259.87878755,4442.15151471,4014.06060566,42.0,42.0,?
2017-07-31 19:12:51.010721,4536.42424197,3095.03030272,4219.60606018,2781.81818154,3874.96969658,251.393939369,3816.24242386,445.090909046,4226.30302988,304.969696939,4280.90909048,436.848484805,4201.57575716,3614.30302994,4435.45454501,2950.78787849,4938.24242375,3115.63636332,4239.69696927,239.030303006,4432.87878744,3721.45454508,4166.03030261,2831.27272699,4848.09090861,3259.87878755,4425.66666622,4014.06060566,42.0,42.0,?
2017-07-31 19:12:51.019594,4533.8484844,3095.03030272,4219.09090867,2781.81818154,3869.30302992,251.393939369,3812.12121174,445.090909046,4244.84848442,304.969696939,4284.51515109,436.848484805,4227.33333291,3614.30302994,4442.15151471,2950.78787849,4931.03030254,3115.63636332,4238.15151473,239.030303006,4421.03030259,3721.45454508,4164.99999958,2831.27272699,4839.84848436,3259.87878755,4410.21212077,4014.06060566,42.0,42.0,?
2017-07-31 19:12:51.025961,4526.63636318,3095.03030272,4214.96969655,2781.81818154,3875.4848481,251.393939369,3825.51515113,445.090909046,4255.66666624,304.969696939,4297.90909048,436.848484805,4218.06060564,3614.30302994,4439.57575713,2950.78787849,4921.24242375,3115.63636332,4232.99999958,239.030303006,4413.30302986,3721.45454508,4164.48484807,2831.27272699,4835.21212073,3259.87878755,4402.48484804,4014.06060566,42.0,42.0,?
2017-07-31 19:12:51.034847,4529.72727227,3095.03030272,4223.21212079,2781.81818154,3872.90909052,251.393939369,3818.30302992,445.090909046,4248.96969654,304.969696939,4306.15151472,436.848484805,4200.03030261,3614.30302994,4429.78787834,2950.78787849,4929.99999951,3115.63636332,4235.06060564,239.030303006,4414.84848441,3721.45454508,4167.57575716,2831.27272699,4837.27272679,3259.87878755,4394.75757532,4014.06060566,42.0,42.0,?
2017-07-31 19:12:51.043187,4521.99999955,3095.03030272,4214.45454503,2781.81818154,3867.75757537,251.393939369,3817.27272689,445.090909046,4248.96969654,304.969696939,4288.63636321,436.848484805,4227.84848443,3614.30302994,4432.87878744,2950.78787849,4941.33333284,3115.63636332,4238.66666624,239.030303006,4412.27272683,3721.45454508,4169.63636322,2831.27272699,4834.1818177,3259.87878755,4387.03030259,4014.06060566,42.0,42.0,?
2017-07-31 19:12:51.051995,4521.48484803,3095.03030272,4215.48484806,2781.81818154,3868.27272689,251.393939369,3835.81818143,445.090909046,4230.93939352,304.969696939,4279.36363594,436.848484805,4246.39393897,3614.30302994,4433.39393895,2950.78787849,4923.30302981,3115.63636332,4235.06060564,239.030303006,4410.21212077,3721.45454508,4169.63636322,2831.27272699,4834.1818177,3259.87878755,4379.81818138,4014.06060566,42.0,42.0,?
2017-07-31 19:12:51.058434,4532.30302985,3095.03030272,4220.1212117,2781.81818154,3873.93939355,251.393939369,3854.87878749,445.090909046,4234.54545412,304.969696939,4309.75757533,436.848484805,4240.21212079,3614.30302994,4434.42424198,2950.78787849,4915.06060557,3115.63636332,4244.84848442,239.030303006,4416.90909047,3721.45454508,4171.18181776,2831.27272699,4844.484848,3259.87878755,4380.3333329,4014.06060566,42.0,42.0,?
2017-07-31 19:12:51.073377,4528.69696924,3095.03030272,4212.39393897,2781.81818154,3873.42424204,251.393939369,3830.15151477,445.090909046,4273.18181775,304.969696939,4314.90909048,436.848484805,4247.93939351,3614.30302994,4445.75757531,2950.78787849,4936.18181769,3115.63636332,4252.06060564,239.030303006,4413.30302986,3721.45454508,4169.63636322,2831.27272699,4843.45454497,3259.87878755,4379.81818138,4014.06060566,42.0,42.0,?
2017-07-31 19:12:51.075943,4532.30302985,3095.03030272,4220.1212117,2781.81818154,3871.87878749,251.393939369,3811.60606022,445.090909046,4269.57575715,304.969696939,4287.60606018,436.848484805,4254.63636321,3614.30302994,4451.93939349,2950.78787849,4951.63636314,3115.63636332,4250.51515109,239.030303006,4411.2424238,3721.45454508,4170.66666625,2831.27272699,4843.96969649,3259.87878755,4374.15151471,4014.06060566,42.0,42.0,?
2017-07-31 19:12:51.082654,4534.87878743,3095.03030272,4217.03030261,2781.81818154,3882.69696931,251.393939369,3847.15151477,445.090909046,4247.93939351,304.969696939,4300.99999957,436.848484805,4246.39393897,3614.30302994,4446.78787834,2950.78787849,4954.21212072,3115.63636332,4255.66666624,239.030303006,4417.42424198,3721.45454508,4171.69696928,2831.27272699,4847.06060558,3259.87878755,4375.18181774,4014.06060566,42.0,42.0,?
2017-07-31 19:12:51.090663,4533.8484844,3095.03030272,4217.03030261,2781.81818154,3885.7878784,251.393939369,3850.75757537,445.090909046,4257.7272723,304.969696939,4329.84848442,436.848484805,4232.99999958,3614.30302994,4434.9393935,2950.78787849,4942.36363587,3115.63636332,4244.33333291,239.030303006,4413.81818138,3721.45454508,4167.06060564,2831.27272699,4840.87878739,3259.87878755,4376.21212077,4014.06060566,42.0,42.0,?
2017-07-31 19:12:51.097697,4536.93939349,3095.03030272,4220.1212117,2781.81818154,3881.15151476,251.393939369,3822.93939356,445.090909046,4274.21212078,304.969696939,4322.12121169,436.848484805,4234.54545412,3614.30302994,4441.12121168,2950.78787849,4936.18181769,3115.63636332,4240.21212079,239.030303006,4411.75757532,3721.45454508,4168.60606019,2831.27272699,4841.90909042,3259.87878755,4375.18181774,4014.06060566,42.0,42.0,?
2017-07-31 19:12:51.104035,4534.36363591,3095.03030272,4212.39393897,2781.81818154,3883.21212082,251.393939369,3843.03030265,445.090909046,4283.48484806,304.969696939,4315.42424199,436.848484805,4245.36363594,3614.30302994,4451.42424198,2950.78787849,4946.48484799,3115.63636332,4257.7272723,239.030303006,4416.39393895,3721.45454508,4171.69696928,2831.27272699,4846.54545406,3259.87878755,4378.78787835,4014.06060566,42.0,42.0,?
2017-07-31 19:12:51.114098,4534.87878743,3095.03030272,4219.09090867,2781.81818154,3879.60606022,251.393939369,3868.7878784,445.090909046,4294.81818139,304.969696939,4336.0303026,436.848484805,4240.21212079,3614.30302994,4435.45454501,2950.78787849,4936.6969692,3115.63636332,4248.45454503,239.030303006,4411.2424238,3721.45454508,4169.1212117,2831.27272699,4843.96969649,3259.87878755,4376.72727229,4014.06060566,42.0,42.0,?
2017-07-31 19:12:51.124319,4526.63636318,3095.03030272,4213.93939352,2781.81818154,3876.51515113,251.393939369,3848.1818178,445.090909046,4282.96969654,304.969696939,4346.84848441,436.848484805,4243.81818139,3614.30302994,4426.18181774,2950.78787849,4924.33333284,3115.63636332,4236.60606018,239.030303006,4407.12121168,3721.45454508,4166.03030261,2831.27272699,4838.30302982,3259.87878755,4370.03030259,4014.06060566,42.0,42.0,?
2017-07-31 19:12:51.129828,4527.66666621,3095.03030272,4215.99999958,2781.81818154,3880.63636325,251.393939369,3835.30302992,445.090909046,4254.1212117,304.969696939,4333.45454502,436.848484805,4263.90909048,3614.30302994,4433.39393895,2950.78787849,4937.21212072,3115.63636332,4246.90909048,239.030303006,4409.69696926,3721.45454508,4167.06060564,2831.27272699,4841.90909042,3259.87878755,4367.45454502,4014.06060566,42.0,42.0,?
2017-07-31 19:12:51.136391,4541.06060561,3095.03030272,4225.27272685,2781.81818154,3886.30302991,251.393939369,3843.54545416,445.090909046,4255.66666624,304.969696939,4324.18181775,436.848484805,4271.63636321,3614.30302994,4436.99999956,2950.78787849,4952.66666617,3115.63636332,4254.1212117,239.030303006,4415.36363592,3721.45454508,4172.72727231,2831.27272699,4851.69696921,3259.87878755,4371.06060562,4014.06060566,42.0,42.0,?
2017-07-31 19:12:51.144127,4540.03030258,3095.03030272,4214.96969655,2781.81818154,3890.42424204,251.393939369,3838.90909053,445.090909046,4280.90909048,304.969696939,4337.06060563,436.848484805,4268.54545412,3614.30302994,4445.75757531,2950.78787849,4963.48484799,3115.63636332,4260.30302988,239.030303006,4422.06060562,3721.45454508,4174.78787837,2831.27272699,4854.27272679,3259.87878755,4375.18181774,4014.06060566,42.0,42.0,?
2017-07-31 19:12:51.152148,4540.03030258,3095.03030272,4219.09090867,2781.81818154,3885.7878784,251.393939369,3845.09090871,445.090909046,4285.0303026,304.969696939,4357.66666623,436.848484805,4269.06060563,3614.30302994,4446.78787834,2950.78787849,4957.30302981,3115.63636332,4255.15151473,239.030303006,4421.03030259,3721.45454508,4171.18181776,2831.27272699,4848.60606012,3259.87878755,4372.60606017,4014.06060566,42.0,42.0,?
2017-07-31 19:12:51.159301,4529.21212076,3095.03030272,4215.99999958,2781.81818154,3881.66666628,251.393939369,3857.45454507,445.090909046,4268.0303026,304.969696939,4352.51515108,436.848484805,4262.36363594,3614.30302994,4431.33333289,2950.78787849,4936.18181769,3115.63636332,4236.60606018,239.030303006,4406.60606017,3721.45454508,4168.09090867,2831.27272699,4833.66666618,3259.87878755,4362.81818138,4014.06060566,42.0,42.0,?
2017-07-31 19:12:51.167448,4523.03030258,3095.03030272,4210.33333291,2781.81818154,3880.63636325,251.393939369,3839.42424204,445.090909046,4254.1212117,304.969696939,4326.24242381,436.848484805,4238.15151473,3614.30302994,4415.36363592,2950.78787849,4928.96969648,3115.63636332,4232.48484806,239.030303006,4397.33333289,3721.45454508,4167.57575716,2831.27272699,4822.33333285,3259.87878755,4356.12121169,4014.06060566,42.0,42.0,?
2017-07-31 19:12:51.175466,4540.03030258,3095.03030272,4218.57575715,2781.81818154,3885.27272688,251.393939369,3833.24242386,445.090909046,4270.09090866,304.969696939,4334.99999957,436.848484805,4243.81818139,3614.30302994,4422.06060562,2950.78787849,4941.33333284,3115.63636332,4247.93939351,239.030303006,4409.18181774,3721.45454508,4172.21212079,2831.27272699,4836.75757527,3259.87878755,4363.84848441,4014.06060566,42.0,42.0,?
2017-07-31 19:12:51.182432,4536.42424197,3095.03030272,4213.93939352,2781.81818154,3891.45454507,251.393939369,3866.21212083,445.090909046,4293.78787836,304.969696939,4363.3333329,436.848484805,4274.21212078,3614.30302994,4435.96969653,2950.78787849,4950.60606011,3115.63636332,4257.7272723,239.030303006,4418.96969653,3721.45454508,4174.78787837,2831.27272699,4851.69696921,3259.87878755,4368.48484805,4014.06060566,42.0,42.0,?
2017-07-31 19:12:51.190030,4528.69696924,3095.03030272,4219.09090867,2781.81818154,3882.18181779,251.393939369,3863.12121173,445.090909046,4274.7272723,304.969696939,4352.51515108,436.848484805,4254.1212117,3614.30302994,4418.45454501,2950.78787849,4935.66666617,3115.63636332,4244.33333291,239.030303006,4412.27272683,3721.45454508,4170.15151473,2831.27272699,4845.51515103,3259.87878755,4353.54545411,4014.06060566,42.0,42.0,?
2017-07-31 19:12:51.199544,4533.8484844,3095.03030272,4218.57575715,2781.81818154,3880.12121173,251.393939369,3828.09090871,445.090909046,4258.75757533,304.969696939,4341.18181775,436.848484805,4236.60606018,3614.30302994,4404.54545411,2950.78787849,4931.03030254,3115.63636332,4237.1212117,239.030303006,4410.21212077,3721.45454508,4167.57575716,2831.27272699,4840.36363588,3259.87878755,4348.90909047,4014.06060566,42.0,42.0,?
2017-07-31 19:12:51.209250,4536.42424197,3095.03030272,4211.36363594,2781.81818154,3884.75757537,251.393939369,3825.51515113,445.090909046,4275.24242381,304.969696939,4350.96969653,436.848484805,4262.36363594,3614.30302994,4416.90909047,2950.78787849,4943.90909041,3115.63636332,4240.7272723,239.030303006,4415.87878744,3721.45454508,4170.66666625,2831.27272699,4846.54545406,3259.87878755,4358.69696926,4014.06060566,42.0,42.0,?
2017-07-31 19:12:51.213904,4533.33333288,3095.03030272,4214.45454503,2781.81818154,3874.45454507,251.393939369,3832.72727234,445.090909046,4280.39393897,304.969696939,4346.84848441,436.848484805,4266.48484806,3614.30302994,4423.09090865,2950.78787849,4944.93939344,3115.63636332,4238.15151473,239.030303006,4414.84848441,3721.45454508,4174.27272686,2831.27272699,4848.09090861,3259.87878755,4349.42424199,4014.06060566,42.0,42.0,?
2017-07-31 19:12:51.222008,4518.90909046,3095.03030272,4206.72727231,2781.81818154,3869.30302992,251.393939369,3837.87878749,445.090909046,4274.21212078,304.969696939,4344.78787835,436.848484805,4254.1212117,3614.30302994,4422.06060562,2950.78787849,4946.48484799,3115.63636332,4237.63636321,239.030303006,4408.15151471,3721.45454508,4172.72727231,2831.27272699,4836.75757527,3259.87878755,4334.48484805,4014.06060566,42.0,42.0,?
2017-07-31 19:12:51.228920,4523.54545409,3095.03030272,4213.93939352,2781.81818154,3874.96969658,251.393939369,3847.66666628,445.090909046,4265.45454503,304.969696939,4348.39393896,436.848484805,4247.93939351,3614.30302994,4412.78787835,2950.78787849,4942.36363587,3115.63636332,4236.60606018,239.030303006,4408.66666623,3721.45454508,4170.66666625,2831.27272699,4836.24242376,3259.87878755,4334.99999957,4014.06060566,42.0,42.0,?
2017-07-31 19:12:51.237782,4528.69696924,3095.03030272,4214.45454503,2781.81818154,3875.4848481,251.393939369,3852.81818143,445.090909046,4257.21212079,304.969696939,4342.21212078,436.848484805,4241.24242382,3614.30302994,4400.42424198,2950.78787849,4929.99999951,3115.63636332,4237.1212117,239.030303006,4412.78787835,3721.45454508,4172.72727231,2831.27272699,4845.51515103,3259.87878755,4335.51515108,4014.06060566,42.0,42.0,?
2017-07-31 19:12:51.245518,4516.33333288,3095.03030272,4201.57575716,2781.81818154,3866.21212083,251.393939369,3836.33333295,445.090909046,4253.09090867,304.969696939,4333.45454502,436.848484805,4241.24242382,3614.30302994,4395.78787835,2950.78787849,4920.72727224,3115.63636332,4225.27272685,239.030303006,4406.09090865,3721.45454508,4169.63636322,2831.27272699,4839.33333285,3259.87878755,4326.75757532,4014.06060566,42.0,42.0,?
2017-07-31 19:12:51.255849,4518.39393894,3095.03030272,4210.33333291,2781.81818154,3863.12121173,251.393939369,3828.60606022,445.090909046,4252.06060564,304.969696939,4332.93939351,436.848484805,4245.36363594,3614.30302994,4392.18181774,2950.78787849,4925.87878739,3115.63636332,4206.21212079,239.030303006,4401.96969653,3721.45454508,4164.99999958,2831.27272699,4832.63636315,3259.87878755,4321.60606017,4014.06060566,42.0,42.0,?
2017-07-31 19:12:51.261735,4515.30302985,3095.03030272,4205.69696928,2781.81818154,3868.27272689,251.393939369,3844.06060568,445.090909046,4247.93939351,304.969696939,4333.45454502,436.848484805,4241.75757533,3614.30302994,4390.12121168,2950.78787849,4931.03030254,3115.63636332,4209.8181814,239.030303006,4403.51515107,3721.45454508,4168.09090867,2831.27272699,4832.63636315,3259.87878755,4316.96969654,4014.06060566,42.0,42.0,?
2017-07-31 19:12:51.270440,4511.18181773,3095.03030272,4203.1212117,2781.81818154,3860.03030264,251.393939369,3822.42424204,445.090909046,4230.93939352,304.969696939,4323.66666623,436.848484805,4227.84848443,3614.30302994,4385.99999956,2950.78787849,4916.0909086,3115.63636332,4207.24242382,239.030303006,4393.72727229,3721.45454508,4168.09090867,2831.27272699,4824.39393891,3259.87878755,4306.66666624,4014.06060566,42.0,42.0,?
2017-07-31 19:12:51.276338,4523.03030258,3095.03030272,4210.84848443,2781.81818154,3863.63636325,251.393939369,3806.45454507,445.090909046,4242.27272685,304.969696939,4328.30302987,436.848484805,4232.99999958,3614.30302994,4391.15151471,2950.78787849,4923.30302981,3115.63636332,4200.03030261,239.030303006,4394.75757532,3721.45454508,4166.54545413,2831.27272699,4827.484848,3259.87878755,4319.54545411,4014.06060566,42.0,42.0,?
2017-07-31 19:12:51.283898,4534.36363591,3095.03030272,4209.8181814,2781.81818154,3885.7878784,251.393939369,3840.45454507,445.090909046,4277.81818139,304.969696939,4349.9393935,436.848484805,4248.45454503,3614.30302994,4400.9393935,2950.78787849,4942.36363587,3115.63636332,4212.39393897,239.030303006,4414.33333289,3721.45454508,4169.63636322,2831.27272699,4844.99999952,3259.87878755,4347.87878744,4014.06060566,42.0,42.0,?
2017-07-31 19:12:51.295494,4540.03030258,3095.03030272,4217.54545412,2781.81818154,3886.30302991,251.393939369,3863.12121173,445.090909046,4275.75757533,304.969696939,4353.54545411,436.848484805,4241.24242382,3614.30302994,4393.72727229,2950.78787849,4923.81818133,3115.63636332,4212.90909049,239.030303006,4422.06060562,3721.45454508,4172.72727231,2831.27272699,4850.15151467,3259.87878755,4346.84848441,4014.06060566,42.0,42.0,?
2017-07-31 19:12:51.300530,4529.21212076,3095.03030272,4210.33333291,2781.81818154,3880.12121173,251.393939369,3855.39393901,445.090909046,4253.09090867,304.969696939,4341.18181775,436.848484805,4230.424242,3614.30302994,4387.54545411,2950.78787849,4917.63636314,3115.63636332,4202.09090867,239.030303006,4414.33333289,3721.45454508,4169.1212117,2831.27272699,4839.84848436,3259.87878755,4332.93939351,4014.06060566,42.0,42.0,?
2017-07-31 19:12:51.309612,4530.24242379,3095.03030272,4210.33333291,2781.81818154,3882.69696931,251.393939369,3849.72727234,445.090909046,4241.24242382,304.969696939,4337.06060563,436.848484805,4226.8181814,3614.30302994,4386.51515108,2950.78787849,4933.0909086,3115.63636332,4203.63636322,239.030303006,4415.87878744,3721.45454508,4168.60606019,2831.27272699,4838.81818133,3259.87878755,4332.93939351,4117.09090868,42.0,42.0,?
2017-07-31 19:12:51.315315,4542.60606015,3095.03030272,4219.60606018,2781.81818154,3887.33333294,292.606060577,3851.27272689,445.090909046,4239.18181776,304.969696939,4345.30302987,436.848484805,4229.39393897,3614.30302994,4382.39393896,2950.78787849,4922.7878783,3115.63636332,4212.90909049,239.030303006,4425.15151471,3721.45454508,4174.27272686,2831.27272699,4847.57575709,3259.87878755,4337.57575714,4117.09090868,42.0,42.0,?
2017-07-31 19:12:51.325031,4533.8484844,3095.03030272,4210.33333291,2781.81818154,3893.51515113,292.606060577,3838.90909053,494.545454496,4249.99999958,304.969696939,4354.06060563,436.848484805,4237.63636321,3614.30302994,4386.51515108,2950.78787849,4911.45454496,3115.63636332,4209.8181814,239.030303006,4420.51515107,3721.45454508,4173.75757534,2831.27272699,4841.90909042,3259.87878755,4333.96969654,4117.09090868,42.0,42.0,?
2017-07-31 19:12:51.331463,4536.93939349,3095.03030272,4211.87878746,2781.81818154,3890.42424204,292.606060577,3838.90909053,494.545454496,4268.54545412,309.09090906,4355.60606017,436.848484805,4242.27272685,3614.30302994,4393.72727229,2950.78787849,4929.99999951,3115.63636332,4202.09090867,239.030303006,4420.51515107,3721.45454508,4174.27272686,2831.27272699,4843.45454497,3259.87878755,4328.30302987,4117.09090868,42.0,42.0,?
2017-07-31 19:12:51.341628,4536.93939349,3095.03030272,4208.78787837,2781.81818154,3883.21212082,292.606060577,3866.21212083,494.545454496,4268.54545412,309.09090906,4357.15151472,453.333333288,4248.96969654,3614.30302994,4396.81818138,2950.78787849,4955.75757526,3115.63636332,4213.93939352,239.030303006,4431.33333289,3721.45454508,4174.27272686,2831.27272699,4854.7878783,3259.87878755,4328.81818139,4117.09090868,42.0,42.0,?
2017-07-31 19:12:51.349910,4531.27272682,3095.03030272,4209.8181814,2781.81818154,3883.21212082,292.606060577,3872.90909052,494.545454496,4269.06060563,309.09090906,4360.24242381,453.333333288,4242.78787836,3659.63636327,4388.06060562,2950.78787849,4945.96969648,3115.63636332,4211.36363594,239.030303006,4427.21212077,3721.45454508,4170.15151473,2831.27272699,4851.69696921,3259.87878755,4325.72727229,4117.09090868,42.0,42.0,?
2017-07-31 19:12:51.357018,4540.54545409,3095.03030272,4220.63636321,2781.81818154,3893.51515113,292.606060577,3867.24242386,494.545454496,4272.66666624,309.09090906,4373.6363632,453.333333288,4235.06060564,3659.63636327,4385.99999956,3008.48484818,4928.96969648,3115.63636332,4203.1212117,239.030303006,4426.69696925,3721.45454508,4169.63636322,2831.27272699,4853.75757527,3259.87878755,4326.24242381,4117.09090868,42.0,42.0,?
2017-07-31 19:12:51.362216,4546.21212076,3095.03030272,4212.39393897,2781.81818154,3902.27272688,292.606060577,3859.51515113,494.545454496,4261.84848442,309.09090906,4390.12121168,453.333333288,4246.39393897,3659.63636327,4399.90909047,3008.48484818,4942.87878738,3123.87878757,4220.1212117,239.030303006,4441.63636319,3721.45454508,4175.8181814,2831.27272699,4865.60606012,3259.87878755,4334.99999957,4117.09090868,42.0,42.0,?
2017-07-31 19:12:51.372897,4546.21212076,3095.03030272,4214.96969655,2781.81818154,3894.03030264,292.606060577,3836.33333295,494.545454496,4251.03030261,309.09090906,4378.27272683,453.333333288,4242.27272685,3659.63636327,4394.2424238,3008.48484818,4944.93939344,3123.87878757,4217.03030261,193.696969678,4439.57575713,3721.45454508,4173.75757534,2831.27272699,4864.06060557,3259.87878755,4329.84848442,4117.09090868,42.0,42.0,?
2017-07-31 19:12:51.378005,4541.57575712,3095.03030272,4213.93939352,2781.81818154,3897.12121173,292.606060577,3848.1818178,494.545454496,4276.27272685,309.09090906,4370.03030259,453.333333288,4239.69696927,3659.63636327,4388.06060562,3008.48484818,4939.27272678,3123.87878757,4205.18181776,193.696969678,4430.81818138,3721.45454508,4169.63636322,2831.27272699,4858.90909042,3259.87878755,4328.81818139,4117.09090868,42.0,42.0,?
2017-07-31 19:12:51.388807,4543.12121167,3095.03030272,4210.33333291,2781.81818154,3905.87878749,292.606060577,3882.69696931,494.545454496,4298.93939351,309.09090906,4386.51515108,453.333333288,4260.30302988,3659.63636327,4400.42424198,3008.48484818,4953.6969692,3123.87878757,4216.51515109,193.696969678,4438.5454541,3721.45454508,4173.24242383,2831.27272699,4866.63636315,3259.87878755,4340.66666623,4117.09090868,42.0,42.0,?
2017-07-31 19:12:51.394457,4557.54545409,3095.03030272,4221.15151473,2781.81818154,3903.30302991,292.606060577,3885.27272688,494.545454496,4280.39393897,309.09090906,4393.72727229,453.333333288,4265.45454503,3659.63636327,4408.66666623,3008.48484818,4963.9999995,3123.87878757,4223.7272723,193.696969678,4447.81818137,3721.45454508,4176.33333292,2831.27272699,4875.39393891,3284.60606028,4343.75757532,4117.09090868,42.0,42.0,?
2017-07-31 19:12:51.403151,4557.03030257,3095.03030272,4218.06060564,2781.81818154,3912.06060567,292.606060577,3877.03030264,494.545454496,4268.54545412,309.09090906,4393.72727229,453.333333288,4264.93939351,3659.63636327,4422.06060562,3008.48484818,4966.57575708,3123.87878757,4229.90909049,185.454545436,4451.93939349,3721.45454508,4176.33333292,2831.27272699,4880.03030254,3284.60606028,4343.24242381,4117.09090868,42.0,42.0,?
2017-07-31 19:12:51.409363,4559.09090864,3095.03030272,4219.60606018,2781.81818154,3918.24242385,292.606060577,3880.63636325,494.545454496,4284.51515109,309.09090906,4401.96969653,453.333333288,4275.75757533,3659.63636327,4426.18181774,3008.48484818,4966.57575708,3123.87878757,4232.48484806,185.454545436,4453.48484804,3713.21212084,4175.30302989,2831.27272699,4884.66666618,3284.60606028,4345.81818138,4117.09090868,42.0,42.0,?
2017-07-31 19:12:51.418080,4564.24242379,3095.03030272,4219.09090867,2781.81818154,3917.21212082,292.606060577,3887.33333294,494.545454496,4308.21212078,309.09090906,4415.87878744,453.333333288,4275.75757533,3659.63636327,4410.21212077,3008.48484818,4965.03030253,3123.87878757,4224.24242382,185.454545436,4448.8484844,3713.21212084,4174.27272686,2818.90909063,4881.57575709,3284.60606028,4347.36363593,4117.09090868,42.0,42.0,?
2017-07-31 19:12:51.425390,4561.66666621,3095.03030272,4215.48484806,2781.81818154,3918.24242385,292.606060577,3878.57575719,494.545454496,4313.87878745,309.09090906,4422.57575713,453.333333288,4268.54545412,3659.63636327,4405.06060562,3008.48484818,4967.60606011,3123.87878757,4221.66666624,185.454545436,4447.30302986,3713.21212084,4174.27272686,2818.90909063,4875.39393891,3284.60606028,4347.87878744,4117.09090868,42.0,42.0,?
2017-07-31 19:12:51.438995,4563.21212076,3095.03030272,4223.7272723,2781.81818154,3911.54545415,292.606060577,3862.60606022,494.545454496,4295.84848442,309.09090906,4411.2424238,453.333333288,4266.99999957,3659.63636327,4411.2424238,3008.48484818,4972.75757526,3123.87878757,4221.15151473,185.454545436,4448.33333289,3713.21212084,4174.78787837,2818.90909063,4876.93939345,3284.60606028,4345.81818138,4117.09090868,42.0,42.0,?
2017-07-31 19:12:51.441376,4555.99999954,3095.03030272,4217.03030261,2781.81818154,3912.06060567,292.606060577,3875.4848481,494.545454496,4287.60606018,309.09090906,4401.45454501,453.333333288,4262.87878745,3659.63636327,4413.81818138,3008.48484818,4972.24242375,3123.87878757,4221.66666624,185.454545436,4446.78787834,3713.21212084,4175.8181814,2818.90909063,4875.39393891,3284.60606028,4342.72727229,4117.09090868,42.0,42.0,?
2017-07-31 19:12:51.450662,4566.30302985,3095.03030272,4222.18181776,2781.81818154,3923.393939,292.606060577,3903.30302991,494.545454496,4297.90909048,309.09090906,4417.42424198,453.333333288,4266.99999957,3659.63636327,4411.2424238,3008.48484818,4968.12121162,3123.87878757,4230.424242,185.454545436,4453.48484804,3713.21212084,4176.84848443,2818.90909063,4881.57575709,3284.60606028,4341.18181775,4117.09090868,42.0,42.0,?
2017-07-31 19:12:51.457655,4584.33333287,3095.03030272,4227.84848443,2781.81818154,3932.66666627,292.606060577,3909.99999961,494.545454496,4310.27272684,309.09090906,4439.57575713,453.333333288,4296.87878745,3659.63636327,4425.66666622,3008.48484818,4980.9999995,3123.87878757,4246.90909048,185.454545436,4469.45454501,3713.21212084,4182.5151511,2818.90909063,4901.66666618,3284.60606028,4348.90909047,4117.09090868,42.0,42.0,?
2017-07-31 19:12:51.463947,4578.15151469,3095.03030272,4217.54545412,2781.81818154,3935.24242385,292.606060577,3897.63636325,494.545454496,4304.09090866,309.09090906,4431.84848441,453.333333288,4307.18181775,3659.63636327,4436.48484804,3008.48484818,4993.87878738,3123.87878757,4245.87878745,185.454545436,4474.09090864,3713.21212084,4181.48484807,2818.90909063,4902.69696921,3284.60606028,4358.69696926,4117.09090868,42.0,42.0,?
2017-07-31 19:12:51.471900,4579.69696924,3095.03030272,4229.39393897,2781.81818154,3936.78787839,292.606060577,3880.63636325,494.545454496,4287.60606018,309.09090906,4415.36363592,453.333333288,4279.87878745,3659.63636327,4424.63636319,3008.48484818,4989.75757526,3123.87878757,4230.93939352,185.454545436,4472.5454541,3713.21212084,4175.30302989,2818.90909063,4896.51515103,3284.60606028,4361.27272684,4117.09090868,42.0,42.0,?
2017-07-31 19:12:51.480517,4582.27272681,3095.03030272,4227.84848443,2781.81818154,3945.54545415,292.606060577,3883.72727234,494.545454496,4299.45454502,309.09090906,4428.2424238,453.333333288,4275.75757533,3659.63636327,4424.63636319,3008.48484818,4989.75757526,3123.87878757,4234.54545412,185.454545436,4476.66666622,3713.21212084,4176.84848443,2818.90909063,4899.0909086,3284.60606028,4360.24242381,4117.09090868,42.0,42.0,?
2017-07-31 19:12:51.490412,4580.72727227,3095.03030272,4221.66666624,2781.81818154,3944.51515112,292.606060577,3896.60606022,494.545454496,4319.54545411,309.09090906,4443.18181774,453.333333288,4290.18181775,3659.63636327,4429.78787834,3008.48484818,4992.33333283,3123.87878757,4230.424242,185.454545436,4471.51515107,3713.21212084,4176.84848443,2818.90909063,4899.60606012,3284.60606028,4353.54545411,4117.09090868,42.0,42.0,?
2017-07-31 19:12:51.495020,4574.03030257,3095.03030272,4225.78787837,2781.81818154,3932.15151476,292.606060577,3892.4848481,494.545454496,4314.39393896,309.09090906,4432.36363592,453.333333288,4283.48484806,3659.63636327,4419.48484804,3008.48484818,4985.63636314,3123.87878757,4214.45454503,185.454545436,4458.12121168,3713.21212084,4173.75757534,2818.90909063,4888.7878783,3284.60606028,4343.75757532,4117.09090868,42.0,42.0,?
2017-07-31 19:12:51.502935,4559.60606015,3095.03030272,4217.54545412,2781.81818154,3928.03030264,292.606060577,3894.54545416,494.545454496,4313.87878745,309.09090906,4427.21212077,453.333333288,4274.21212078,3659.63636327,4412.27272683,3008.48484818,4977.90909041,3123.87878757,4216.51515109,185.454545436,4452.45454501,3713.21212084,4176.84848443,2818.90909063,4880.54545406,3284.60606028,4341.69696926,4117.09090868,42.0,42.0,?
2017-07-31 19:12:51.511659,4569.90909045,3095.03030272,4224.75757534,2781.81818154,3928.54545415,292.606060577,3901.75757537,494.545454496,4329.3333329,309.09090906,4446.78787834,453.333333288,4278.33333291,3659.63636327,4418.96969653,3008.48484818,4980.9999995,3123.87878757,4230.93939352,185.454545436,4460.69696925,3713.21212084,4178.90909049,2818.90909063,4895.484848,3284.60606028,4347.36363593,4117.09090868,42.0,42.0,?
2017-07-31 19:12:51.524980,4577.12121166,3095.03030272,4222.18181776,2781.81818154,3933.6969693,292.606060577,3909.48484809,494.545454496,4326.24242381,309.09090906,4455.03030258,453.333333288,4294.81818139,3659.63636327,4429.27272683,3008.48484818,4996.45454495,3123.87878757,4241.75757533,185.454545436,4470.99999955,3713.21212084,4179.93939352,2818.90909063,4908.36363587,3284.60606028,4355.09090866,4117.09090868,42.0,42.0,?
2017-07-31 19:12:51.528901,4572.99999954,3095.03030272,4218.06060564,2781.81818154,3935.75757536,292.606060577,3896.0909087,494.545454496,4297.39393896,309.09090906,4436.99999956,453.333333288,4300.48484805,3659.63636327,4425.15151471,3008.48484818,4989.75757526,3123.87878757,4241.24242382,185.454545436,4471.51515107,3713.21212084,4180.96969655,2818.90909063,4902.18181769,3284.60606028,4354.06060563,4117.09090868,42.0,42.0,?
2017-07-31 19:12:51.534657,4578.66666621,3095.03030272,4225.27272685,2781.81818154,3940.393939,292.606060577,3874.45454507,494.545454496,4299.45454502,309.09090906,4435.96969653,453.333333288,4296.36363593,3659.63636327,4423.09090865,3008.48484818,4985.63636314,3123.87878757,4246.90909048,185.454545436,4476.1515147,3713.21212084,4181.48484807,2818.90909063,4902.18181769,3284.60606028,4355.60606017,4117.09090868,42.0,42.0,?
2017-07-31 19:12:51.541948,4572.48484803,3095.03030272,4215.48484806,2781.81818154,3944.51515112,292.606060577,3885.27272688,494.545454496,4324.69696926,309.09090906,4453.99999955,453.333333288,4305.63636321,3659.63636327,4441.63636319,3008.48484818,5011.39393889,3123.87878757,4249.48484806,185.454545436,4478.21212076,3713.21212084,4176.84848443,2818.90909063,4902.18181769,3284.60606028,4359.21212078,4117.09090868,42.0,42.0,?
2017-07-31 19:12:51.551155,4568.87878742,3095.03030272,4218.57575715,2781.81818154,3927.51515112,292.606060577,3904.33333294,494.545454496,4311.81818139,309.09090906,4462.2424238,453.333333288,4311.30302987,3659.63636327,4440.60606016,3008.48484818,5008.3030298,3123.87878757,4225.27272685,185.454545436,4465.33333289,3713.21212084,4174.27272686,2818.90909063,4895.484848,3284.60606028,4347.36363593,4117.09090868,42.0,42.0,?
2017-07-31 19:12:51.558843,4574.54545409,3095.03030272,4221.66666624,2781.81818154,3929.06060567,292.606060577,3913.0909087,494.545454496,4306.66666624,309.09090906,4469.96969652,453.333333288,4308.7272723,3659.63636327,4429.78787834,3008.48484818,4993.36363586,3123.87878757,4226.30302988,185.454545436,4465.33333289,3713.21212084,4179.42424201,2818.90909063,4899.0909086,3284.60606028,4349.42424199,4117.09090868,42.0,42.0,?
2017-07-31 19:12:51.566448,4583.81818136,3095.03030272,4222.69696927,2781.81818154,3954.30302991,292.606060577,3905.87878749,494.545454496,4336.0303026,309.09090906,4466.36363592,453.333333288,4301.51515109,3659.63636327,4444.21212077,3008.48484818,5014.9999995,3123.87878757,4264.424242,185.454545436,4486.45454501,3713.21212084,4184.57575716,2818.90909063,4909.3939389,3284.60606028,4374.66666623,4117.09090868,42.0,42.0,?
2017-07-31 19:12:51.573467,4590.51515106,3095.03030272,4230.93939352,2781.81818154,3952.75757536,292.606060577,3896.0909087,494.545454496,4336.54545411,309.09090906,4453.48484804,453.333333288,4298.42424199,3659.63636327,4448.8484844,3008.48484818,5027.87878738,3123.87878757,4274.7272723,185.454545436,4496.75757531,3713.21212084,4183.54545413,2818.90909063,4916.0909086,3284.60606028,4379.81818138,4117.09090868,42.0,42.0,?
2017-07-31 19:12:51.582347,4572.99999954,3095.03030272,4218.06060564,2781.81818154,3931.12121173,292.606060577,3907.42424203,494.545454496,4307.69696927,309.09090906,4456.57575713,453.333333288,4301.51515109,3659.63636327,4424.12121168,3008.48484818,4999.03030253,3123.87878757,4256.18181776,185.454545436,4482.8484844,3713.21212084,4179.93939352,2818.90909063,4910.42424193,3284.60606028,4360.75757532,4117.09090868,42.0,42.0,?
2017-07-31 19:12:51.589978,4565.27272682,3095.03030272,4218.06060564,2781.81818154,3920.81818143,292.606060577,3908.45454506,494.545454496,4295.3333329,309.09090906,4450.39393895,453.333333288,4286.06060563,3659.63636327,4405.57575714,3008.48484818,4979.45454496,3123.87878757,4248.96969654,185.454545436,4473.57575713,3713.21212084,4179.93939352,2818.90909063,4900.63636315,3284.60606028,4347.36363593,4117.09090868,42.0,42.0,?
2017-07-31 19:12:51.596957,4568.36363591,3095.03030272,4219.09090867,2781.81818154,3928.54545415,292.606060577,3906.393939,494.545454496,4316.45454502,309.09090906,4442.15151471,453.333333288,4282.96969654,3659.63636327,4426.69696925,3008.48484818,5017.57575707,3123.87878757,4259.27272685,185.454545436,4477.69696925,3713.21212084,4182.5151511,2818.90909063,4902.18181769,3284.60606028,4349.42424199,4117.09090868,42.0,42.0,?
2017-07-31 19:12:51.607105,4560.12121167,3095.03030272,4210.84848443,2781.81818154,3929.06060567,292.606060577,3925.45454506,494.545454496,4335.51515108,309.09090906,4451.93939349,453.333333288,4296.36363593,3659.63636327,4442.66666622,3008.48484818,5041.27272677,3123.87878757,4254.1212117,185.454545436,4471.51515107,3713.21212084,4177.87878746,2818.90909063,4899.60606012,3284.60606028,4348.39393896,4117.09090868,42.0,42.0,?
2017-07-31 19:12:51.614908,4554.96969651,3095.03030272,4217.54545412,2781.81818154,3914.12121173,292.606060577,3922.36363597,494.545454496,4318.51515108,309.09090906,4443.18181774,453.333333288,4285.0303026,3659.63636327,4421.03030259,3008.48484818,4996.96969647,3123.87878757,4230.93939352,185.454545436,4452.45454501,3713.21212084,4173.75757534,2818.90909063,4882.60606012,3284.60606028,4334.99999957,4117.09090868,42.0,42.0,?
2017-07-31 19:12:51.620593,4544.1515147,3095.03030272,4211.87878746,2781.81818154,3903.30302991,292.606060577,3881.15151476,494.545454496,4301.51515109,309.09090906,4430.81818138,453.333333288,4273.69696927,3659.63636327,4408.15151471,3008.48484818,4977.90909041,3123.87878757,4224.24242382,185.454545436,4442.15151471,3713.21212084,4174.78787837,2818.90909063,4867.15151466,3284.60606028,4324.69696926,4117.09090868,42.0,42.0,?
2017-07-31 19:12:51.627873,4544.1515147,3095.03030272,4212.39393897,2781.81818154,3900.72727234,292.606060577,3858.4848481,494.545454496,4293.27272684,309.09090906,4442.66666622,453.333333288,4275.75757533,3659.63636327,4405.57575714,3008.48484818,4993.87878738,3123.87878757,4226.8181814,185.454545436,4445.75757531,3713.21212084,4176.84848443,2818.90909063,4872.30302982,3284.60606028,4324.69696926,4117.09090868,42.0,42.0,?
2017-07-31 19:12:51.638871,4553.93939348,3095.03030272,4216.51515109,2781.81818154,3911.54545415,292.606060577,3880.12121173,494.545454496,4287.60606018,309.09090906,4449.87878743,453.333333288,4276.78787836,3659.63636327,4401.96969653,3008.48484818,4988.21212071,3123.87878757,4232.99999958,185.454545436,4454.51515107,3713.21212084,4179.93939352,2818.90909063,4885.69696921,3284.60606028,4334.99999957,4117.09090868,42.0,42.0,?
2017-07-31 19:12:51.649987,4551.36363591,3095.03030272,4208.78787837,2781.81818154,3915.15151476,292.606060577,3907.93939355,494.545454496,4313.36363593,309.09090906,4445.2424238,453.333333288,4281.93939351,3659.63636327,4414.33333289,3008.48484818,4985.63636314,3123.87878757,4240.7272723,185.454545436,4455.03030258,3713.21212084,4178.90909049,2818.90909063,4885.18181769,3284.60606028,4336.0303026,4117.09090868,42.0,42.0,?
2017-07-31 19:12:51.654937,4556.51515106,3095.03030272,4211.87878746,2781.81818154,3916.69696931,292.606060577,3910.51515112,494.545454496,4316.96969654,309.09090906,4456.06060561,453.333333288,4291.7272723,3659.63636327,4424.12121168,3008.48484818,5008.81818132,3123.87878757,4247.424242,185.454545436,4452.96969652,3713.21212084,4182.5151511,2818.90909063,4880.54545406,3284.60606028,4328.30302987,4117.09090868,42.0,42.0,?
2017-07-31 19:12:51.658828,4566.81818136,3095.03030272,4216.51515109,2781.81818154,3931.63636324,292.606060577,3910.51515112,494.545454496,4318.51515108,309.09090906,4473.57575713,453.333333288,4300.99999957,3659.63636327,4426.18181774,3008.48484818,5013.96969647,3123.87878757,4262.36363594,185.454545436,4466.36363592,3713.21212084,4185.60606019,2818.90909063,4887.75757527,3284.60606028,4336.54545411,4117.09090868,42.0,42.0,?
2017-07-31 19:12:51.667025,4566.81818136,3095.03030272,4216.51515109,2781.81818154,3931.63636324,292.606060577,3908.96969658,494.545454496,4318.51515108,309.09090906,4465.8484844,453.333333288,4295.84848442,3659.63636327,4423.09090865,3008.48484818,5013.96969647,3123.87878757,4262.36363594,185.454545436,4478.72727228,3713.21212084,4185.60606019,2818.90909063,4901.15151466,3284.60606028,4346.84848441,4117.09090868,42.0,42.0,?
2017-07-31 19:12:51.675895,4567.84848439,3095.03030272,4217.03030261,2781.81818154,3916.69696931,292.606060577,3905.36363597,494.545454496,4324.18181775,309.09090906,4458.12121168,453.333333288,4285.54545412,3659.63636327,4417.9393935,3008.48484818,5012.93939344,3123.87878757,4256.18181776,185.454545436,4469.45454501,3713.21212084,4182.5151511,2818.90909063,4901.66666618,3284.60606028,4338.60606017,4117.09090868,42.0,42.0,?
2017-07-31 19:12:51.683644,4555.99999954,3095.03030272,4203.1212117,2781.81818154,3911.03030264,292.606060577,3902.27272688,494.545454496,4320.57575714,309.09090906,4466.36363592,453.333333288,4295.84848442,3659.63636327,4421.5454541,3008.48484818,5011.90909041,3123.87878757,4253.09090867,185.454545436,4459.66666622,3713.21212084,4181.48484807,2818.90909063,4894.96969648,3284.60606028,4332.42424199,4117.09090868,42.0,42.0,?
2017-07-31 19:12:51.692437,4562.69696924,3095.03030272,4212.90909049,2781.81818154,3916.69696931,292.606060577,3893.51515113,494.545454496,4299.96969654,309.09090906,4450.90909046,453.333333288,4295.84848442,3659.63636327,4420.51515107,3008.48484818,4997.9999995,3123.87878757,4246.90909048,185.454545436,4461.72727228,3713.21212084,4181.99999958,2818.90909063,4895.99999951,3284.60606028,4329.84848442,4117.09090868,42.0,42.0,?
2017-07-31 19:12:51.698908,4559.60606015,3095.03030272,4208.78787837,2781.81818154,3919.27272688,292.606060577,3881.66666628,494.545454496,4289.15151472,309.09090906,4426.69696925,453.333333288,4272.66666624,3659.63636327,4414.33333289,3008.48484818,4990.78787829,3123.87878757,4246.90909048,185.454545436,4462.2424238,3713.21212084,4182.5151511,2818.90909063,4892.90909042,3284.60606028,4327.78787836,4117.09090868,42.0,42.0,?
2017-07-31 19:12:51.706897,4554.454545,3095.03030272,4205.69696928,2781.81818154,3918.24242385,292.606060577,3885.7878784,494.545454496,4294.81818139,309.09090906,4441.63636319,453.333333288,4259.78787836,3659.63636327,4406.09090865,3008.48484818,5001.60606011,3123.87878757,4254.1212117,185.454545436,4461.72727228,3713.21212084,4181.48484807,2818.90909063,4890.33333284,3284.60606028,4332.93939351,4117.09090868,42.0,42.0,?
2017-07-31 19:12:51.713875,4561.1515147,3095.03030272,4217.03030261,2781.81818154,3913.0909087,292.606060577,3909.99999961,494.545454496,4307.18181775,309.09090906,4468.42424198,453.333333288,4273.69696927,3659.63636327,4402.99999956,3008.48484818,5010.87878738,3123.87878757,4247.93939351,185.454545436,4461.72727228,3713.21212084,4179.93939352,2818.90909063,4893.42424193,3284.60606028,4332.42424199,4117.09090868,42.0,42.0,?
2017-07-31 19:12:51.723783,4547.24242379,3095.03030272,4185.60606019,2781.81818154,3916.69696931,292.606060577,3917.72727234,494.545454496,4311.81818139,309.09090906,4465.33333289,453.333333288,4296.87878745,3659.63636327,4415.36363592,3008.48484818,5011.90909041,3123.87878757,4242.78787836,185.454545436,4457.60606016,3713.21212084,4177.87878746,2818.90909063,4883.63636315,3284.60606028,4329.3333329,4117.09090868,42.0,42.0,?
2017-07-31 19:12:51.731075,4559.09090864,3095.03030272,4217.54545412,2781.81818154,3907.93939355,292.606060577,3904.33333294,494.545454496,4293.27272684,309.09090906,4448.33333289,453.333333288,4288.63636321,3659.63636327,4409.69696926,3008.48484818,4994.90909041,3123.87878757,4236.09090867,185.454545436,4462.75757531,3713.21212084,4181.99999958,2818.90909063,4888.7878783,3284.60606028,4325.21212078,4117.09090868,42.0,42.0,?
2017-07-31 19:12:51.738927,4569.90909045,3095.03030272,4238.15151473,2781.81818154,3907.93939355,292.606060577,3912.57575718,494.545454496,4292.24242381,309.09090906,4442.66666622,453.333333288,4273.18181775,3659.63636327,4396.81818138,3008.48484818,4981.51515102,3123.87878757,4235.57575715,185.454545436,4460.18181774,3713.21212084,4179.42424201,2818.90909063,4891.87878739,3284.60606028,4325.72727229,4117.09090868,42.0,42.0,?
2017-07-31 19:12:51.746499,4538.99999955,3095.03030272,4163.96969655,2781.81818154,3934.72727233,292.606060577,3911.54545415,494.545454496,4314.90909048,309.09090906,4453.48484804,453.333333288,4275.24242381,3659.63636327,4402.48484804,3008.48484818,4986.66666617,3123.87878757,4245.36363594,185.454545436,4447.30302986,3713.21212084,4167.57575716,2818.90909063,4866.63636315,3284.60606028,4335.51515108,4117.09090868,42.0,42.0,?
2017-07-31 19:12:51.754937,4559.09090864,3095.03030272,4208.78787837,2781.81818154,3933.18181779,292.606060577,3880.63636325,494.545454496,4305.63636321,309.09090906,4465.33333289,453.333333288,4272.66666624,3659.63636327,4396.81818138,3008.48484818,4983.57575708,3123.87878757,4242.27272685,185.454545436,4462.75757531,3713.21212084,4179.93939352,2818.90909063,4890.33333284,3284.60606028,4336.54545411,4117.09090868,42.0,42.0,?
2017-07-31 19:12:51.761717,4583.81818136,3095.03030272,4245.87878745,2781.81818154,3925.96969658,292.606060577,3897.63636325,494.545454496,4298.93939351,309.09090906,4467.39393895,453.333333288,4290.18181775,3659.63636327,4409.69696926,3008.48484818,5008.3030298,3123.87878757,4252.57575715,185.454545436,4484.90909046,3713.21212084,4191.27272685,2818.90909063,4918.15151466,3284.60606028,4344.27272684,4117.09090868,42.0,42.0,?
2017-07-31 19:12:51.769493,4558.0606056,3095.03030272,4197.96969655,2781.81818154,3925.96969658,292.606060577,3930.0909087,494.545454496,4317.99999957,309.09090906,4460.69696925,453.333333288,4294.81818139,3659.63636327,4421.5454541,3008.48484818,5027.87878738,3123.87878757,4254.1212117,185.454545436,4474.09090864,3713.21212084,4176.33333292,2818.90909063,4892.90909042,3284.60606028,4341.18181775,4117.09090868,42.0,42.0,?
2017-07-31 19:12:51.778576,4553.42424197,3095.03030272,4212.90909049,2781.81818154,3921.84848446,292.606060577,3922.36363597,494.545454496,4323.66666623,309.09090906,4466.36363592,453.333333288,4273.69696927,3659.63636327,4401.45454501,3008.48484818,5002.63636314,3123.87878757,4237.63636321,185.454545436,4462.2424238,3713.21212084,4175.30302989,2818.90909063,4886.21212072,3284.60606028,4325.72727229,4117.09090868,42.0,42.0,?
2017-07-31 19:12:51.785267,4566.30302985,3095.03030272,4218.06060564,2781.81818154,3937.81818142,292.606060577,3914.63636324,494.545454496,4305.12121169,309.09090906,4464.81818137,453.333333288,4278.84848442,3659.63636327,4399.39393895,3008.48484818,4996.45454495,3123.87878757,4254.63636321,185.454545436,4471.51515107,3713.21212084,4185.09090867,2818.90909063,4899.60606012,3284.60606028,4337.06060563,4117.09090868,42.0,42.0,?
2017-07-31 19:12:51.793786,4574.54545409,3095.03030272,4217.54545412,2781.81818154,3941.42424203,292.606060577,3903.81818143,494.545454496,4291.21212078,309.09090906,4445.2424238,453.333333288,4287.09090866,3659.63636327,4407.12121168,3008.48484818,5007.78787829,3123.87878757,4272.15151472,185.454545436,4485.93939349,3713.21212084,4188.18181776,2818.90909063,4907.84848436,3284.60606028,4352.51515108,4117.09090868,42.0,42.0,?
2017-07-31 19:12:51.800138,4564.7575753,3140.36363605,4213.424242,2781.81818154,3929.06060567,292.606060577,3895.06060567,494.545454496,4307.18181775,309.09090906,4458.12121168,453.333333288,4279.87878745,3659.63636327,4403.51515107,3008.48484818,5009.33333283,3123.87878757,4265.45454503,185.454545436,4481.81818137,3713.21212084,4182.5151511,2818.90909063,4901.66666618,3284.60606028,4345.30302987,4117.09090868,42.0,42.0,?
2017-07-31 19:12:51.808021,4559.09090864,3140.36363605,4211.36363594,2781.81818154,3924.42424203,292.606060577,3886.81818143,494.545454496,4306.66666624,309.09090906,4468.93939349,453.333333288,4260.81818139,3659.63636327,4390.6363632,3008.48484818,4994.39393889,3123.87878757,4255.66666624,185.454545436,4470.48484804,3713.21212084,4176.84848443,2818.90909063,4893.42424193,3284.60606028,4335.51515108,4117.09090868,42.0,42.0,?
2017-07-31 19:12:51.817515,4574.03030257,3140.36363605,4222.18181776,2781.81818154,3937.30302991,292.606060577,3895.57575719,494.545454496,4294.30302987,309.09090906,4449.87878743,453.333333288,4262.36363594,3659.63636327,4396.30302986,3008.48484818,4989.24242374,3123.87878757,4261.84848442,185.454545436,4477.18181773,3713.21212084,4182.5151511,2818.90909063,4903.72727224,3284.60606028,4343.75757532,4129.45454504,42.0,42.0,?
2017-07-31 19:12:51.824239,4574.54545409,3140.36363605,4213.93939352,2781.81818154,3938.84848445,300.848484818,3931.63636324,494.545454496,4306.15151472,309.09090906,4455.5454541,453.333333288,4287.09090866,3659.63636327,4415.36363592,3008.48484818,5004.18181768,3123.87878757,4269.06060563,185.454545436,4483.36363592,3713.21212084,4184.57575716,2818.90909063,4908.36363587,3284.60606028,4349.9393935,4129.45454504,42.0,42.0,?
2017-07-31 19:12:51.832368,4568.87878742,3140.36363605,4217.54545412,2781.81818154,3917.21212082,300.848484818,3934.21212082,527.515151462,4309.24242381,309.09090906,4473.57575713,453.333333288,4289.15151472,3659.63636327,4408.15151471,3008.48484818,5009.33333283,3123.87878757,4253.09090867,185.454545436,4476.1515147,3713.21212084,4180.96969655,2818.90909063,4901.15151466,3284.60606028,4336.0303026,4129.45454504,42.0,42.0,?
2017-07-31 19:12:51.839960,4564.7575753,3140.36363605,4211.87878746,2781.81818154,3922.87878749,300.848484818,3906.393939,527.515151462,4309.75757533,267.878787852,4482.33333289,453.333333288,4293.27272684,3659.63636327,4409.18181774,3008.48484818,5022.72727222,3123.87878757,4261.33333291,185.454545436,4478.72727228,3713.21212084,4183.03030261,2818.90909063,4903.21212072,3284.60606028,4338.09090866,4129.45454504,42.0,42.0,?
2017-07-31 19:12:51.849016,4569.90909045,3140.36363605,4217.03030261,2781.81818154,3936.27272688,300.848484818,3889.393939,527.515151462,4312.3333329,267.878787852,4484.90909046,453.333333288,4300.48484805,3659.63636327,4415.36363592,3008.48484818,5024.27272677,3123.87878757,4280.90909048,185.454545436,4485.42424198,3713.21212084,4185.60606019,2818.90909063,4909.90909042,3284.60606028,4344.78787835,4129.45454504,42.0,42.0,?
2017-07-31 19:12:51.858842,4563.72727227,3140.36363605,4218.06060564,2781.81818154,3920.81818143,300.848484818,3894.03030264,527.515151462,4300.99999957,267.878787852,4469.45454501,453.333333288,4286.57575715,3643.15151479,4405.57575714,3008.48484818,4997.9999995,3123.87878757,4265.45454503,185.454545436,4469.96969652,3713.21212084,4179.42424201,2818.90909063,4897.03030254,3284.60606028,4327.78787836,4129.45454504,42.0,42.0,?
2017-07-31 19:12:51.870626,4553.42424197,3140.36363605,4205.69696928,2781.81818154,3912.57575718,300.848484818,3908.96969658,527.515151462,4289.66666624,267.878787852,4458.12121168,453.333333288,4284.51515109,3643.15151479,4408.66666623,3074.42424212,4995.93939344,3123.87878757,4253.60606018,185.454545436,4465.33333289,3713.21212084,4177.87878746,2818.90909063,4888.7878783,3284.60606028,4323.15151472,4129.45454504,42.0,42.0,?
2017-07-31 19:12:51.873936,4575.0606056,3140.36363605,4225.27272685,2781.81818154,3927.51515112,300.848484818,3912.06060567,527.515151462,4298.42424199,267.878787852,4479.75757531,453.333333288,4292.75757533,3643.15151479,4412.27272683,3074.42424212,5010.36363586,3148.60606029,4268.0303026,185.454545436,4485.93939349,3713.21212084,4185.60606019,2818.90909063,4906.30302981,3284.60606028,4343.75757532,4129.45454504,42.0,42.0,?
2017-07-31 19:12:51.878395,4574.54545409,3140.36363605,4220.63636321,2781.81818154,3939.36363597,300.848484818,3906.90909052,527.515151462,4308.21212078,267.878787852,4487.48484804,453.333333288,4279.87878745,3643.15151479,4398.36363592,3074.42424212,5002.63636314,3148.60606029,4276.27272685,193.696969678,4489.5454541,3713.21212084,4184.06060564,2818.90909063,4908.36363587,3284.60606028,4349.42424199,4129.45454504,42.0,42.0,?
2017-07-31 19:12:51.886698,4559.09090864,3140.36363605,4210.33333291,2781.81818154,3925.96969658,300.848484818,3891.45454507,527.515151462,4281.424242,267.878787852,4452.45454501,453.333333288,4255.15151473,3643.15151479,4388.06060562,3074.42424212,4980.9999995,3148.60606029,4258.24242382,193.696969678,4471.51515107,3721.45454508,4175.30302989,2818.90909063,4892.3939389,3284.60606028,4333.45454502,4129.45454504,42.0,42.0,?
2017-07-31 19:12:51.893997,4566.81818136,3140.36363605,4218.57575715,2781.81818154,3918.75757537,300.848484818,3892.4848481,527.515151462,4265.45454503,267.878787852,4438.5454541,453.333333288,4252.57575715,3643.15151479,4390.12121168,3074.42424212,4986.15151465,3148.60606029,4246.90909048,193.696969678,4466.36363592,3721.45454508,4175.30302989,2818.90909063,4890.33333284,3284.60606028,4331.39393896,4129.45454504,42.0,42.0,?
2017-07-31 19:12:51.903015,4568.87878742,3140.36363605,4210.84848443,2781.81818154,3933.18181779,300.848484818,3924.42424203,527.515151462,4295.3333329,267.878787852,4464.81818137,453.333333288,4267.51515109,3643.15151479,4395.27272683,3074.42424212,5014.48484798,3148.60606029,4263.39393897,193.696969678,4477.18181773,3721.45454508,4179.93939352,2818.90909063,4897.03030254,3309.333333,4348.39393896,4129.45454504,42.0,42.0,?
2017-07-31 19:12:51.909969,4571.96969651,3140.36363605,4218.57575715,2781.81818154,3930.60606021,300.848484818,3919.27272688,527.515151462,4304.60606018,267.878787852,4474.09090864,453.333333288,4266.48484806,3643.15151479,4395.27272683,3074.42424212,5018.6060601,3148.60606029,4270.60606018,185.454545436,4481.81818137,3721.45454508,4181.48484807,2818.90909063,4903.21212072,3309.333333,4349.9393935,4129.45454504,42.0,42.0,?
2017-07-31 19:12:51.919841,4566.30302985,3140.36363605,4213.93939352,2781.81818154,3919.27272688,300.848484818,3877.54545416,527.515151462,4291.7272723,267.878787852,4465.8484844,453.333333288,4262.87878745,3643.15151479,4398.87878744,3074.42424212,5003.15151465,3148.60606029,4264.93939351,185.454545436,4479.75757531,3713.21212084,4180.45454504,2818.90909063,4901.66666618,3309.333333,4338.09090866,4129.45454504,42.0,42.0,?
2017-07-31 19:12:51.926407,4558.57575712,3140.36363605,4206.21212079,2781.81818154,3919.27272688,300.848484818,3876.51515113,527.515151462,4297.90909048,267.878787852,4467.90909046,453.333333288,4263.39393897,3643.15151479,4391.66666623,3074.42424212,4984.60606011,3148.60606029,4252.06060564,185.454545436,4472.5454541,3713.21212084,4177.36363595,2818.90909063,4892.90909042,3309.333333,4327.78787836,4129.45454504,42.0,42.0,?
2017-07-31 19:12:51.939985,4564.24242379,3140.36363605,4215.99999958,2781.81818154,3923.393939,300.848484818,3906.90909052,527.515151462,4299.96969654,267.878787852,4477.69696925,453.333333288,4275.24242381,3643.15151479,4380.84848441,3074.42424212,4971.72727223,3148.60606029,4247.93939351,185.454545436,4470.99999955,3713.21212084,4180.45454504,2818.90909063,4894.45454497,3309.333333,4327.78787836,4129.45454504,42.0,42.0,?
2017-07-31 19:12:51.942757,4558.57575712,3140.36363605,4209.8181814,2781.81818154,3920.30302991,300.848484818,3902.27272688,527.515151462,4285.54545412,267.878787852,4476.1515147,453.333333288,4284.51515109,3643.15151479,4392.18181774,3074.42424212,4987.18181768,3148.60606029,4258.75757533,185.454545436,4474.09090864,3713.21212084,4184.06060564,2818.90909063,4895.484848,3309.333333,4332.93939351,4129.45454504,42.0,42.0,?
2017-07-31 19:12:51.948866,4559.60606015,3140.36363605,4214.96969655,2781.81818154,3906.393939,300.848484818,3868.27272689,527.515151462,4275.75757533,267.878787852,4462.2424238,453.333333288,4254.63636321,3643.15151479,4389.60606017,3074.42424212,5001.60606011,3148.60606029,4248.96969654,185.454545436,4468.93939349,3713.21212084,4177.36363595,2818.90909063,4888.7878783,3309.333333,4321.60606017,4129.45454504,42.0,42.0,?
2017-07-31 19:12:51.956928,4563.72727227,3140.36363605,4212.39393897,2781.81818154,3914.63636324,300.848484818,3871.87878749,527.515151462,4288.63636321,267.878787852,4462.75757531,453.333333288,4242.78787836,3643.15151479,4378.78787835,3074.42424212,4997.9999995,3148.60606029,4244.84848442,185.454545436,4468.42424198,3713.21212084,4177.87878746,2818.90909063,4888.27272678,3309.333333,4319.54545411,4129.45454504,42.0,42.0,?
2017-07-31 19:12:51.964628,4565.78787833,3140.36363605,4208.78787837,2781.81818154,3928.03030264,300.848484818,3896.60606022,527.515151462,4296.87878745,267.878787852,4467.39393895,453.333333288,4275.24242381,3643.15151479,4392.69696926,3074.42424212,5002.12121162,3148.60606029,4257.21212079,185.454545436,4477.18181773,3713.21212084,4186.1212117,2818.90909063,4896.51515103,3309.333333,4333.45454502,4129.45454504,42.0,42.0,?
2017-07-31 19:12:51.972028,4567.84848439,3140.36363605,4217.03030261,2781.81818154,3916.69696931,300.848484818,3901.24242385,527.515151462,4274.21212078,267.878787852,4458.63636319,453.333333288,4281.424242,3643.15151479,4403.51515107,3074.42424212,5010.87878738,3148.60606029,4252.57575715,185.454545436,4478.21212076,3713.21212084,4184.06060564,2818.90909063,4899.0909086,3309.333333,4330.36363593,4129.45454504,42.0,42.0,?
2017-07-31 19:12:51.981845,4547.7575753,3140.36363605,4201.57575716,2781.81818154,3909.99999961,300.848484818,3885.7878784,527.515151462,4266.48484806,267.878787852,4451.42424198,453.333333288,4256.18181776,3643.15151479,4391.15151471,3074.42424212,4995.93939344,3148.60606029,4244.33333291,185.454545436,4465.8484844,3713.21212084,4176.84848443,2818.90909063,4885.69696921,3309.333333,4316.45454502,4129.45454504,42.0,42.0,?
2017-07-31 19:12:51.988884,4547.24242379,3140.36363605,4207.75757534,2781.81818154,3911.03030264,300.848484818,3860.54545416,527.515151462,4273.18181775,267.878787852,4442.15151471,453.333333288,4239.69696927,3643.15151479,4372.09090865,3074.42424212,4974.30302981,3148.60606029,4241.24242382,185.454545436,4460.18181774,3713.21212084,4179.93939352,2818.90909063,4881.06060557,3309.333333,4312.84848442,4129.45454504,42.0,42.0,?
2017-07-31 19:12:51.996466,4563.21212076,3140.36363605,4213.424242,2781.81818154,3912.06060567,300.848484818,3862.60606022,527.515151462,4273.69696927,267.878787852,4446.27272683,453.333333288,4246.90909048,3643.15151479,4373.12121168,3074.42424212,4995.42424192,3148.60606029,4249.48484806,185.454545436,4469.96969652,3713.21212084,4185.60606019,2818.90909063,4889.81818133,3309.333333,4320.57575714,4129.45454504,42.0,42.0,?
2017-07-31 19:12:52.005034,4551.87878742,3140.36363605,4201.06060564,2781.81818154,3905.36363597,300.848484818,3876.51515113,527.515151462,4273.18181775,267.878787852,4459.66666622,453.333333288,4259.27272685,3643.15151479,4369.51515108,3074.42424212,5003.66666617,3148.60606029,4250.51515109,185.454545436,4465.8484844,3713.21212084,4179.93939352,2818.90909063,4882.60606012,3309.333333,4315.93939351,4129.45454504,42.0,42.0,?
2017-07-31 19:12:52.011609,4541.06060561,3140.36363605,4207.75757534,2781.81818154,3895.57575719,300.848484818,3871.87878749,527.515151462,4265.96969654,267.878787852,4449.36363592,453.333333288,4253.60606018,3643.15151479,4355.09090866,3074.42424212,4977.90909041,3148.60606029,4236.09090867,185.454545436,4447.81818137,3713.21212084,4174.27272686,2818.90909063,4869.21212073,3309.333333,4300.48484805,4129.45454504,42.0,42.0,?
2017-07-31 19:12:52.020188,4535.90909046,3140.36363605,4201.57575716,2781.81818154,3902.27272688,300.848484818,3867.75757537,527.515151462,4260.30302988,267.878787852,4431.84848441,453.333333288,4238.66666624,3643.15151479,4364.36363593,3074.42424212,4989.24242374,3148.60606029,4239.69696927,185.454545436,4448.33333289,3713.21212084,4174.78787837,2818.90909063,4867.66666618,3309.333333,4299.45454502,4129.45454504,42.0,42.0,?
2017-07-31 19:12:52.029061,4538.99999955,3140.36363605,4204.66666625,2781.81818154,3902.7878784,300.848484818,3855.90909052,527.515151462,4257.7272723,267.878787852,4427.72727228,453.333333288,4227.84848443,3643.15151479,4369.51515108,3074.42424212,4991.3030298,3148.60606029,4242.27272685,185.454545436,4456.57575713,3713.21212084,4176.84848443,2818.90909063,4871.7878783,3309.333333,4303.06060563,4129.45454504,42.0,42.0,?
2017-07-31 19:12:52.035630,4543.12121167,3140.36363605,4208.78787837,2781.81818154,3900.21212082,300.848484818,3859.51515113,527.515151462,4270.60606018,267.878787852,4445.75757531,453.333333288,4242.78787836,3643.15151479,4371.57575714,3074.42424212,4975.84848435,3148.60606029,4234.03030261,185.454545436,4453.48484804,3713.21212084,4175.8181814,2818.90909063,4871.7878783,3309.333333,4302.0303026,4129.45454504,42.0,42.0,?
2017-07-31 19:12:52.044959,4538.99999955,3140.36363605,4200.03030261,2781.81818154,3905.87878749,300.848484818,3887.33333294,527.515151462,4279.87878745,267.878787852,4462.2424238,453.333333288,4260.81818139,3643.15151479,4380.84848441,3074.42424212,4999.54545405,3148.60606029,4238.66666624,185.454545436,4452.45454501,3713.21212084,4175.30302989,2818.90909063,4869.21212073,3309.333333,4299.96969654,4129.45454504,42.0,42.0,?
2017-07-31 19:12:52.052497,4543.63636318,3140.36363605,4210.33333291,2781.81818154,3904.84848446,300.848484818,3883.21212082,527.515151462,4265.96969654,267.878787852,4444.72727228,453.333333288,4243.30302988,3643.15151479,4366.9393935,3074.42424212,5011.90909041,3148.60606029,4243.30302988,185.454545436,4454.51515107,3713.21212084,4175.8181814,2818.90909063,4869.72727224,3309.333333,4298.93939351,4129.45454504,42.0,42.0,?
2017-07-31 19:12:52.058053,4537.96969652,3140.36363605,4203.63636322,2781.81818154,3904.33333294,300.848484818,3869.30302992,527.515151462,4264.424242,267.878787852,4430.30302986,453.333333288,4241.75757533,3643.15151479,4361.27272684,3074.42424212,4990.78787829,3148.60606029,4243.30302988,185.454545436,4453.99999955,3713.21212084,4176.33333292,2818.90909063,4868.69696921,3309.333333,4301.51515109,4129.45454504,42.0,42.0,?
2017-07-31 19:12:52.067913,4532.81818136,3140.36363605,4200.54545413,2781.81818154,3896.60606022,300.848484818,3866.72727234,527.515151462,4264.424242,267.878787852,4438.5454541,453.333333288,4254.1212117,3643.15151479,4368.48484805,3074.42424212,4974.81818132,3148.60606029,4237.1212117,185.454545436,4448.8484844,3713.21212084,4174.78787837,2818.90909063,4865.60606012,3309.333333,4294.30302987,4129.45454504,42.0,42.0,?
2017-07-31 19:12:52.073993,4534.87878743,3140.36363605,4205.18181776,2781.81818154,3889.90909052,300.848484818,3848.69696931,527.515151462,4245.87878745,267.878787852,4431.33333289,453.333333288,4232.99999958,3643.15151479,4359.72727229,3074.42424212,4975.33333284,3148.60606029,4228.36363594,185.454545436,4440.09090865,3713.21212084,4174.27272686,2818.90909063,4860.45454497,3309.333333,4284.51515109,4129.45454504,42.0,42.0,?
2017-07-31 19:12:52.082043,4526.12121167,3140.36363605,4195.39393897,2781.81818154,3893.51515113,300.848484818,3840.96969659,527.515151462,4236.09090867,267.878787852,4416.90909047,453.333333288,4213.424242,3643.15151479,4346.84848441,3074.42424212,4978.93939344,3148.60606029,4226.30302988,185.454545436,4431.33333289,3713.21212084,4174.27272686,2818.90909063,4854.27272679,3309.333333,4288.12121169,4129.45454504,42.0,42.0,?
2017-07-31 19:12:52.090687,4530.24242379,3140.36363605,4204.66666625,2781.81818154,3884.75757537,300.848484818,3856.93939355,527.515151462,4243.81818139,267.878787852,4424.12121168,453.333333288,4224.75757534,3643.15151479,4347.87878744,3074.42424212,4974.30302981,3148.60606029,4223.7272723,185.454545436,4432.87878744,3713.21212084,4175.30302989,2818.90909063,4855.30302982,3309.333333,4288.12121169,4129.45454504,42.0,42.0,?
2017-07-31 19:12:52.097102,4531.27272682,3140.36363605,4197.45454503,2781.81818154,3885.7878784,300.848484818,3873.93939355,527.515151462,4257.7272723,267.878787852,4435.45454501,453.333333288,4241.24242382,3643.15151479,4363.3333329,3074.42424212,4977.3939389,3148.60606029,4232.99999958,185.454545436,4442.15151471,3713.21212084,4177.36363595,2818.90909063,4859.93939345,3309.333333,4285.54545412,4129.45454504,42.0,42.0,?
2017-07-31 19:12:52.104917,4528.69696924,3140.36363605,4194.36363594,2781.81818154,3899.69696931,300.848484818,3873.93939355,527.515151462,4260.30302988,267.878787852,4433.90909047,453.333333288,4234.54545412,3643.15151479,4362.81818138,3074.42424212,5015.51515101,3148.60606029,4234.54545412,185.454545436,4440.60606016,3713.21212084,4175.30302989,2818.90909063,4860.45454497,3309.333333,4285.54545412,4129.45454504,42.0,42.0,?
2017-07-31 19:12:52.114704,4529.72727227,3140.36363605,4206.21212079,2781.81818154,3889.90909052,300.848484818,3865.1818178,527.515151462,4254.1212117,267.878787852,4433.90909047,453.333333288,4228.36363594,3643.15151479,4350.45454502,3074.42424212,5090.72727222,3148.60606029,4215.99999958,185.454545436,4426.18181774,3713.21212084,4171.69696928,2818.90909063,4852.21212073,3309.333333,4278.33333291,4129.45454504,42.0,42.0,?
2017-07-31 19:12:52.121374,4515.81818137,3140.36363605,4193.33333291,2781.81818154,3874.45454507,300.848484818,3856.93939355,527.515151462,4252.06060564,267.878787852,4432.36363592,453.333333288,4235.06060564,3643.15151479,4355.60606017,3074.42424212,5155.12121161,3148.60606029,4215.48484806,185.454545436,4419.48484804,3713.21212084,4174.27272686,2818.90909063,4844.484848,3309.333333,4271.12121169,4129.45454504,42.0,42.0,?
2017-07-31 19:12:52.128978,4520.96969652,3140.36363605,4200.54545413,2781.81818154,3875.4848481,300.848484818,3853.33333295,527.515151462,4252.06060564,267.878787852,4431.84848441,453.333333288,4230.93939352,3643.15151479,4358.18181775,3074.42424212,5162.33333282,3148.60606029,4225.78787837,185.454545436,4428.75757531,3713.21212084,4179.42424201,2818.90909063,4852.72727224,3309.333333,4273.18181775,4129.45454504,42.0,42.0,?
2017-07-31 19:12:52.139159,4530.7575753,3140.36363605,4206.21212079,2781.81818154,3891.96969658,300.848484818,3856.42424204,527.515151462,4261.84848442,267.878787852,4450.90909046,453.333333288,4238.66666624,3643.15151479,4361.27272684,3074.42424212,5167.48484797,3148.60606029,4230.424242,185.454545436,4434.9393935,3713.21212084,4178.39393898,2818.90909063,4860.45454497,3309.333333,4282.45454503,4129.45454504,42.0,42.0,?
2017-07-31 19:12:52.144383,4532.81818136,3140.36363605,4202.09090867,2781.81818154,3903.30302991,300.848484818,3851.7878784,527.515151462,4264.424242,267.878787852,4454.51515107,453.333333288,4262.36363594,3643.15151479,4378.27272683,3074.42424212,5189.1212116,3148.60606029,4232.99999958,185.454545436,4434.42424198,3713.21212084,4176.84848443,2818.90909063,4859.42424194,3309.333333,4290.18181775,4129.45454504,42.0,42.0,?
2017-07-31 19:12:52.155198,4543.63636318,3140.36363605,4209.8181814,2781.81818154,3902.7878784,300.848484818,3865.69696931,527.515151462,4256.18181776,267.878787852,4435.96969653,453.333333288,4262.87878745,3643.15151479,4388.06060562,3074.42424212,5186.03030251,3148.60606029,4235.06060564,185.454545436,4441.12121168,3713.21212084,4178.90909049,2818.90909063,4867.15151466,3309.333333,4295.84848442,4129.45454504,42.0,42.0,?
2017-07-31 19:12:52.161164,4531.78787833,3140.36363605,4198.48484806,2781.81818154,3900.21212082,300.848484818,3879.60606022,527.515151462,4249.48484806,267.878787852,4430.81818138,453.333333288,4240.21212079,3643.15151479,4375.18181774,3074.42424212,5167.99999948,3148.60606029,4232.99999958,185.454545436,4436.48484804,3713.21212084,4176.33333292,2818.90909063,4861.99999951,3309.333333,4290.69696927,4129.45454504,42.0,42.0,?
2017-07-31 19:12:52.168465,4524.57575712,3140.36363605,4203.1212117,2781.81818154,3889.393939,300.848484818,3863.63636325,527.515151462,4241.75757533,267.878787852,4430.30302986,453.333333288,4230.93939352,3643.15151479,4359.21212078,3074.42424212,5157.18181767,3148.60606029,4222.18181776,185.454545436,4425.15151471,3713.21212084,4174.27272686,2818.90909063,4851.69696921,3309.333333,4276.78787836,4129.45454504,42.0,42.0,?
2017-07-31 19:12:52.178085,4532.81818136,3140.36363605,4205.69696928,2781.81818154,3894.03030264,300.848484818,3863.63636325,527.515151462,4255.15151473,267.878787852,4432.87878744,453.333333288,4247.93939351,3643.15151479,4367.96969653,3074.42424212,5165.42424191,3148.60606029,4229.90909049,185.454545436,4434.9393935,3713.21212084,4177.87878746,2818.90909063,4860.96969648,3309.333333,4281.93939351,4129.45454504,42.0,42.0,?
2017-07-31 19:12:52.183706,4532.81818136,3140.36363605,4195.90909049,2781.81818154,3906.90909052,300.848484818,3864.66666628,527.515151462,4272.15151472,267.878787852,4442.66666622,453.333333288,4248.45454503,3643.15151479,4377.2424238,3074.42424212,5177.78787827,3148.60606029,4243.81818139,185.454545436,4444.21212077,3713.21212084,4175.30302989,2818.90909063,4867.15151466,3309.333333,4298.93939351,4129.45454504,42.0,42.0,?
2017-07-31 19:12:52.192730,4536.42424197,3140.36363605,4206.21212079,2781.81818154,3902.27272688,300.848484818,3853.84848446,527.515151462,4266.48484806,267.878787852,4451.42424198,453.333333288,4240.21212079,3643.15151479,4372.60606017,3074.42424212,5176.75757524,3148.60606029,4243.81818139,185.454545436,4440.09090865,3713.21212084,4174.27272686,2818.90909063,4865.0909086,3309.333333,4299.96969654,4129.45454504,42.0,42.0,?
2017-07-31 19:12:52.198934,4528.69696924,3140.36363605,4199.5151511,2781.81818154,3892.99999961,300.848484818,3879.60606022,527.515151462,4266.99999957,267.878787852,4451.93939349,453.333333288,4256.69696927,3643.15151479,4378.78787835,3074.42424212,5175.21212069,3148.60606029,4239.18181776,185.454545436,4435.45454501,3713.21212084,4174.78787837,2818.90909063,4859.42424194,3309.333333,4291.7272723,4129.45454504,42.0,42.0,?
2017-07-31 19:12:52.206979,4531.27272682,3140.36363605,4200.54545413,2781.81818154,3897.12121173,300.848484818,3904.84848446,527.515151462,4277.30302988,267.878787852,4447.81818137,453.333333288,4256.18181776,3643.15151479,4373.12121168,3074.42424212,5165.93939342,3148.60606029,4230.424242,185.454545436,4439.06060562,3713.21212084,4173.24242383,2818.90909063,4859.93939345,3309.333333,4290.69696927,4129.45454504,42.0,42.0,?
2017-07-31 19:12:52.215907,4551.87878742,3140.36363605,4208.78787837,2781.81818154,3918.75757537,300.848484818,3899.69696931,527.515151462,4283.48484806,267.878787852,4462.75757531,453.333333288,4250.51515109,3643.15151479,4370.03030259,3074.42424212,5162.84848433,3148.60606029,4247.424242,185.454545436,4454.51515107,3713.21212084,4180.45454504,2818.90909063,4875.39393891,3309.333333,4307.69696927,4129.45454504,42.0,42.0,?
2017-07-31 19:12:52.223022,4550.33333288,3140.36363605,4202.60606019,2781.81818154,3918.75757537,300.848484818,3882.69696931,527.515151462,4277.81818139,267.878787852,4468.93939349,453.333333288,4262.87878745,3643.15151479,4381.36363593,3074.42424212,5172.63636312,3148.60606029,4264.424242,185.454545436,4456.06060561,3713.21212084,4181.99999958,2818.90909063,4876.93939345,3309.333333,4312.84848442,4129.45454504,42.0,42.0,?
2017-07-31 19:12:52.230737,4541.57575712,3140.36363605,4207.75757534,2781.81818154,3896.0909087,300.848484818,3863.63636325,527.515151462,4266.99999957,267.878787852,4449.87878743,453.333333288,4256.18181776,3643.15151479,4372.60606017,3074.42424212,5172.63636312,3148.60606029,4247.93939351,185.454545436,4443.69696925,3713.21212084,4175.8181814,2818.90909063,4866.63636315,3309.333333,4302.54545412,4129.45454504,42.0,42.0,?
2017-07-31 19:12:52.238439,4536.93939349,3140.36363605,4200.54545413,2781.81818154,3902.7878784,300.848484818,3872.90909052,527.515151462,4271.63636321,267.878787852,4442.66666622,453.333333288,4245.87878745,3643.15151479,4376.72727229,3074.42424212,5178.30302979,3148.60606029,4246.39393897,185.454545436,4444.21212077,3713.21212084,4178.39393898,2818.90909063,4866.12121163,3309.333333,4307.18181775,4129.45454504,42.0,42.0,?
2017-07-31 19:12:52.246841,4541.06060561,3140.36363605,4202.60606019,2781.81818154,3914.63636324,300.848484818,3892.4848481,527.515151462,4275.24242381,267.878787852,4451.42424198,453.333333288,4251.03030261,3643.15151479,4392.69696926,3074.42424212,5176.75757524,3148.60606029,4251.54545412,185.454545436,4446.78787834,3713.21212084,4180.45454504,2818.90909063,4871.27272679,3309.333333,4312.3333329,4129.45454504,42.0,42.0,?
2017-07-31 19:12:52.259303,4541.06060561,3140.36363605,4205.69696928,2781.81818154,3908.96969658,300.848484818,3885.27272688,527.515151462,4272.15151472,267.878787852,4452.96969652,453.333333288,4257.21212079,3643.15151479,4389.09090865,3074.42424212,5167.48484797,3148.60606029,4246.39393897,185.454545436,4439.06060562,3713.21212084,4176.33333292,2818.90909063,4867.66666618,3309.333333,4307.69696927,4129.45454504,42.0,42.0,?
2017-07-31 19:12:52.262387,4531.78787833,3140.36363605,4192.30302988,2781.81818154,3904.84848446,300.848484818,3873.42424204,527.515151462,4276.78787836,267.878787852,4450.39393895,453.333333288,4256.69696927,3643.15151479,4382.90909047,3074.42424212,5169.54545403,3148.60606029,4247.424242,185.454545436,4435.45454501,3713.21212084,4176.84848443,2818.90909063,4860.45454497,3309.333333,4306.66666624,4129.45454504,42.0,42.0,?
2017-07-31 19:12:52.268973,4540.54545409,3140.36363605,4204.15151473,2781.81818154,3897.12121173,300.848484818,3883.21212082,527.515151462,4282.45454503,267.878787852,4455.5454541,453.333333288,4247.424242,3643.15151479,4379.81818138,3074.42424212,5157.18181767,3148.60606029,4238.66666624,185.454545436,4438.03030259,3713.21212084,4176.84848443,2818.90909063,4863.54545406,3309.333333,4304.09090866,4129.45454504,42.0,42.0,?
2017-07-31 19:12:52.279207,4536.93939349,3140.36363605,4201.06060564,2781.81818154,3898.15151476,300.848484818,3887.84848446,527.515151462,4283.48484806,267.878787852,4460.69696925,453.333333288,4241.24242382,3643.15151479,4376.72727229,3074.42424212,5146.36363585,3148.60606029,4227.84848443,185.454545436,4435.45454501,3713.21212084,4174.27272686,2818.90909063,4860.45454497,3309.333333,4302.0303026,4129.45454504,42.0,42.0,?
2017-07-31 19:12:52.285837,4531.78787833,3140.36363605,4197.96969655,2781.81818154,3907.42424203,300.848484818,3869.30302992,527.515151462,4269.06060563,267.878787852,4453.99999955,453.333333288,4245.36363594,3643.15151479,4370.54545411,3074.42424212,5152.54545403,3148.60606029,4229.90909049,185.454545436,4430.81818138,3713.21212084,4177.36363595,2818.90909063,4856.84848436,3309.333333,4304.09090866,4129.45454504,42.0,42.0,?
2017-07-31 19:12:52.294543,4543.63636318,3140.36363605,4207.24242382,2781.81818154,3903.81818143,300.848484818,3869.81818143,527.515151462,4256.69696927,267.878787852,4445.75757531,453.333333288,4250.51515109,3643.15151479,4369.51515108,3074.42424212,5159.75757524,3148.60606029,4238.15151473,185.454545436,4436.99999956,3713.21212084,4180.96969655,2818.90909063,4867.66666618,3309.333333,4307.18181775,4129.45454504,42.0,42.0,?
2017-07-31 19:12:52.301475,4535.39393894,3107.39393908,4194.36363594,2781.81818154,3896.60606022,300.848484818,3888.36363597,527.515151462,4257.7272723,267.878787852,4443.69696925,453.333333288,4246.90909048,3643.15151479,4373.12121168,3074.42424212,5156.15151464,3148.60606029,4241.24242382,185.454545436,4442.15151471,3713.21212084,4176.84848443,2818.90909063,4867.66666618,3309.333333,4306.66666624,4129.45454504,42.0,42.0,?
2017-07-31 19:12:52.308932,4540.54545409,3107.39393908,4203.63636322,2777.69696942,3902.7878784,300.848484818,3883.21212082,527.515151462,4265.96969654,267.878787852,4451.93939349,453.333333288,4243.81818139,3643.15151479,4373.6363632,3074.42424212,5147.39393888,3148.60606029,4243.81818139,185.454545436,4448.33333289,3713.21212084,4178.90909049,2818.90909063,4868.69696921,3309.333333,4308.7272723,4129.45454504,42.0,42.0,?
2017-07-31 19:12:52.316778,4561.1515147,3107.39393908,4208.78787837,2777.69696942,3924.42424203,300.848484818,3875.99999961,527.515151462,4289.66666624,267.878787852,4468.93939349,453.333333288,4261.33333291,3643.15151479,4387.54545411,3074.42424212,5160.27272676,3148.60606029,4265.45454503,185.454545436,4464.30302986,3713.21212084,4187.15151473,2818.90909063,4888.27272678,3309.333333,4327.27272684,4133.57575716,42.0,42.0,?
2017-07-31 19:12:52.324550,4560.12121167,3107.39393908,4202.60606019,2777.69696942,3927.51515112,313.212121181,3886.30302991,527.515151462,4297.39393896,267.878787852,4471.51515107,453.333333288,4264.93939351,3643.15151479,4393.72727229,3074.42424212,5166.96969645,3148.60606029,4272.15151472,185.454545436,4465.8484844,3713.21212084,4184.06060564,2818.90909063,4892.3939389,3309.333333,4333.96969654,4133.57575716,42.0,42.0,?
2017-07-31 19:12:52.334970,4551.87878742,3107.39393908,4208.78787837,2777.69696942,3914.63636324,313.212121181,3897.12121173,457.454545409,4281.93939351,267.878787852,4466.87878743,453.333333288,4248.45454503,3643.15151479,4379.30302987,3074.42424212,5160.27272676,3148.60606029,4253.60606018,185.454545436,4453.99999955,3713.21212084,4178.90909049,2818.90909063,4881.06060557,3309.333333,4322.12121169,4133.57575716,42.0,42.0,?
2017-07-31 19:12:52.340080,4553.42424197,3107.39393908,4202.09090867,2777.69696942,3928.54545415,313.212121181,3906.393939,457.454545409,4291.21212078,271.999999973,4480.78787834,453.333333288,4261.84848442,3643.15151479,4391.15151471,3074.42424212,5176.75757524,3148.60606029,4263.90909048,185.454545436,4461.21212077,3713.21212084,4182.5151511,2818.90909063,4887.24242375,3309.333333,4331.39393896,4133.57575716,42.0,42.0,?
2017-07-31 19:12:52.350310,4566.81818136,3107.39393908,4211.87878746,2777.69696942,3938.84848445,313.212121181,3911.03030264,457.454545409,4310.78787836,271.999999973,4492.12121167,395.636363597,4271.63636321,3643.15151479,4407.12121168,3074.42424212,5178.30302979,3148.60606029,4276.78787836,185.454545436,4470.48484804,3713.21212084,4183.03030261,2818.90909063,4901.66666618,3309.333333,4349.9393935,4133.57575716,42.0,42.0,?
2017-07-31 19:12:52.355426,4562.18181773,3107.39393908,4212.39393897,2777.69696942,3933.6969693,313.212121181,3914.63636324,457.454545409,4308.7272723,271.999999973,4490.06060561,395.636363597,4271.12121169,3643.15151479,4396.30302986,3074.42424212,5154.09090858,3148.60606029,4268.54545412,185.454545436,4461.21212077,3713.21212084,4181.48484807,2818.90909063,4893.42424193,3309.333333,4348.90909047,4133.57575716,42.0,42.0,?
2017-07-31 19:12:52.362883,4550.84848439,3107.39393908,4202.09090867,2777.69696942,3931.63636324,313.212121181,3899.69696931,457.454545409,4292.24242381,271.999999973,4480.27272682,395.636363597,4274.21212078,3643.15151479,4380.84848441,3070.30303,5153.57575706,3148.60606029,4263.39393897,185.454545436,4451.93939349,3713.21212084,4181.99999958,2818.90909063,4882.60606012,3309.333333,4338.60606017,4133.57575716,42.0,42.0,?
2017-07-31 19:12:52.372251,4564.24242379,3107.39393908,4214.45454503,2777.69696942,3931.63636324,313.212121181,3875.99999961,457.454545409,4289.15151472,271.999999973,4476.66666622,395.636363597,4267.51515109,3643.15151479,4388.57575714,3070.30303,5170.06060554,3090.9090906,4269.57575715,185.454545436,4458.63636319,3713.21212084,4183.03030261,2818.90909063,4892.90909042,3309.333333,4339.6363632,4133.57575716,42.0,42.0,?
2017-07-31 19:12:52.381164,4569.39393894,3107.39393908,4209.8181814,2777.69696942,3943.48484809,313.212121181,3900.72727234,457.454545409,4314.39393896,271.999999973,4493.1515147,395.636363597,4279.36363594,3643.15151479,4417.9393935,3070.30303,5181.39393888,3090.9090906,4290.18181775,173.090909074,4473.06060561,3713.21212084,4185.09090867,2818.90909063,4902.18181769,3309.333333,4357.15151472,4133.57575716,42.0,42.0,?
2017-07-31 19:12:52.402149,4570.42424197,3107.39393908,4212.90909049,2777.69696942,3948.63636324,313.212121181,3934.21212082,457.454545409,4309.24242381,271.999999973,4494.18181773,395.636363597,4296.36363593,3643.15151479,4422.57575713,3070.30303,5177.27272675,3090.9090906,4293.27272684,173.090909074,4475.63636319,3709.09090872,4186.1212117,2818.90909063,4900.63636315,3309.333333,4367.45454502,4133.57575716,42.0,42.0,?
2017-07-31 19:12:52.405426,4560.63636318,3107.39393908,4203.1212117,2777.69696942,3938.84848445,313.212121181,3902.7878784,457.454545409,4313.87878745,271.999999973,4504.48484803,395.636363597,4275.24242381,3643.15151479,4404.54545411,3070.30303,5179.33333282,3090.9090906,4283.48484806,173.090909074,4467.90909046,3709.09090872,4184.06060564,2827.15151487,4893.93939345,3247.51515119,4360.75757532,4133.57575716,42.0,42.0,?
2017-07-31 19:12:52.407573,4560.63636318,3107.39393908,4203.1212117,2777.69696942,3938.84848445,313.212121181,3902.7878784,457.454545409,4313.87878745,271.999999973,4504.48484803,395.636363597,4275.24242381,3643.15151479,4404.54545411,3070.30303,5179.33333282,3090.9090906,4283.48484806,173.090909074,4467.90909046,3709.09090872,4184.06060564,2827.15151487,4893.93939345,3247.51515119,4360.75757532,4133.57575716,42.0,42.0,?
2017-07-31 19:12:52.415387,4567.33333288,3107.39393908,4217.03030261,2777.69696942,3934.72727233,313.212121181,3896.60606022,457.454545409,4308.21212078,271.999999973,4495.72727228,395.636363597,4270.09090866,3643.15151479,4397.84848441,3070.30303,5165.93939342,3090.9090906,4283.48484806,177.212121194,4469.96969652,3709.09090872,4183.03030261,2827.15151487,4898.57575709,3247.51515119,4363.3333329,4133.57575716,42.0,42.0,?
2017-07-31 19:12:52.420881,4580.21212075,3107.39393908,4216.51515109,2777.69696942,3960.9999996,313.212121181,3914.63636324,457.454545409,4337.57575714,271.999999973,4487.99999955,395.636363597,4285.54545412,3643.15151479,4403.51515107,3070.30303,5180.87878736,3090.9090906,4294.81818139,177.212121194,4475.12121167,3709.09090872,4185.60606019,2827.15151487,4902.69696921,3247.51515119,4367.45454502,4133.57575716,42.0,42.0,?
2017-07-31 19:12:52.439081,4598.7575753,3107.39393908,4228.87878746,2777.69696942,3966.66666627,313.212121181,3948.63636324,457.454545409,4356.12121169,271.999999973,4565.27272682,395.636363597,4331.39393896,3643.15151479,4434.9393935,3070.30303,5194.27272675,3090.9090906,4305.12121169,177.212121194,4496.75757531,3709.09090872,4191.78787837,2818.90909063,4923.81818133,3247.51515119,4374.66666623,4133.57575716,42.0,42.0,?
2017-07-31 19:12:52.440694,4589.48484803,3107.39393908,4215.48484806,2777.69696942,3968.21212082,313.212121181,3948.12121173,457.454545409,4338.60606017,271.999999973,4522.51515106,395.636363597,4318.51515108,3643.15151479,4440.60606016,3070.30303,5198.39393887,3090.9090906,4292.75757533,177.212121194,4494.69696925,3709.09090872,4190.24242382,2818.90909063,4926.3939389,3247.51515119,4386.51515108,4133.57575716,42.0,42.0,?
2017-07-31 19:12:52.444059,4589.48484803,3107.39393908,4215.48484806,2777.69696942,3968.21212082,313.212121181,3948.12121173,457.454545409,4338.60606017,271.999999973,4522.51515106,395.636363597,4318.51515108,3643.15151479,4440.60606016,3070.30303,5198.39393887,3090.9090906,4292.75757533,177.212121194,4494.69696925,3709.09090872,4190.24242382,2818.90909063,4926.3939389,3247.51515119,4386.51515108,4133.57575716,42.0,42.0,?
2017-07-31 19:12:52.453600,4588.454545,3107.39393908,4220.63636321,2777.69696942,3962.54545415,313.212121181,3936.27272688,457.454545409,4319.54545411,271.999999973,4504.99999955,395.636363597,4303.06060563,3643.15151479,4436.48484804,3070.30303,5199.4242419,3090.9090906,4279.36363594,177.212121194,4491.60606016,3709.09090872,4184.57575716,2818.90909063,4923.81818133,3247.51515119,4380.3333329,4133.57575716,42.0,42.0,?
2017-07-31 19:12:52.458646,4594.12121166,3107.39393908,4220.1212117,2777.69696942,3969.75757536,313.212121181,3943.48484809,457.454545409,4337.06060563,271.999999973,4542.09090864,395.636363597,4310.27272684,3643.15151479,4432.36363592,3070.30303,5206.63636312,3090.9090906,4303.57575715,177.212121194,4498.81818137,3709.09090872,4184.06060564,2818.90909063,4924.33333284,3247.51515119,4389.09090865,4133.57575716,42.0,42.0,?
2017-07-31 19:12:52.465680,4591.03030257,3107.39393908,4220.1212117,2777.69696942,3977.48484809,313.212121181,3937.30302991,457.454545409,4342.21212078,271.999999973,4527.66666621,395.636363597,4293.78787836,3643.15151479,4423.09090865,3070.30303,5194.27272675,3090.9090906,4318.51515108,177.212121194,4498.81818137,3709.09090872,4184.57575716,2818.90909063,4918.66666617,3247.51515119,4394.2424238,4133.57575716,42.0,42.0,?
2017-07-31 19:12:52.473531,4597.72727227,3107.39393908,4229.39393897,2777.69696942,3975.93939354,313.212121181,3922.87878749,457.454545409,4332.42424199,271.999999973,4490.57575713,395.636363597,4275.75757533,3643.15151479,4425.15151471,3070.30303,5185.515151,3090.9090906,4315.42424199,177.212121194,4503.454545,3709.09090872,4189.21212079,2818.90909063,4923.30302981,3247.51515119,4399.39393895,4133.57575716,42.0,42.0,?
2017-07-31 19:12:52.481965,4600.81818136,3107.39393908,4217.54545412,2777.69696942,3982.12121172,313.212121181,3938.33333294,457.454545409,4344.27272684,271.999999973,4521.48484803,395.636363597,4305.12121169,3643.15151479,4442.15151471,3070.30303,5193.24242372,3090.9090906,4337.06060563,177.212121194,4517.87878743,3709.09090872,4191.27272685,2818.90909063,4936.6969692,3247.51515119,4415.36363592,4133.57575716,42.0,42.0,?
2017-07-31 19:12:52.488415,4606.48484802,3107.39393908,4226.8181814,2777.69696942,3986.24242384,313.212121181,3943.48484809,457.454545409,4347.36363593,271.999999973,4560.63636318,395.636363597,4325.72727229,3643.15151479,4438.03030259,3070.30303,5179.84848433,3090.9090906,4342.21212078,177.212121194,4520.96969652,3709.09090872,4188.18181776,2818.90909063,4943.3939389,3247.51515119,4415.36363592,4133.57575716,42.0,42.0,?
2017-07-31 19:12:52.501542,4600.30302984,3107.39393908,4227.84848443,2777.69696942,3983.66666627,313.212121181,3934.21212082,457.454545409,4338.09090866,271.999999973,4538.99999955,395.636363597,4312.3333329,3643.15151479,4426.69696925,3070.30303,5178.8181813,3090.9090906,4315.93939351,177.212121194,4510.66666622,3709.09090872,4187.66666625,2818.90909063,4933.0909086,3247.51515119,4402.48484804,4133.57575716,42.0,42.0,?
2017-07-31 19:12:52.508316,4588.454545,3107.39393908,4217.54545412,2777.69696942,3975.42424203,313.212121181,3943.99999961,457.454545409,4334.48484805,271.999999973,4508.09090864,395.636363597,4294.30302987,3643.15151479,4423.60606016,3070.30303,5187.06060554,3090.9090906,4303.06060563,177.212121194,4502.93939349,3709.09090872,4184.57575716,2818.90909063,4919.6969692,3247.51515119,4397.33333289,4133.57575716,42.0,42.0,?
2017-07-31 19:12:52.512855,4594.12121166,3107.39393908,4222.69696927,2777.69696942,3976.96969657,313.212121181,3962.54545415,457.454545409,4338.60606017,271.999999973,4531.78787833,395.636363597,4298.93939351,3643.15151479,4422.57575713,3070.30303,5176.24242372,3090.9090906,4322.6363632,177.212121194,4508.09090864,3709.09090872,4183.54545413,2818.90909063,4922.7878783,3247.51515119,4406.09090865,4133.57575716,42.0,42.0,?
2017-07-31 19:12:52.521287,4588.96969651,3107.39393908,4214.96969655,2777.69696942,3983.66666627,313.212121181,3943.99999961,457.454545409,4337.06060563,271.999999973,4544.1515147,395.636363597,4317.48484805,3643.15151479,4428.75757531,3070.30303,5172.63636312,3090.9090906,4342.21212078,177.212121194,4509.63636319,3709.09090872,4186.63636322,2818.90909063,4923.30302981,3247.51515119,4407.6363632,4133.57575716,42.0,42.0,?
2017-07-31 19:12:52.529110,4587.42424197,3107.39393908,4222.18181776,2777.69696942,3965.63636324,313.212121181,3904.84848446,457.454545409,4321.09090866,271.999999973,4507.57575713,395.636363597,4299.96969654,3643.15151479,4419.99999956,3070.30303,5167.99999948,3090.9090906,4321.09090866,177.212121194,4497.78787834,3709.09090872,4184.06060564,2818.90909063,4916.0909086,3247.51515119,4391.15151471,4133.57575716,42.0,42.0,?
2017-07-31 19:12:52.535862,4587.93939348,3107.39393908,4222.18181776,2777.69696942,3960.9999996,313.212121181,3922.87878749,457.454545409,4322.6363632,271.999999973,4511.18181773,395.636363597,4276.78787836,3643.15151479,4407.12121168,3070.30303,5152.54545403,3090.9090906,4307.18181775,177.212121194,4492.12121167,3709.09090872,4180.96969655,2818.90909063,4909.90909042,3247.51515119,4387.54545411,4133.57575716,42.0,42.0,?
2017-07-31 19:12:52.543645,4579.18181772,3107.39393908,4211.87878746,2777.69696942,3979.03030263,313.212121181,3937.81818142,457.454545409,4321.60606017,271.999999973,4524.57575712,395.636363597,4275.75757533,3643.15151479,4407.6363632,3070.30303,5146.36363585,3090.9090906,4320.06060563,177.212121194,4490.57575713,3709.09090872,4184.06060564,2818.90909063,4902.69696921,3247.51515119,4398.36363592,4133.57575716,42.0,42.0,?
2017-07-31 19:12:52.550971,4578.15151469,3107.39393908,4219.09090867,2777.69696942,3972.84848445,313.212121181,3904.84848446,457.454545409,4298.42424199,271.999999973,4480.27272682,395.636363597,4266.48484806,3643.15151479,4401.45454501,3070.30303,5146.87878736,3090.9090906,4313.36363593,177.212121194,4482.8484844,3709.09090872,4186.1212117,2818.90909063,4898.06060557,3247.51515119,4390.12121168,4133.57575716,42.0,42.0,?
2017-07-31 19:12:52.564646,4566.30302985,3107.39393908,4209.30302988,2777.69696942,3967.18181779,313.212121181,3916.18181779,457.454545409,4299.45454502,271.999999973,4466.36363592,395.636363597,4266.99999957,3643.15151479,4395.27272683,3070.30303,5142.24242373,3090.9090906,4301.51515109,177.212121194,4473.57575713,3709.09090872,4183.03030261,2818.90909063,4890.84848436,3247.51515119,4376.21212077,4133.57575716,42.0,42.0,?
2017-07-31 19:12:52.575843,4571.96969651,3107.39393908,4213.93939352,2777.69696942,3975.42424203,313.212121181,3942.45454506,457.454545409,4320.06060563,271.999999973,4511.18181773,395.636363597,4267.51515109,3643.15151479,4393.21212077,3070.30303,5126.78787828,3090.9090906,4295.3333329,177.212121194,4474.60606016,3709.09090872,4180.96969655,2818.90909063,4890.84848436,3247.51515119,4378.78787835,4133.57575716,42.0,42.0,?
2017-07-31 19:12:52.578172,4589.48484803,3107.39393908,4222.69696927,2777.69696942,3981.09090869,313.212121181,3924.93939355,457.454545409,4331.39393896,271.999999973,4548.27272682,395.636363597,4283.99999957,3643.15151479,4404.54545411,3070.30303,5137.60606009,3090.9090906,4296.87878745,177.212121194,4486.96969652,3709.09090872,4184.06060564,2818.90909063,4906.30302981,3247.51515119,4392.69696926,4133.57575716,42.0,42.0,?
2017-07-31 19:12:52.582876,4581.7575753,3107.39393908,4212.90909049,2777.69696942,3978.51515112,313.212121181,3918.24242385,457.454545409,4319.0303026,271.999999973,4526.12121167,395.636363597,4303.06060563,3643.15151479,4412.78787835,3070.30303,5162.33333282,3090.9090906,4298.93939351,177.212121194,4485.93939349,3709.09090872,4184.57575716,2818.90909063,4907.84848436,3247.51515119,4395.27272683,4133.57575716,42.0,42.0,?
2017-07-31 19:12:52.590708,4576.60606015,3107.39393908,4216.51515109,2777.69696942,3969.75757536,313.212121181,3932.15151476,457.454545409,4294.81818139,271.999999973,4481.30302985,395.636363597,4264.93939351,3643.15151479,4389.60606017,3070.30303,5135.03030252,3090.9090906,4280.39393897,177.212121194,4468.42424198,3709.09090872,4185.09090867,2818.90909063,4890.84848436,3247.51515119,4380.3333329,4133.57575716,42.0,42.0,?
2017-07-31 19:12:52.602710,4572.99999954,3107.39393908,4210.84848443,2777.69696942,3977.48484809,313.212121181,3928.54545415,457.454545409,4300.99999957,271.999999973,4486.96969652,395.636363597,4247.424242,3643.15151479,4379.30302987,3070.30303,5105.66666616,3090.9090906,4270.60606018,177.212121194,4462.2424238,3709.09090872,4183.03030261,2818.90909063,4882.60606012,3247.51515119,4377.75757532,4133.57575716,42.0,42.0,?
2017-07-31 19:12:52.606238,4579.18181772,3107.39393908,4219.09090867,2777.69696942,3986.75757536,313.212121181,3915.66666628,457.454545409,4317.48484805,271.999999973,4502.42424197,395.636363597,4279.36363594,3643.15151479,4395.78787835,3070.30303,5125.75757525,3090.9090906,4294.81818139,177.212121194,4472.5454541,3709.09090872,4184.06060564,2818.90909063,4889.30302981,3247.51515119,4384.96969653,4133.57575716,42.0,42.0,?
2017-07-31 19:12:52.614036,4596.18181772,3107.39393908,4229.90909049,2777.69696942,3990.36363596,313.212121181,3922.36363597,457.454545409,4326.75757532,271.999999973,4507.57575713,395.636363597,4277.81818139,3643.15151479,4412.27272683,3070.30303,5146.36363585,3090.9090906,4330.36363593,177.212121194,4496.24242379,3709.09090872,4190.24242382,2818.90909063,4909.90909042,3247.51515119,4392.69696926,4133.57575716,42.0,42.0,?
2017-07-31 19:12:52.621906,4598.24242378,3107.39393908,4220.1212117,2777.69696942,3999.12121172,313.212121181,3932.66666627,457.454545409,4328.81818139,271.999999973,4532.81818136,395.636363597,4271.12121169,3643.15151479,4422.57575713,3070.30303,5146.36363585,3090.9090906,4327.27272684,177.212121194,4512.72727228,3709.09090872,4185.60606019,2818.90909063,4934.12121163,3247.51515119,4410.21212077,4133.57575716,42.0,42.0,?
2017-07-31 19:12:52.629547,4599.78787833,3107.39393908,4228.87878746,2777.69696942,3999.63636324,313.212121181,3930.60606021,457.454545409,4309.24242381,271.999999973,4530.7575753,395.636363597,4289.66666624,3643.15151479,4419.48484804,3070.30303,5145.84848433,3090.9090906,4300.99999957,177.212121194,4504.48484803,3709.09090872,4184.06060564,2818.90909063,4932.57575708,3247.51515119,4414.84848441,4133.57575716,42.0,42.0,?
2017-07-31 19:12:52.637106,4593.09090863,3107.39393908,4221.66666624,2777.69696942,4001.18181778,313.212121181,3935.75757536,457.454545409,4300.48484805,271.999999973,4510.1515147,395.636363597,4294.81818139,3643.15151479,4419.99999956,3070.30303,5164.39393888,3090.9090906,4322.6363632,177.212121194,4493.1515147,3709.09090872,4191.78787837,2818.90909063,4903.72727224,3247.51515119,4406.09090865,4133.57575716,42.0,42.0,?
2017-07-31 19:12:52.649908,4595.15151469,3107.39393908,4219.09090867,2777.69696942,4002.72727233,313.212121181,3948.63636324,457.454545409,4315.93939351,271.999999973,4536.42424197,395.636363597,4293.27272684,3643.15151479,4421.03030259,3070.30303,5163.87878736,3090.9090906,4339.12121169,177.212121194,4496.24242379,3709.09090872,4186.63636322,2818.90909063,4902.18181769,3247.51515119,4406.09090865,4133.57575716,42.0,42.0,?
