Timestamp,F3 Value,F3 Quality,FC5 Value,FC5 Quality,F7 Value,F7 Quality,T7 Value,T7 Quality,P7 Value,P7 Quality,O1 Value,O1 Quality,O2 Value,O2 Quality,P8 Value,P8 Quality,T8 Value,T8 Quality,F8 Value,F8 Quality,AF4 Value,AF4 Quality,FC6 Value,FC6 Quality,F4 Value,F4 Quality,AF3 Value,AF3 Quality,X Value,Y Value,Z Value
2017-07-31 19:28:42.806354,4505.51515106,0,4195.39393897,0,3901.75757537,0,3904.33333294,0,4255.15151473,0,4469.45454501,0,4207.75757534,0,4324.69696926,0,5028.90909041,0,4324.18181775,0,4328.81818139,0,4168.60606019,0,4834.69696921,0,4475.12121167,0,42.0,42.0,?
2017-07-31 19:28:42.809497,4464.30302986,0,4273.69696927,0,3715.2727269,0,3921.84848446,0,4340.15151472,0,4505.51515106,0,4260.30302988,3420.60606026,4339.12121169,0,4955.24242375,0,3950.18181779,0,4320.06060563,0,4194.87878746,0,4878.99999951,0,4204.66666625,0,42.0,42.0,?
2017-07-31 19:28:42.812765,4463.78787834,0,4290.18181775,0,3713.21212084,0,3927.51515112,0,4341.69696926,0,4504.99999955,0,4256.18181776,3420.60606026,4340.15151472,3037.33333303,4977.90909041,0,3943.48484809,0,4322.6363632,0,4197.45454503,0,4882.0909086,0,4208.27272685,0,42.0,42.0,?
2017-07-31 19:28:42.816950,4479.24242379,0,4297.39393896,0,3724.54545417,0,3936.78787839,0,4343.75757532,0,4514.27272682,0,4268.0303026,3420.60606026,4351.48484805,3037.33333303,4988.21212071,2996.12121182,3949.15151476,0,4328.81818139,0,4200.54545413,0,4887.24242375,0,4219.60606018,0,42.0,42.0,?
2017-07-31 19:28:42.819995,4483.36363592,0,4290.18181775,0,3725.5757572,0,3917.72727234,0,4339.6363632,0,4515.30302985,0,4272.66666624,3420.60606026,4350.96969653,3037.33333303,4972.75757526,2996.12121182,3948.12121173,168.969696953,4322.6363632,0,4199.5151511,0,4885.18181769,0,4219.60606018,0,42.0,42.0,?
2017-07-31 19:28:42.822944,4477.69696925,0,4300.99999957,0,3722.99999963,0,3913.60606021,0,4341.69696926,0,4510.1515147,0,4259.78787836,3420.60606026,4338.09090866,3037.33333303,4960.3939389,2996.12121182,3939.87878748,168.969696953,4315.93939351,3820.36363598,4197.96969655,0,4877.96969648,0,4216.51515109,0,42.0,42.0,?
2017-07-31 19:28:42.825994,4470.48484804,0,4304.09090866,0,3721.9696966,0,3936.78787839,0,4352.51515108,0,4515.30302985,0,4254.1212117,3420.60606026,4332.93939351,3037.33333303,4957.81818132,2996.12121182,3931.63636324,168.969696953,4314.90909048,3820.36363598,4194.36363594,2641.69696943,4871.27272679,0,4208.27272685,0,42.0,42.0,?
2017-07-31 19:28:42.828917,4455.5454541,0,4275.24242381,0,3705.99999963,0,3925.96969658,0,4356.6363632,0,4520.96969652,0,4255.15151473,3420.60606026,4329.3333329,3037.33333303,4941.33333284,2996.12121182,3912.06060567,168.969696953,4303.57575715,3820.36363598,4191.27272685,2641.69696943,4860.45454497,3016.72727243,4192.30302988,0,42.0,42.0,?
2017-07-31 19:28:42.833162,4457.60606016,0,4271.63636321,0,3708.5757572,0,3913.0909087,0,4360.75757532,0,4528.18181773,0,4265.45454503,3420.60606026,4340.15151472,3037.33333303,4937.72727223,2996.12121182,3920.30302991,173.090909074,4304.60606018,3820.36363598,4194.36363594,2641.69696943,4861.484848,3016.72727243,4203.63636322,0,42.0,42.0,?
2017-07-31 19:28:42.834919,4470.99999955,0,4296.87878745,0,3726.09090872,0,3931.63636324,0,4353.54545411,0,4524.57575712,0,4270.09090866,3420.60606026,4350.96969653,3037.33333303,4956.78787829,2996.12121182,3941.93939355,173.090909074,4317.48484805,3820.36363598,4196.93939352,2641.69696943,4873.84848436,3016.72727243,4222.69696927,0,42.0,42.0,?
2017-07-31 19:28:42.838123,4478.21212076,0,4296.36363593,0,3729.69696932,0,3946.57575718,0,4347.36363593,0,4516.33333288,0,4268.54545412,3420.60606026,4352.51515108,3037.33333303,4973.27272678,2996.12121182,3950.18181779,173.090909074,4326.24242381,3820.36363598,4197.45454503,2649.93939367,4879.51515103,3016.72727243,4229.39393897,0,42.0,42.0,?
2017-07-31 19:28:42.841474,4481.30302985,0,4288.12121169,0,3726.09090872,0,3931.63636324,0,4342.21212078,0,4512.21212076,0,4268.0303026,3420.60606026,4348.90909047,3037.33333303,4973.27272678,2996.12121182,3956.87878748,173.090909074,4330.87878745,3820.36363598,4202.60606019,2649.93939367,4883.12121163,3016.72727243,4238.15151473,0,42.0,42.0,?
2017-07-31 19:28:42.844838,4478.21212076,0,4297.39393896,0,3728.15151478,0,3915.66666628,0,4325.21212078,0,4507.57575713,0,4255.15151473,3420.60606026,4340.15151472,3037.33333303,4959.87878738,2996.12121182,3958.42424203,173.090909074,4331.90909048,3820.36363598,4203.1212117,2649.93939367,4883.63636315,3016.72727243,4241.24242382,0,42.0,42.0,?
2017-07-31 19:28:42.848938,4474.09090864,0,4297.90909048,0,3737.42424205,0,3921.33333294,0,4330.36363593,0,4514.78787834,0,4251.54545412,3420.60606026,4344.78787835,3037.33333303,4955.24242375,2996.12121182,3961.51515112,173.090909074,4333.45454502,3820.36363598,4194.36363594,2649.93939367,4879.51515103,3016.72727243,4240.21212079,0,42.0,42.0,?
2017-07-31 19:28:42.852258,4469.96969652,0,4288.63636321,0,3731.24242387,0,3910.51515112,0,4342.21212078,0,4514.27272682,0,4255.15151473,3420.60606026,4347.36363593,3037.33333303,4962.96969647,2996.12121182,3955.84848445,173.090909074,4327.78787836,3820.36363598,4192.8181814,2649.93939367,4876.93939345,3016.72727243,4231.96969655,0,42.0,42.0,?
2017-07-31 19:28:42.854900,4474.60606016,0,4294.81818139,0,3726.60606023,0,3905.87878749,0,4339.12121169,0,4507.06060561,0,4257.21212079,3420.60606026,4341.18181775,3037.33333303,4969.66666617,2996.12121182,3952.24242385,173.090909074,4326.75757532,3820.36363598,4199.5151511,2649.93939367,4879.51515103,3016.72727243,4236.60606018,0,42.0,42.0,?
2017-07-31 19:28:42.863162,4482.8484844,0,4301.51515109,0,3737.93939357,0,3931.12121173,0,4340.15151472,0,4515.81818137,0,4263.90909048,3420.60606026,4345.81818138,3037.33333303,4974.30302981,2996.12121182,3960.9999996,173.090909074,4334.48484805,3820.36363598,4200.54545413,2649.93939367,4885.18181769,3016.72727243,4253.60606018,0,42.0,42.0,?
2017-07-31 19:28:42.873208,4478.72727228,0,4289.66666624,0,3735.36363599,0,3938.84848445,0,4341.69696926,0,4517.36363591,0,4261.33333291,3420.60606026,4349.9393935,3037.33333303,4971.72727223,2996.12121182,3958.42424203,173.090909074,4328.30302987,3820.36363598,4196.424242,2649.93939367,4886.21212072,3016.72727243,4244.84848442,0,42.0,42.0,?
2017-07-31 19:28:42.883623,4478.21212076,0,4294.81818139,0,3733.30302993,0,3924.42424203,0,4341.18181775,0,4511.69696925,0,4258.24242382,3420.60606026,4346.84848441,3037.33333303,4949.57575708,2996.12121182,3951.21212082,173.090909074,4322.6363632,3820.36363598,4194.87878746,2649.93939367,4885.69696921,3016.72727243,4239.69696927,0,42.0,42.0,?
2017-07-31 19:28:42.891127,4481.30302985,0,4307.69696927,0,3739.48484811,0,3921.33333294,0,4338.60606017,0,4509.12121167,0,4254.1212117,3420.60606026,4337.57575714,3037.33333303,4931.54545405,2996.12121182,3946.57575718,173.090909074,4325.72727229,3820.36363598,4194.87878746,2649.93939367,4882.60606012,3016.72727243,4248.45454503,0,42.0,42.0,?
2017-07-31 19:28:42.894005,4473.57575713,0,4289.66666624,0,3735.36363599,0,3921.33333294,0,4337.06060563,0,4511.18181773,0,4251.54545412,3420.60606026,4334.99999957,3037.33333303,4954.72727223,2996.12121182,3946.57575718,173.090909074,4322.12121169,3820.36363598,4193.84848443,2649.93939367,4875.39393891,3016.72727243,4245.36363594,0,42.0,42.0,?
2017-07-31 19:28:42.901948,4469.45454501,0,4279.87878745,0,3733.30302993,0,3909.48484809,0,4334.48484805,0,4513.24242379,0,4256.18181776,3420.60606026,4344.27272684,3037.33333303,4969.15151465,2996.12121182,3954.30302991,173.090909074,4316.45454502,3820.36363598,4192.30302988,2649.93939367,4870.75757527,3016.72727243,4243.30302988,0,42.0,42.0,?
2017-07-31 19:28:42.911143,4466.87878743,0,4294.30302987,0,3736.90909054,0,3908.96969658,0,4325.21212078,0,4509.63636319,0,4252.06060564,3420.60606026,4338.60606017,3037.33333303,4937.21212072,2996.12121182,3951.72727233,173.090909074,4316.96969654,3820.36363598,4196.93939352,2649.93939367,4874.87878739,3016.72727243,4244.84848442,0,42.0,42.0,?
2017-07-31 19:28:42.918742,4472.03030258,0,4298.93939351,0,3746.69696932,0,3929.57575718,0,4328.30302987,0,4514.27272682,0,4250.51515109,3420.60606026,4335.51515108,3037.33333303,4934.12121163,2996.12121182,3954.81818142,173.090909074,4327.27272684,3820.36363598,4201.06060564,2649.93939367,4883.12121163,3016.72727243,4252.06060564,0,42.0,42.0,?
2017-07-31 19:28:42.927584,4479.75757531,0,4295.84848442,0,3752.8787875,0,3933.18181779,0,4337.57575714,0,4517.87878743,0,4254.1212117,3420.60606026,4344.27272684,3037.33333303,4946.48484799,2996.12121182,3962.54545415,173.090909074,4336.0303026,3820.36363598,4197.96969655,2649.93939367,4886.21212072,3016.72727243,4257.7272723,0,42.0,42.0,?
2017-07-31 19:28:42.934303,4474.09090864,0,4293.78787836,0,3752.36363599,0,3912.06060567,0,4338.09090866,0,4512.21212076,0,4251.03030261,3420.60606026,4343.24242381,3037.33333303,4946.48484799,2996.12121182,3953.27272688,173.090909074,4325.72727229,3820.36363598,4192.30302988,2649.93939367,4877.96969648,3016.72727243,4252.57575715,0,42.0,42.0,?
2017-07-31 19:28:42.942553,4473.57575713,0,4288.63636321,0,3762.66666629,0,3918.75757537,0,4338.09090866,0,4515.81818137,0,4252.06060564,3420.60606026,4343.24242381,3037.33333303,4967.60606011,2996.12121182,3955.33333294,173.090909074,4319.0303026,3820.36363598,4193.84848443,2649.93939367,4873.33333285,3016.72727243,4254.63636321,0,42.0,42.0,?
2017-07-31 19:28:42.948945,4474.60606016,0,4291.21212078,0,3763.69696932,0,3921.33333294,0,4327.78787836,0,4512.21212076,0,4246.39393897,3420.60606026,4334.48484805,3037.33333303,4950.60606011,2996.12121182,3958.93939354,173.090909074,4320.06060563,3820.36363598,4198.99999958,2649.93939367,4874.36363588,3016.72727243,4256.18181776,0,42.0,42.0,?
2017-07-31 19:28:42.956954,4472.03030258,0,4303.06060563,0,3763.18181781,0,3905.36363597,0,4327.78787836,0,4509.12121167,0,4243.81818139,3420.60606026,4331.90909048,3037.33333303,4926.3939389,2996.12121182,3953.27272688,173.090909074,4320.06060563,3820.36363598,4194.87878746,2649.93939367,4873.33333285,3016.72727243,4257.7272723,0,42.0,42.0,?
2017-07-31 19:28:42.966997,4474.09090864,0,4295.84848442,0,3766.78787841,0,3915.15151476,0,4337.57575714,0,4514.27272682,0,4249.99999958,3420.60606026,4342.21212078,3037.33333303,4945.96969648,2996.12121182,3950.6969693,173.090909074,4321.60606017,3820.36363598,4191.78787837,2649.93939367,4871.27272679,3016.72727243,4260.81818139,0,42.0,42.0,?
2017-07-31 19:28:42.973882,4473.06060561,0,4283.48484806,0,3762.66666629,0,3936.27272688,0,4334.48484805,0,4513.75757531,0,4247.424242,3420.60606026,4336.54545411,3037.33333303,4944.93939344,2996.12121182,3947.0909087,173.090909074,4320.57575714,3820.36363598,4196.93939352,2649.93939367,4870.75757527,3016.72727243,4256.18181776,0,42.0,42.0,?
2017-07-31 19:28:42.981198,4477.69696925,0,4294.30302987,0,3771.93939356,0,3944.51515112,0,4340.15151472,0,4519.93939349,0,4253.60606018,3420.60606026,4338.60606017,3037.33333303,4942.36363587,2996.12121182,3956.87878748,173.090909074,4327.27272684,3820.36363598,4197.45454503,2649.93939367,4875.39393891,3016.72727243,4265.45454503,0,42.0,42.0,?
2017-07-31 19:28:42.988685,4470.99999955,0,4294.81818139,0,3768.84848447,0,3916.18181779,0,4329.84848442,0,4512.72727228,0,4245.87878745,3420.60606026,4334.48484805,3037.33333303,4939.78787829,2996.12121182,3956.36363597,173.090909074,4325.72727229,3820.36363598,4192.30302988,2649.93939367,4872.30302982,3016.72727243,4265.96969654,0,42.0,42.0,?
2017-07-31 19:28:42.997420,4463.27272683,0,4286.06060563,0,3760.09090871,0,3898.15151476,0,4313.36363593,0,4503.454545,0,4231.45454503,3420.60606026,4326.75757532,3037.33333303,4927.93939345,2996.12121182,3949.15151476,173.090909074,4321.09090866,3820.36363598,4193.84848443,2649.93939367,4867.15151466,3016.72727243,4255.66666624,0,42.0,42.0,?
2017-07-31 19:28:43.004448,4472.03030258,0,4290.69696927,0,3770.90909053,0,3915.66666628,0,4334.99999957,0,4515.81818137,0,4246.39393897,3420.60606026,4341.69696926,3037.33333303,4943.90909041,2996.12121182,3954.30302991,173.090909074,4330.36363593,3820.36363598,4196.424242,2649.93939367,4874.36363588,3016.72727243,4262.87878745,0,42.0,42.0,?
2017-07-31 19:28:43.013177,4468.42424198,0,4294.30302987,0,3769.36363599,0,3916.18181779,0,4334.99999957,0,4515.30302985,0,4246.90909048,3420.60606026,4336.0303026,3037.33333303,4941.84848435,2996.12121182,3946.06060567,173.090909074,4326.75757532,3820.36363598,4195.90909049,2649.93939367,4872.81818133,3016.72727243,4261.33333291,0,42.0,42.0,?
2017-07-31 19:28:43.020626,4463.27272683,0,4287.09090866,0,3763.18181781,0,3922.36363597,0,4311.81818139,0,4507.06060561,0,4238.15151473,3420.60606026,4323.15151472,3037.33333303,4926.90909042,2996.12121182,3945.03030264,173.090909074,4320.57575714,3820.36363598,4196.93939352,2649.93939367,4867.15151466,3016.72727243,4257.21212079,0,42.0,42.0,?
2017-07-31 19:28:43.028139,4468.93939349,0,4282.96969654,0,3762.15151478,0,3932.15151476,0,4320.06060563,0,4507.06060561,0,4242.78787836,3420.60606026,4329.84848442,3037.33333303,4931.03030254,2996.12121182,3952.24242385,173.090909074,4325.21212078,3820.36363598,4195.39393897,2649.93939367,4869.72727224,3016.72727243,4259.78787836,0,42.0,42.0,?
2017-07-31 19:28:43.035820,4470.48484804,0,4290.18181775,0,3765.24242387,0,3926.48484809,0,4342.21212078,0,4510.66666622,0,4246.90909048,3420.60606026,4337.06060563,3037.33333303,4926.90909042,2996.12121182,3950.6969693,173.090909074,4332.93939351,3820.36363598,4192.8181814,2649.93939367,4871.7878783,3016.72727243,4264.424242,0,42.0,42.0,?
2017-07-31 19:28:43.045059,4469.96969652,0,4290.18181775,0,3773.48484811,0,3923.90909052,0,4338.09090866,0,4511.18181773,0,4248.96969654,3420.60606026,4338.09090866,3037.33333303,4933.0909086,2996.12121182,3952.24242385,173.090909074,4336.54545411,3820.36363598,4191.78787837,2649.93939367,4869.72727224,3016.72727243,4275.24242381,0,42.0,42.0,?
2017-07-31 19:28:43.051608,4471.51515107,0,4288.12121169,0,3768.84848447,0,3913.0909087,0,4314.39393896,0,4503.454545,0,4243.30302988,3420.60606026,4330.87878745,3037.33333303,4945.96969648,2996.12121182,3954.30302991,173.090909074,4331.39393896,3820.36363598,4194.87878746,2649.93939367,4869.21212073,3016.72727243,4272.66666624,0,42.0,42.0,?
2017-07-31 19:28:43.060616,4478.21212076,0,4296.36363593,0,3766.78787841,0,3906.393939,0,4316.96969654,0,4504.99999955,0,4241.24242382,3420.60606026,4328.81818139,3037.33333303,4928.96969648,2996.12121182,3957.90909051,173.090909074,4338.60606017,3820.36363598,4199.5151511,2649.93939367,4871.7878783,3016.72727243,4267.51515109,0,42.0,42.0,?
2017-07-31 19:28:43.066005,4471.51515107,0,4292.75757533,0,3769.8787875,0,3908.45454506,0,4327.78787836,0,4506.54545409,0,4239.18181776,3420.60606026,4329.3333329,3037.33333303,4906.30302981,2996.12121182,3950.18181779,173.090909074,4345.30302987,3820.36363598,4195.90909049,2649.93939367,4869.21212073,3016.72727243,4269.06060563,0,42.0,42.0,?
2017-07-31 19:28:43.074118,4464.81818137,0,4282.45454503,0,3765.24242387,0,3912.57575718,0,4316.45454502,0,4498.30302985,0,4232.48484806,3420.60606026,4327.78787836,3037.33333303,4920.72727224,2996.12121182,3939.87878748,173.090909074,4339.12121169,3820.36363598,4189.72727231,2649.93939367,4861.484848,3016.72727243,4275.24242381,0,42.0,42.0,?
2017-07-31 19:28:43.082697,4471.51515107,0,4287.09090866,0,3764.21212084,0,3913.60606021,0,4300.48484805,0,4496.24242379,0,4230.424242,3420.60606026,4328.81818139,3037.33333303,4939.78787829,2996.12121182,3948.63636324,173.090909074,4338.09090866,3820.36363598,4193.33333291,2649.93939367,4859.93939345,3016.72727243,4277.30302988,0,42.0,42.0,?
2017-07-31 19:28:43.091072,4482.33333289,0,4295.84848442,0,3783.27272689,0,3927.51515112,0,4316.45454502,0,4513.24242379,0,4241.75757533,3420.60606026,4338.60606017,3037.33333303,4946.99999951,2996.12121182,3971.81818142,173.090909074,4360.24242381,3820.36363598,4202.09090867,2649.93939367,4874.36363588,3016.72727243,4287.60606018,0,42.0,42.0,?
2017-07-31 19:28:43.100122,4465.8484844,0,4287.09090866,0,3768.84848447,0,3908.45454506,0,4315.42424199,0,4499.8484844,0,4226.8181814,3420.60606026,4317.99999957,3037.33333303,4923.30302981,2996.12121182,3950.6969693,173.090909074,4349.42424199,3820.36363598,4195.90909049,2649.93939367,4869.21212073,3016.72727243,4274.7272723,0,42.0,42.0,?
2017-07-31 19:28:43.106173,4451.93939349,0,4280.90909048,0,3747.21212084,0,3885.27272688,0,4301.51515109,0,4483.36363592,0,4207.24242382,3420.60606026,4296.36363593,3037.33333303,4896.51515103,2996.12121182,3923.393939,173.090909074,4325.72727229,3820.36363598,4194.36363594,2649.93939367,4857.36363588,3016.72727243,4259.27272685,0,42.0,42.0,?
2017-07-31 19:28:43.115105,4530.24242379,0,4310.78787836,0,3840.96969659,0,3988.3030299,0,4380.84848441,0,4562.69696924,0,4297.90909048,3420.60606026,4393.21212077,3037.33333303,4978.93939344,2996.12121182,4030.03030263,173.090909074,4414.84848441,3820.36363598,4208.27272685,2649.93939367,4911.96969648,3016.72727243,4357.15151472,0,42.0,42.0,?
2017-07-31 19:28:43.121757,4465.33333289,0,4286.57575715,0,3756.48484811,0,3908.96969658,0,4286.57575715,0,4482.33333289,0,4222.69696927,3420.60606026,4317.48484805,3037.33333303,4886.21212072,2996.12121182,3949.15151476,173.090909074,4349.42424199,3820.36363598,4188.18181776,2649.93939367,4865.0909086,3016.72727243,4273.18181775,0,42.0,42.0,?
2017-07-31 19:28:43.131740,4341.18181775,0,4251.03030261,0,3612.24242388,0,3745.66666629,0,4155.72727231,0,4363.3333329,0,4072.78787838,3420.60606026,4163.96969655,3037.33333303,4749.69696922,2996.12121182,3785.84848447,173.090909074,4206.72727231,3820.36363598,4188.69696928,2649.93939367,4768.24242377,3016.72727243,4118.12121171,0,42.0,42.0,?
2017-07-31 19:28:43.138622,4475.63636319,0,4295.84848442,0,3782.75757538,0,3903.81818143,0,4335.51515108,0,4518.90909046,0,4239.69696927,3420.60606026,4339.12121169,3037.33333303,4957.81818132,2996.12121182,3966.66666627,173.090909074,4353.03030259,3820.36363598,4213.424242,2649.93939367,4857.36363588,3016.72727243,4292.24242381,0,42.0,42.0,?
2017-07-31 19:28:43.145154,4520.96969652,0,4296.36363593,0,3821.90909053,0,3965.12121172,0,4371.57575714,0,4548.78787833,0,4296.36363593,3420.60606026,4395.27272683,3037.33333303,4998.51515102,2996.12121182,4023.33333293,173.090909074,4407.6363632,3820.36363598,4198.48484806,2649.93939367,4899.0909086,3016.72727243,4347.87878744,0,42.0,42.0,?
2017-07-31 19:28:43.152774,4451.42424198,0,4280.90909048,0,3738.45454508,0,3893.51515113,0,4278.84848442,0,4470.99999955,0,4202.09090867,3420.60606026,4294.30302987,3037.33333303,4873.33333285,2996.12121182,3934.72727233,173.090909074,4335.51515108,3820.36363598,4200.03030261,2649.93939367,4858.90909042,3016.72727243,4262.87878745,0,42.0,42.0,?
2017-07-31 19:28:43.160575,4484.39393895,0,4303.06060563,0,3788.93939356,0,3913.0909087,0,4323.15151472,0,4514.27272682,0,4240.7272723,3420.60606026,4340.15151472,3037.33333303,4935.15151466,2996.12121182,3980.06060566,173.090909074,4371.57575714,3820.36363598,4202.60606019,2649.93939367,4874.87878739,3016.72727243,4307.18181775,0,42.0,42.0,?
2017-07-31 19:28:43.173850,4477.69696925,0,4289.15151472,0,3777.60606023,0,3893.51515113,0,4310.78787836,0,4501.90909046,0,4236.09090867,3420.60606026,4338.60606017,3037.33333303,4953.6969692,2996.12121182,3967.6969693,173.090909074,4359.72727229,3820.36363598,4192.30302988,2649.93939367,4866.12121163,3016.72727243,4295.3333329,0,42.0,42.0,?
2017-07-31 19:28:43.177943,4472.03030258,0,4279.87878745,0,3767.30302993,0,3913.0909087,0,4300.48484805,0,4494.69696925,0,4231.45454503,3420.60606026,4329.3333329,3037.33333303,4932.57575708,2996.12121182,3965.12121172,173.090909074,4354.57575714,3820.36363598,4201.06060564,2649.93939367,4867.66666618,3016.72727243,4289.15151472,0,42.0,42.0,?
2017-07-31 19:28:43.184627,4482.8484844,0,4288.12121169,0,3778.63636326,0,3928.03030264,0,4317.48484805,0,4512.21212076,0,4248.96969654,3420.60606026,4345.81818138,3037.33333303,4926.90909042,2996.12121182,3975.93939354,173.090909074,4368.99999956,3820.36363598,4200.54545413,2649.93939367,4879.51515103,3016.72727243,4303.57575715,0,42.0,42.0,?
2017-07-31 19:28:43.193587,4482.8484844,0,4286.06060563,0,3774.51515114,0,3911.54545415,0,4321.09090866,0,4506.03030258,0,4243.30302988,3420.60606026,4340.15151472,3037.33333303,4925.36363587,2996.12121182,3962.03030263,173.090909074,4367.45454502,3820.36363598,4198.99999958,2649.93939367,4878.99999951,3016.72727243,4300.99999957,0,42.0,42.0,?
2017-07-31 19:28:43.200130,4489.5454541,3779.15151477,4283.48484806,0,3781.72727235,0,3929.06060567,0,4322.12121169,0,4502.93939349,0,4243.81818139,3420.60606026,4341.69696926,3037.33333303,4943.3939389,2996.12121182,3969.24242385,173.090909074,4369.51515108,3820.36363598,4198.48484806,2649.93939367,4877.45454497,3016.72727243,4308.21212078,0,42.0,42.0,?
2017-07-31 19:28:43.206986,4482.8484844,3779.15151477,4287.60606018,2711.75757549,3779.15151477,0,3932.15151476,0,4309.24242381,0,4499.33333288,0,4238.66666624,3420.60606026,4336.0303026,3037.33333303,4931.03030254,2996.12121182,3961.51515112,173.090909074,4360.24242381,3820.36363598,4195.39393897,2649.93939367,4870.24242376,3016.72727243,4299.96969654,0,42.0,42.0,?
2017-07-31 19:28:43.216823,4478.72727228,3779.15151477,4286.06060563,2711.75757549,3778.12121174,0,3916.69696931,0,4314.90909048,0,4502.42424197,0,4241.24242382,3420.60606026,4337.57575714,3037.33333303,4921.75757527,2996.12121182,3958.93939354,173.090909074,4361.27272684,3820.36363598,4198.48484806,2649.93939367,4871.27272679,3016.72727243,4302.0303026,4137.69696928,42.0,42.0,?
2017-07-31 19:28:43.228189,4479.24242379,3779.15151477,4281.93939351,2711.75757549,3773.99999962,193.696969678,3901.24242385,0,4316.45454502,0,4499.8484844,0,4237.63636321,3420.60606026,4333.96969654,3037.33333303,4929.99999951,2996.12121182,3963.57575718,173.090909074,4361.27272684,3820.36363598,4197.45454503,2649.93939367,4870.24242376,3016.72727243,4308.21212078,4137.69696928,42.0,42.0,?
2017-07-31 19:28:43.232019,4483.87878743,3779.15151477,4289.66666624,2711.75757549,3777.09090871,193.696969678,3910.51515112,412.12121208,4308.21212078,0,4498.30302985,0,4233.51515109,3420.60606026,4330.36363593,3037.33333303,4920.72727224,2996.12121182,3960.9999996,173.090909074,4358.18181775,3820.36363598,4196.424242,2649.93939367,4868.69696921,3016.72727243,4309.75757533,4137.69696928,42.0,42.0,?
2017-07-31 19:28:43.240491,4489.5454541,3779.15151477,4303.06060563,2711.75757549,3788.93939356,193.696969678,3934.21212082,412.12121208,4315.93939351,247.272727248,4506.54545409,0,4241.75757533,3420.60606026,4337.57575714,3037.33333303,4914.54545405,2996.12121182,3967.6969693,173.090909074,4361.78787835,3820.36363598,4198.99999958,2649.93939367,4873.33333285,3016.72727243,4313.36363593,4137.69696928,42.0,42.0,?
2017-07-31 19:28:43.247191,4486.45454501,3779.15151477,4297.39393896,2711.75757549,3788.93939356,193.696969678,3930.0909087,412.12121208,4322.6363632,247.272727248,4506.03030258,226.666666644,4240.21212079,3420.60606026,4344.78787835,3037.33333303,4935.15151466,2996.12121182,3974.90909051,173.090909074,4364.36363593,3820.36363598,4198.48484806,2649.93939367,4874.36363588,3016.72727243,4308.21212078,4137.69696928,42.0,42.0,?
2017-07-31 19:28:43.255359,4482.33333289,3779.15151477,4285.54545412,2711.75757549,3784.81818144,193.696969678,3913.60606021,412.12121208,4313.36363593,247.272727248,4500.36363591,226.666666644,4235.57575715,3445.33333299,4344.27272684,3037.33333303,4945.96969648,2996.12121182,3969.75757536,173.090909074,4361.27272684,3820.36363598,4195.90909049,2649.93939367,4869.72727224,3016.72727243,4304.09090866,4137.69696928,42.0,42.0,?
2017-07-31 19:28:43.261900,4477.69696925,3779.15151477,4279.87878745,2711.75757549,3778.12121174,193.696969678,3910.51515112,412.12121208,4300.48484805,247.272727248,4495.72727228,226.666666644,4234.54545412,3445.33333299,4336.0303026,3045.57575727,4934.63636314,2996.12121182,3968.21212082,173.090909074,4358.69696926,3820.36363598,4195.90909049,2649.93939367,4868.1818177,3016.72727243,4303.57575715,4137.69696928,42.0,42.0,?
2017-07-31 19:28:43.270762,4475.63636319,3779.15151477,4283.99999957,2711.75757549,3773.48484811,193.696969678,3900.72727234,412.12121208,4306.66666624,247.272727248,4494.69696925,226.666666644,4233.51515109,3445.33333299,4333.45454502,3045.57575727,4937.72727223,3037.33333303,3975.42424203,173.090909074,4364.87878744,3820.36363598,4197.96969655,2649.93939367,4872.30302982,3016.72727243,4306.66666624,4137.69696928,42.0,42.0,?
2017-07-31 19:28:43.278961,4478.72727228,3779.15151477,4297.39393896,2711.75757549,3783.27272689,193.696969678,3900.21212082,412.12121208,4313.87878745,247.272727248,4497.27272682,226.666666644,4236.60606018,3445.33333299,4338.09090866,3045.57575727,4938.24242375,3037.33333303,3973.87878748,156.60606059,4364.87878744,3820.36363598,4196.424242,2649.93939367,4871.7878783,3016.72727243,4310.78787836,4137.69696928,42.0,42.0,?
2017-07-31 19:28:43.285416,4474.09090864,3779.15151477,4294.81818139,2711.75757549,3778.63636326,193.696969678,3911.03030264,412.12121208,4300.48484805,247.272727248,4491.60606016,226.666666644,4227.84848443,3445.33333299,4330.87878745,3045.57575727,4904.75757527,3037.33333303,3966.66666627,156.60606059,4355.09090866,3820.36363598,4194.87878746,2649.93939367,4865.60606012,3016.72727243,4304.60606018,4137.69696928,42.0,42.0,?
2017-07-31 19:28:43.292961,4472.03030258,3779.15151477,4288.63636321,2711.75757549,3770.39393902,193.696969678,3912.06060567,412.12121208,4299.45454502,247.272727248,4489.03030258,226.666666644,4217.54545412,3445.33333299,4326.75757532,3045.57575727,4903.21212072,3037.33333303,3971.81818142,156.60606059,4359.21212078,3820.36363598,4193.84848443,2645.81818155,4864.57575709,3016.72727243,4301.51515109,4137.69696928,42.0,42.0,?
2017-07-31 19:28:43.303906,4480.78787834,3779.15151477,4296.36363593,2711.75757549,3783.27272689,193.696969678,3918.24242385,412.12121208,4318.51515108,247.272727248,4498.30302985,226.666666644,4229.39393897,3445.33333299,4340.15151472,3045.57575727,4941.33333284,3037.33333303,3975.93939354,156.60606059,4370.54545411,3820.36363598,4194.36363594,2645.81818155,4868.1818177,3016.72727243,4310.78787836,4137.69696928,42.0,42.0,?
2017-07-31 19:28:43.313887,4481.81818137,3779.15151477,4291.21212078,2711.75757549,3782.75757538,193.696969678,3922.36363597,412.12121208,4312.84848442,247.272727248,4500.36363591,226.666666644,4239.69696927,3445.33333299,4343.75757532,3045.57575727,4938.24242375,3037.33333303,3970.27272688,148.363636349,4365.39393896,3820.36363598,4199.5151511,2645.81818155,4869.72727224,3016.72727243,4312.3333329,4137.69696928,42.0,42.0,?
2017-07-31 19:28:43.319386,4478.72727228,3779.15151477,4285.54545412,2711.75757549,3769.36363599,193.696969678,3905.87878749,412.12121208,4292.75757533,247.272727248,4492.63636319,226.666666644,4234.54545412,3445.33333299,4336.0303026,3045.57575727,4918.15151466,3037.33333303,3967.6969693,148.363636349,4357.15151472,3812.12121174,4198.99999958,2645.81818155,4867.15151466,3016.72727243,4305.12121169,4137.69696928,42.0,42.0,?
2017-07-31 19:28:43.325965,4485.93939349,3779.15151477,4304.60606018,2711.75757549,3778.12121174,193.696969678,3908.45454506,412.12121208,4298.93939351,247.272727248,4494.18181773,226.666666644,4234.03030261,3445.33333299,4339.6363632,3045.57575727,4931.03030254,3037.33333303,3973.87878748,148.363636349,4366.42424199,3812.12121174,4196.424242,2645.81818155,4872.81818133,3016.72727243,4310.78787836,4137.69696928,42.0,42.0,?
2017-07-31 19:28:43.332354,4491.60606016,3779.15151477,4306.15151472,2711.75757549,3792.54545417,193.696969678,3933.6969693,412.12121208,4322.6363632,247.272727248,4508.60606016,226.666666644,4239.69696927,3445.33333299,4348.90909047,3045.57575727,4940.30302981,3037.33333303,3983.15151475,148.363636349,4376.72727229,3812.12121174,4198.48484806,2645.81818155,4880.54545406,3016.72727243,4322.12121169,4137.69696928,42.0,42.0,?
2017-07-31 19:28:43.342056,4485.93939349,3779.15151477,4285.0303026,2711.75757549,3786.36363599,193.696969678,3934.72727233,412.12121208,4333.45454502,247.272727248,4512.21212076,226.666666644,4238.66666624,3445.33333299,4351.48484805,3045.57575727,4932.06060557,3037.33333303,3982.63636324,148.363636349,4374.66666623,3812.12121174,4194.87878746,2645.81818155,4875.39393891,3016.72727243,4320.57575714,4137.69696928,42.0,42.0,?
2017-07-31 19:28:43.348652,4484.90909046,3779.15151477,4292.75757533,2711.75757549,3784.81818144,193.696969678,3924.42424203,412.12121208,4322.6363632,247.272727248,4499.8484844,226.666666644,4236.60606018,3445.33333299,4348.90909047,3045.57575727,4940.30302981,3037.33333303,3977.48484809,148.363636349,4372.09090865,3812.12121174,4192.8181814,2645.81818155,4871.7878783,3016.72727243,4315.93939351,4137.69696928,42.0,42.0,?
2017-07-31 19:28:43.357713,4494.18181773,3779.15151477,4309.75757533,2711.75757549,3799.75757538,193.696969678,3921.84848446,412.12121208,4310.27272684,247.272727248,4494.69696925,226.666666644,4238.15151473,3445.33333299,4346.84848441,3045.57575727,4954.72727223,3037.33333303,3981.60606021,148.363636349,4374.15151471,3812.12121174,4197.96969655,2645.81818155,4876.93939345,3016.72727243,4323.15151472,4137.69696928,42.0,42.0,?
2017-07-31 19:28:43.364578,4497.78787834,3779.15151477,4298.93939351,2711.75757549,3803.36363598,193.696969678,3916.69696931,412.12121208,4315.42424199,247.272727248,4498.81818137,226.666666644,4241.24242382,3445.33333299,4348.39393896,3045.57575727,4938.75757526,3037.33333303,3994.9999996,148.363636349,4380.3333329,3812.12121174,4201.06060564,2645.81818155,4881.57575709,3016.72727243,4330.87878745,4137.69696928,42.0,42.0,?
2017-07-31 19:28:43.373655,4492.12121167,3779.15151477,4289.15151472,2711.75757549,3786.8787875,193.696969678,3911.03030264,412.12121208,4321.60606017,247.272727248,4495.21212076,226.666666644,4234.03030261,3445.33333299,4340.66666623,3045.57575727,4908.36363587,3037.33333303,3993.96969657,148.363636349,4379.81818138,3812.12121174,4199.5151511,2645.81818155,4880.54545406,3016.72727243,4322.12121169,4137.69696928,42.0,42.0,?
2017-07-31 19:28:43.379632,4495.72727228,3779.15151477,4303.06060563,2711.75757549,3788.42424205,193.696969678,3909.48484809,412.12121208,4315.42424199,247.272727248,4492.12121167,226.666666644,4225.27272685,3445.33333299,4331.90909048,3045.57575727,4914.54545405,3037.33333303,3979.54545415,148.363636349,4374.66666623,3812.12121174,4196.93939352,2645.81818155,4877.96969648,3016.72727243,4321.09090866,4137.69696928,42.0,42.0,?
2017-07-31 19:28:43.388518,4506.54545409,3779.15151477,4312.84848442,2711.75757549,3806.45454507,193.696969678,3919.7878784,412.12121208,4312.3333329,247.272727248,4494.18181773,226.666666644,4229.90909049,3445.33333299,4338.60606017,3045.57575727,4945.45454496,3037.33333303,3980.57575718,148.363636349,4382.39393896,3812.12121174,4194.87878746,2645.81818155,4883.12121163,3016.72727243,4336.0303026,4137.69696928,42.0,42.0,?
2017-07-31 19:28:43.395728,4507.06060561,3779.15151477,4302.0303026,2711.75757549,3803.36363598,193.696969678,3929.06060567,412.12121208,4313.87878745,247.272727248,4494.18181773,226.666666644,4230.93939352,3445.33333299,4342.72727229,3045.57575727,4946.99999951,3037.33333303,3988.3030299,148.363636349,4384.96969653,3812.12121174,4193.84848443,2645.81818155,4883.63636315,3016.72727243,4336.54545411,4137.69696928,42.0,42.0,?
2017-07-31 19:28:43.405677,4506.03030258,3779.15151477,4286.57575715,2711.75757549,3793.06060568,193.696969678,3919.7878784,412.12121208,4315.42424199,247.272727248,4495.21212076,226.666666644,4222.18181776,3445.33333299,4336.54545411,3045.57575727,4925.36363587,3037.33333303,3986.24242384,148.363636349,4377.2424238,3812.12121174,4195.39393897,2645.81818155,4876.93939345,3016.72727243,4331.90909048,4137.69696928,42.0,42.0,?
2017-07-31 19:28:43.411953,4501.39393894,3779.15151477,4287.09090866,2711.75757549,3793.06060568,193.696969678,3909.99999961,412.12121208,4314.39393896,247.272727248,4491.60606016,226.666666644,4217.03030261,3445.33333299,4328.81818139,3045.57575727,4910.42424193,3037.33333303,3975.93939354,148.363636349,4375.69696926,3812.12121174,4198.48484806,2645.81818155,4875.39393891,3016.72727243,4331.39393896,4137.69696928,42.0,42.0,?
2017-07-31 19:28:43.418513,4493.1515147,3779.15151477,4291.21212078,2711.75757549,3789.45454508,193.696969678,3916.18181779,412.12121208,4306.15151472,247.272727248,4481.81818137,226.666666644,4219.09090867,3445.33333299,4325.21212078,3045.57575727,4907.84848436,3037.33333303,3971.30302991,148.363636349,4371.06060562,3812.12121174,4195.39393897,2645.81818155,4873.33333285,3016.72727243,4321.60606017,4137.69696928,42.0,42.0,?
2017-07-31 19:28:43.425908,4494.18181773,3779.15151477,4289.15151472,2711.75757549,3789.45454508,193.696969678,3912.06060567,412.12121208,4298.93939351,247.272727248,4478.72727228,226.666666644,4221.66666624,3445.33333299,4326.24242381,3045.57575727,4919.18181769,3037.33333303,3973.36363597,148.363636349,4366.9393935,3812.12121174,4190.24242382,2645.81818155,4866.63636315,3016.72727243,4318.51515108,4137.69696928,42.0,42.0,?
2017-07-31 19:28:43.435641,4494.18181773,3779.15151477,4285.0303026,2711.75757549,3787.39393902,193.696969678,3900.72727234,412.12121208,4290.18181775,247.272727248,4473.57575713,226.666666644,4209.8181814,3445.33333299,4318.51515108,3045.57575727,4918.66666617,3037.33333303,3969.75757536,148.363636349,4367.96969653,3812.12121174,4190.75757534,2645.81818155,4861.484848,3016.72727243,4323.15151472,4137.69696928,42.0,42.0,?
2017-07-31 19:28:43.450340,4492.63636319,3779.15151477,4286.06060563,2711.75757549,3787.90909053,193.696969678,3909.99999961,412.12121208,4293.78787836,247.272727248,4473.57575713,226.666666644,4205.18181776,3445.33333299,4316.96969654,3045.57575727,4903.21212072,3037.33333303,3975.42424203,148.363636349,4371.06060562,3812.12121174,4197.45454503,2645.81818155,4868.1818177,3016.72727243,4328.81818139,4137.69696928,42.0,42.0,?
2017-07-31 19:28:43.455413,4496.75757531,3779.15151477,4289.66666624,2711.75757549,3798.21212083,193.696969678,3914.63636324,412.12121208,4305.12121169,247.272727248,4482.8484844,226.666666644,4222.69696927,3445.33333299,4329.3333329,3045.57575727,4909.90909042,3037.33333303,3983.15151475,148.363636349,4377.2424238,3812.12121174,4197.45454503,2645.81818155,4876.42424194,3016.72727243,4333.45454502,4137.69696928,42.0,42.0,?
2017-07-31 19:28:43.465563,4492.63636319,3779.15151477,4291.21212078,2711.75757549,3791.51515114,193.696969678,3895.06060567,412.12121208,4305.63636321,247.272727248,4483.87878743,226.666666644,4230.424242,3445.33333299,4327.78787836,3045.57575727,4919.6969692,3037.33333303,3976.96969657,148.363636349,4375.18181774,3812.12121174,4192.30302988,2645.81818155,4869.21212073,3016.72727243,4331.90909048,4137.69696928,42.0,42.0,?
2017-07-31 19:28:43.465893,4497.27272682,3779.15151477,4299.96969654,2711.75757549,3780.1818178,193.696969678,3902.27272688,412.12121208,4307.18181775,247.272727248,4482.8484844,226.666666644,4221.15151473,3445.33333299,4321.60606017,3045.57575727,4915.57575708,3037.33333303,3977.9999996,148.363636349,4376.21212077,3812.12121174,4195.39393897,2645.81818155,4868.69696921,3016.72727243,4338.09090866,4137.69696928,42.0,42.0,?
2017-07-31 19:28:43.472968,4506.54545409,3779.15151477,4306.15151472,2711.75757549,3782.75757538,193.696969678,3926.48484809,412.12121208,4314.39393896,247.272727248,4482.8484844,226.666666644,4213.93939352,3445.33333299,4325.72727229,3045.57575727,4915.57575708,3037.33333303,3986.75757536,148.363636349,4380.3333329,3812.12121174,4198.48484806,2645.81818155,4876.93939345,3016.72727243,4345.30302987,4137.69696928,42.0,42.0,?
2017-07-31 19:28:43.485623,4499.33333288,3779.15151477,4290.69696927,2711.75757549,3780.69696932,193.696969678,3919.27272688,412.12121208,4312.84848442,247.272727248,4483.87878743,226.666666644,4213.424242,3445.33333299,4331.39393896,3045.57575727,4908.87878739,3037.33333303,3991.39393899,148.363636349,4378.78787835,3812.12121174,4196.424242,2645.81818155,4875.39393891,3016.72727243,4339.12121169,4137.69696928,42.0,42.0,?
2017-07-31 19:28:43.491851,4500.36363591,3779.15151477,4283.99999957,2711.75757549,3778.12121174,193.696969678,3915.15151476,412.12121208,4302.0303026,247.272727248,4490.57575713,226.666666644,4221.15151473,3445.33333299,4336.54545411,3045.57575727,4900.12121163,3037.33333303,3991.39393899,148.363636349,4383.9393935,3812.12121174,4197.45454503,2645.81818155,4879.51515103,3016.72727243,4340.66666623,4137.69696928,42.0,42.0,?
2017-07-31 19:28:43.498047,4507.06060561,3779.15151477,4292.75757533,2711.75757549,3779.66666629,193.696969678,3921.33333294,412.12121208,4287.60606018,247.272727248,4483.87878743,226.666666644,4221.15151473,3445.33333299,4333.45454502,3045.57575727,4922.27272678,3037.33333303,3982.63636324,148.363636349,4383.42424199,3812.12121174,4195.90909049,2645.81818155,4880.03030254,3016.72727243,4345.30302987,4137.69696928,42.0,42.0,?
2017-07-31 19:28:43.504530,4497.27272682,3779.15151477,4289.66666624,2711.75757549,3770.39393902,193.696969678,3898.66666628,412.12121208,4275.24242381,247.272727248,4465.33333289,226.666666644,4206.21212079,3445.33333299,4323.15151472,3045.57575727,4941.33333284,3037.33333303,3971.81818142,148.363636349,4372.60606017,3812.12121174,4192.8181814,2645.81818155,4869.72727224,3016.72727243,4332.42424199,4137.69696928,42.0,42.0,?
2017-07-31 19:28:43.511897,4499.8484844,3779.15151477,4289.15151472,2711.75757549,3770.39393902,193.696969678,3890.42424204,412.12121208,4277.30302988,247.272727248,4468.42424198,226.666666644,4208.78787837,3445.33333299,4326.24242381,3045.57575727,4915.06060557,3037.33333303,3981.09090869,148.363636349,4378.78787835,3812.12121174,4200.54545413,2645.81818155,4876.42424194,3016.72727243,4334.99999957,4137.69696928,42.0,42.0,?
2017-07-31 19:28:43.520729,4514.78787834,3779.15151477,4309.24242381,2711.75757549,3789.96969659,193.696969678,3917.21212082,412.12121208,4291.7272723,247.272727248,4485.42424198,226.666666644,4225.78787837,3445.33333299,4332.93939351,3045.57575727,4905.27272678,3037.33333303,3997.06060566,148.363636349,4391.66666623,3812.12121174,4200.54545413,2645.81818155,4887.75757527,3016.72727243,4356.6363632,4137.69696928,42.0,42.0,?
2017-07-31 19:28:43.529363,4509.63636319,3779.15151477,4308.7272723,2711.75757549,3791.51515114,193.696969678,3916.69696931,412.12121208,4286.06060563,247.272727248,4481.81818137,226.666666644,4219.60606018,3445.33333299,4320.57575714,3045.57575727,4931.03030254,3037.33333303,3993.45454506,148.363636349,4389.09090865,3812.12121174,4191.78787837,2645.81818155,4884.66666618,3016.72727243,4353.54545411,4137.69696928,42.0,42.0,?
2017-07-31 19:28:43.536415,4498.81818137,3779.15151477,4285.54545412,2711.75757549,3776.06060568,193.696969678,3906.90909052,412.12121208,4267.51515109,247.272727248,4469.96969652,226.666666644,4206.21212079,3445.33333299,4311.81818139,3045.57575727,4929.48484799,3037.33333303,3986.24242384,148.363636349,4380.84848441,3812.12121174,4195.39393897,2645.81818155,4882.0909086,3016.72727243,4341.18181775,4137.69696928,42.0,42.0,?
2017-07-31 19:28:43.543232,4503.454545,3779.15151477,4291.21212078,2711.75757549,3774.51515114,193.696969678,3915.66666628,412.12121208,4275.75757533,247.272727248,4475.12121167,226.666666644,4211.36363594,3445.33333299,4316.45454502,3045.57575727,4896.51515103,3037.33333303,3990.36363596,148.363636349,4382.39393896,3812.12121174,4203.1212117,2645.81818155,4885.18181769,3016.72727243,4347.87878744,4137.69696928,42.0,42.0,?
2017-07-31 19:28:43.552154,4509.63636319,3779.15151477,4310.27272684,2711.75757549,3782.24242386,193.696969678,3901.75757537,412.12121208,4301.51515109,247.272727248,4486.96969652,226.666666644,4217.03030261,3445.33333299,4319.54545411,3045.57575727,4898.57575709,3037.33333303,3998.60606021,148.363636349,4386.51515108,3812.12121174,4195.90909049,2645.81818155,4885.69696921,3016.72727243,4356.12121169,4137.69696928,42.0,42.0,?
2017-07-31 19:28:43.559778,4508.60606016,3779.15151477,4300.99999957,2711.75757549,3787.39393902,193.696969678,3900.72727234,412.12121208,4307.18181775,247.272727248,4487.99999955,226.666666644,4212.39393897,3445.33333299,4321.60606017,3045.57575727,4929.99999951,3037.33333303,4001.6969693,148.363636349,4389.60606017,3812.12121174,4190.75757534,2645.81818155,4884.15151466,3016.72727243,4358.69696926,4137.69696928,42.0,42.0,?
2017-07-31 19:28:43.569585,4509.12121167,3779.15151477,4295.3333329,2711.75757549,3791.51515114,193.696969678,3930.60606021,412.12121208,4298.42424199,247.272727248,4480.78787834,226.666666644,4207.24242382,3445.33333299,4317.99999957,3045.57575727,4929.48484799,3037.33333303,3991.39393899,148.363636349,4387.54545411,3812.12121174,4199.5151511,2645.81818155,4880.54545406,3016.72727243,4363.84848441,4137.69696928,42.0,42.0,?
2017-07-31 19:28:43.577184,4507.57575713,3779.15151477,4312.3333329,2711.75757549,3787.90909053,193.696969678,3929.57575718,412.12121208,4298.42424199,247.272727248,4478.72727228,226.666666644,4207.75757534,3445.33333299,4313.36363593,3045.57575727,4904.24242375,3037.33333303,3979.03030263,148.363636349,4376.72727229,3812.12121174,4196.424242,2645.81818155,4871.27272679,3016.72727243,4359.72727229,4137.69696928,42.0,42.0,?
2017-07-31 19:28:43.584131,4496.75757531,3779.15151477,4307.69696927,2711.75757549,3772.96969659,193.696969678,3894.03030264,412.12121208,4302.0303026,247.272727248,4481.81818137,226.666666644,4210.84848443,3445.33333299,4314.90909048,3045.57575727,4885.18181769,3037.33333303,3975.93939354,148.363636349,4367.45454502,3812.12121174,4189.21212079,2645.81818155,4868.1818177,3016.72727243,4341.18181775,4137.69696928,42.0,42.0,?
2017-07-31 19:28:43.592591,4486.45454501,3779.15151477,4285.0303026,2711.75757549,3761.12121175,193.696969678,3887.84848446,412.12121208,4301.51515109,247.272727248,4484.90909046,226.666666644,4214.45454503,3445.33333299,4319.54545411,3045.57575727,4892.3939389,3037.33333303,3975.93939354,148.363636349,4363.3333329,3812.12121174,4196.93939352,2645.81818155,4869.72727224,3016.72727243,4332.93939351,4137.69696928,42.0,42.0,?
2017-07-31 19:28:43.602481,4490.06060561,3779.15151477,4287.09090866,2711.75757549,3761.63636326,193.696969678,3919.7878784,412.12121208,4300.99999957,247.272727248,4484.39393895,226.666666644,4220.63636321,3445.33333299,4327.78787836,3045.57575727,4902.18181769,3037.33333303,3977.9999996,148.363636349,4361.78787835,3812.12121174,4201.57575716,2645.81818155,4865.60606012,3016.72727243,4346.3333329,4137.69696928,42.0,42.0,?
2017-07-31 19:28:43.607750,4504.99999955,3779.15151477,4302.0303026,2711.75757549,3771.93939356,193.696969678,3935.24242385,412.12121208,4303.06060563,247.272727248,4482.8484844,226.666666644,4225.27272685,3445.33333299,4335.51515108,3045.57575727,4893.93939345,3037.33333303,3983.66666627,148.363636349,4374.15151471,3812.12121174,4198.48484806,2645.81818155,4875.39393891,3016.72727243,4361.78787835,4137.69696928,42.0,42.0,?
2017-07-31 19:28:43.619741,4515.30302985,3779.15151477,4296.36363593,2711.75757549,3784.81818144,193.696969678,3919.7878784,412.12121208,4306.66666624,247.272727248,4483.36363592,226.666666644,4225.78787837,3445.33333299,4338.60606017,3045.57575727,4905.7878783,3037.33333303,3992.93939354,148.363636349,4390.6363632,3812.12121174,4201.57575716,2645.81818155,4890.84848436,3016.72727243,4365.39393896,4137.69696928,42.0,42.0,?
2017-07-31 19:28:43.624687,4517.87878743,3779.15151477,4296.87878745,2711.75757549,3789.96969659,193.696969678,3912.06060567,412.12121208,4303.57575715,247.272727248,4486.45454501,226.666666644,4223.7272723,3445.33333299,4335.51515108,3045.57575727,4950.0909086,3037.33333303,3998.09090869,148.363636349,4392.18181774,3812.12121174,4200.54545413,2645.81818155,4888.27272678,3016.72727243,4370.54545411,4137.69696928,42.0,42.0,?
2017-07-31 19:28:43.637509,4516.33333288,3779.15151477,4312.3333329,2711.75757549,3783.78787841,193.696969678,3915.15151476,412.12121208,4294.30302987,247.272727248,4485.42424198,226.666666644,4220.1212117,3445.33333299,4331.90909048,3045.57575727,4954.72727223,3037.33333303,3985.72727233,148.363636349,4391.66666623,3812.12121174,4192.30302988,2645.81818155,4888.27272678,3016.72727243,4375.69696926,4137.69696928,42.0,42.0,?
2017-07-31 19:28:43.641977,4512.72727228,3779.15151477,4308.21212078,2711.75757549,3783.27272689,193.696969678,3907.42424203,412.12121208,4293.78787836,247.272727248,4481.81818137,226.666666644,4218.06060564,3445.33333299,4331.90909048,3045.57575727,4916.0909086,3037.33333303,3952.24242385,148.363636349,4385.99999956,3812.12121174,4195.90909049,2645.81818155,4887.24242375,3016.72727243,4373.12121168,4137.69696928,42.0,42.0,?
2017-07-31 19:28:43.646968,4514.78787834,3779.15151477,4303.57575715,2711.75757549,3794.09090871,193.696969678,3907.42424203,412.12121208,4303.06060563,247.272727248,4487.48484804,226.666666644,4222.69696927,3445.33333299,4331.39393896,3045.57575727,4909.3939389,3037.33333303,3926.99999961,148.363636349,4383.42424199,3812.12121174,4206.72727231,2645.81818155,4883.12121163,3016.72727243,4375.18181774,4137.69696928,42.0,42.0,?
2017-07-31 19:28:43.654694,4523.03030258,3779.15151477,4310.78787836,2711.75757549,3802.33333295,193.696969678,3930.60606021,412.12121208,4311.30302987,247.272727248,4493.1515147,226.666666644,4230.93939352,3445.33333299,4331.39393896,3045.57575727,4923.30302981,3037.33333303,3920.81818143,148.363636349,4396.30302986,3812.12121174,4202.60606019,2645.81818155,4891.87878739,3016.72727243,4385.48484805,4137.69696928,42.0,42.0,?
2017-07-31 19:28:43.661716,4527.66666621,3779.15151477,4316.96969654,2711.75757549,3803.8787875,193.696969678,3935.75757536,412.12121208,4307.69696927,247.272727248,4488.51515107,226.666666644,4224.75757534,3445.33333299,4334.48484805,3045.57575727,4935.66666617,3037.33333303,3892.99999961,148.363636349,4396.81818138,3812.12121174,4193.33333291,2645.81818155,4894.45454497,3016.72727243,4388.57575714,4137.69696928,42.0,42.0,?
2017-07-31 19:28:43.672429,4527.1515147,3779.15151477,4321.60606017,2711.75757549,3802.33333295,193.696969678,3915.15151476,412.12121208,4294.81818139,247.272727248,4483.36363592,226.666666644,4219.60606018,3445.33333299,4339.12121169,3045.57575727,4954.21212072,3037.33333303,3857.45454507,148.363636349,4390.6363632,3812.12121174,4197.45454503,2645.81818155,4887.24242375,3016.72727243,4388.06060562,4137.69696928,42.0,42.0,?
2017-07-31 19:28:43.685974,4532.81818136,3779.15151477,4325.21212078,2711.75757549,3810.06060568,193.696969678,3917.72727234,412.12121208,4296.87878745,247.272727248,4491.09090864,226.666666644,4228.36363594,3445.33333299,4340.15151472,3045.57575727,4945.96969648,3037.33333303,3846.12121174,148.363636349,4399.90909047,3812.12121174,4203.63636322,2645.81818155,4892.3939389,3016.72727243,4397.33333289,4137.69696928,42.0,42.0,?
2017-07-31 19:28:43.691478,4533.8484844,3779.15151477,4319.0303026,2711.75757549,3816.24242386,193.696969678,3932.66666627,412.12121208,4310.27272684,247.272727248,4493.1515147,226.666666644,4225.78787837,3445.33333299,4336.54545411,3045.57575727,4932.06060557,3037.33333303,3835.30302992,148.363636349,4407.12121168,3812.12121174,4197.96969655,2645.81818155,4903.21212072,3016.72727243,4399.90909047,4137.69696928,42.0,42.0,?
2017-07-31 19:28:43.696628,4528.18181773,3779.15151477,4310.78787836,2711.75757549,3816.24242386,193.696969678,3938.33333294,412.12121208,4315.42424199,247.272727248,4490.57575713,226.666666644,4220.63636321,3445.33333299,4342.21212078,3045.57575727,4958.84848435,3037.33333303,3828.09090871,148.363636349,4405.06060562,3812.12121174,4192.30302988,2645.81818155,4903.72727224,3016.72727243,4397.33333289,4137.69696928,42.0,42.0,?
2017-07-31 19:28:43.702880,4531.27272682,3787.39393902,4314.90909048,2711.75757549,3818.81818144,193.696969678,3940.393939,412.12121208,4315.42424199,247.272727248,4495.72727228,226.666666644,4227.33333291,3445.33333299,4347.87878744,3045.57575727,4970.6969692,3037.33333303,3824.4848481,148.363636349,4407.12121168,3812.12121174,4195.90909049,2645.81818155,4903.21212072,3016.72727243,4402.99999956,4137.69696928,42.0,42.0,?
2017-07-31 19:28:43.708162,4532.30302985,3787.39393902,4314.90909048,2711.75757549,3818.30302992,193.696969678,3935.75757536,412.12121208,4311.81818139,247.272727248,4489.03030258,226.666666644,4226.8181814,3445.33333299,4341.18181775,3045.57575727,4940.81818132,3037.33333303,3801.30302992,148.363636349,4403.51515107,3812.12121174,4203.1212117,2645.81818155,4904.24242375,3016.72727243,4399.90909047,4137.69696928,42.0,42.0,?
2017-07-31 19:28:43.721273,4523.54545409,3787.39393902,4309.24242381,2711.75757549,3814.69696932,193.696969678,3926.48484809,412.12121208,4304.09090866,247.272727248,4480.27272682,226.666666644,4220.63636321,3445.33333299,4337.06060563,3045.57575727,4938.24242375,3037.33333303,3783.27272689,148.363636349,4392.69696926,3812.12121174,4201.57575716,2645.81818155,4895.99999951,3016.72727243,4387.03030259,4141.8181814,42.0,42.0,?
2017-07-31 19:28:43.725154,4519.93939349,3787.39393902,4311.30302987,2711.75757549,3814.1818178,193.696969678,3914.63636324,412.12121208,4304.60606018,247.272727248,4487.48484804,226.666666644,4219.60606018,3445.33333299,4336.0303026,3045.57575727,4946.48484799,3037.33333303,3781.72727235,148.363636349,4391.66666623,3812.12121174,4196.93939352,2645.81818155,4888.27272678,3016.72727243,4383.42424199,4141.8181814,42.0,42.0,?
2017-07-31 19:28:43.735599,4524.06060561,3787.39393902,4325.21212078,2711.75757549,3815.21212083,193.696969678,3902.27272688,432.727272684,4311.30302987,247.272727248,4494.69696925,226.666666644,4223.21212079,3445.33333299,4330.87878745,3045.57575727,4940.81818132,3037.33333303,3751.33333296,148.363636349,4396.30302986,3812.12121174,4192.30302988,2645.81818155,4893.93939345,3016.72727243,4389.09090865,4141.8181814,42.0,42.0,?
2017-07-31 19:28:43.740644,4527.1515147,3787.39393902,4330.87878745,2711.75757549,3819.84848447,193.696969678,3915.66666628,432.727272684,4316.45454502,280.242424214,4496.24242379,226.666666644,4234.54545412,3445.33333299,4338.09090866,3045.57575727,4954.21212072,3037.33333303,3727.63636326,148.363636349,4399.90909047,3812.12121174,4190.75757534,2645.81818155,4903.72727224,3016.72727243,4394.2424238,4141.8181814,42.0,42.0,?
2017-07-31 19:28:43.751197,4531.27272682,3787.39393902,4316.96969654,2711.75757549,3832.21212083,193.696969678,3953.78787839,432.727272684,4323.15151472,280.242424214,4504.99999955,218.424242402,4241.75757533,3445.33333299,4349.42424199,3045.57575727,4965.03030253,3037.33333303,3749.2727269,148.363636349,4408.66666623,3812.12121174,4201.57575716,2645.81818155,4903.72727224,3016.72727243,4399.39393895,4141.8181814,42.0,42.0,?
2017-07-31 19:28:43.755000,4537.96969652,3787.39393902,4317.48484805,2711.75757549,3839.93939356,193.696969678,3953.78787839,432.727272684,4326.75757532,280.242424214,4511.18181773,218.424242402,4237.63636321,3482.42424208,4345.81818138,3045.57575727,4966.06060556,3037.33333303,3751.33333296,148.363636349,4410.72727229,3812.12121174,4207.24242382,2645.81818155,4897.03030254,3016.72727243,4402.99999956,4141.8181814,42.0,42.0,?
2017-07-31 19:28:43.764157,4533.8484844,3787.39393902,4326.24242381,2711.75757549,3833.24242386,193.696969678,3924.42424203,432.727272684,4317.99999957,280.242424214,4503.454545,218.424242402,4235.57575715,3482.42424208,4339.6363632,3074.42424212,4987.18181768,3037.33333303,3715.78787842,148.363636349,4402.48484804,3812.12121174,4194.36363594,2645.81818155,4894.96969648,3016.72727243,4397.84848441,4141.8181814,42.0,42.0,?
2017-07-31 19:28:43.770691,4526.63636318,3787.39393902,4319.54545411,2711.75757549,3828.60606022,193.696969678,3922.36363597,432.727272684,4310.27272684,280.242424214,4502.42424197,218.424242402,4234.03030261,3482.42424208,4342.21212078,3074.42424212,4967.09090859,3033.21212091,3707.03030266,148.363636349,4401.96969653,3812.12121174,4192.8181814,2645.81818155,4898.57575709,3016.72727243,4392.18181774,4141.8181814,42.0,42.0,?
2017-07-31 19:28:43.779982,4533.8484844,3787.39393902,4323.66666623,2711.75757549,3837.87878749,193.696969678,3935.24242385,432.727272684,4318.51515108,280.242424214,4513.75757531,218.424242402,4235.57575715,3482.42424208,4340.15151472,3074.42424212,4928.96969648,3033.21212091,3726.60606023,156.60606059,4408.15151471,3812.12121174,4202.60606019,2645.81818155,4901.15151466,3016.72727243,4399.90909047,4141.8181814,42.0,42.0,?
2017-07-31 19:28:43.787393,4538.48484803,3787.39393902,4329.84848442,2711.75757549,3838.39393901,193.696969678,3922.87878749,432.727272684,4325.21212078,280.242424214,4512.72727228,218.424242402,4237.1212117,3482.42424208,4330.87878745,3074.42424212,4956.27272678,3033.21212091,3712.18181781,156.60606059,4404.03030259,3824.4848481,4200.54545413,2645.81818155,4898.06060557,3016.72727243,4407.12121168,4141.8181814,42.0,42.0,?
2017-07-31 19:28:43.793935,4521.99999955,3787.39393902,4314.39393896,2711.75757549,3819.33333295,193.696969678,3902.7878784,432.727272684,4313.87878745,280.242424214,4493.66666622,218.424242402,4220.63636321,3482.42424208,4322.12121169,3074.42424212,4986.15151465,3033.21212091,3675.09090872,156.60606059,4385.99999956,3824.4848481,4190.24242382,2649.93939367,4884.15151466,3016.72727243,4391.15151471,4141.8181814,42.0,42.0,?
2017-07-31 19:28:43.803393,4524.06060561,3787.39393902,4314.39393896,2711.75757549,3824.99999962,193.696969678,3929.06060567,432.727272684,4315.42424199,280.242424214,4499.8484844,218.424242402,4225.27272685,3482.42424208,4332.42424199,3074.42424212,4973.78787829,3033.21212091,3683.33333296,156.60606059,4393.72727229,3824.4848481,4192.8181814,2649.93939367,4889.30302981,3029.09090879,4391.15151471,4141.8181814,42.0,42.0,?
2017-07-31 19:28:43.810003,4541.06060561,3787.39393902,4331.39393896,2711.75757549,3839.42424204,193.696969678,3952.75757536,432.727272684,4325.72727229,280.242424214,4519.42424197,218.424242402,4244.84848442,3482.42424208,4341.69696926,3074.42424212,4945.96969648,3033.21212091,3701.36363599,152.48484847,4411.2424238,3824.4848481,4201.06060564,2649.93939367,4904.24242375,3029.09090879,4410.21212077,4141.8181814,42.0,42.0,?
2017-07-31 19:28:43.817422,4538.99999955,3787.39393902,4331.90909048,2711.75757549,3831.69696931,193.696969678,3929.57575718,432.727272684,4319.0303026,280.242424214,4512.21212076,218.424242402,4231.45454503,3482.42424208,4329.84848442,3074.42424212,4936.18181769,3033.21212091,3685.90909054,152.48484847,4397.33333289,3836.84848446,4202.60606019,2649.93939367,4891.36363587,3029.09090879,4409.18181774,4141.8181814,42.0,42.0,?
2017-07-31 19:28:43.824908,4552.90909045,3787.39393902,4332.42424199,2711.75757549,3851.27272689,193.696969678,3941.93939355,432.727272684,4336.0303026,280.242424214,4517.87878743,218.424242402,4239.69696927,3482.42424208,4350.45454502,3074.42424212,4993.87878738,3033.21212091,3705.99999963,152.48484847,4415.87878744,3836.84848446,4201.06060564,2645.81818155,4900.63636315,3029.09090879,4423.09090865,4141.8181814,42.0,42.0,?
2017-07-31 19:28:43.834549,4544.1515147,3787.39393902,4325.21212078,2711.75757549,3841.4848481,193.696969678,3943.99999961,432.727272684,4327.78787836,280.242424214,4503.454545,218.424242402,4235.06060564,3482.42424208,4338.60606017,3074.42424212,5004.6969692,3033.21212091,3697.75757539,152.48484847,4413.81818138,3836.84848446,4190.75757534,2645.81818155,4906.30302981,3029.09090879,4406.60606017,4141.8181814,42.0,42.0,?
2017-07-31 19:28:43.841943,4537.96969652,3787.39393902,4325.72727229,2711.75757549,3835.81818143,193.696969678,3938.33333294,432.727272684,4326.24242381,280.242424214,4500.87878743,218.424242402,4228.87878746,3482.42424208,4328.30302987,3074.42424212,4964.51515102,3033.21212091,3687.45454509,152.48484847,4401.96969653,3836.84848446,4194.36363594,2645.81818155,4897.03030254,3029.09090879,4400.42424198,4141.8181814,42.0,42.0,?
2017-07-31 19:28:43.848570,4550.84848439,3787.39393902,4330.87878745,2711.75757549,3848.69696931,193.696969678,3940.393939,432.727272684,4334.48484805,280.242424214,4514.27272682,218.424242402,4236.60606018,3482.42424208,4349.9393935,3074.42424212,4964.51515102,3033.21212091,3714.24242387,152.48484847,4414.84848441,3836.84848446,4201.57575716,2645.81818155,4897.03030254,3029.09090879,4414.33333289,4141.8181814,42.0,42.0,?
2017-07-31 19:28:43.856666,4510.66666622,3787.39393902,4303.57575715,2711.75757549,3800.27272689,193.696969678,3889.393939,432.727272684,4289.15151472,280.242424214,4477.18181773,218.424242402,4191.78787837,3482.42424208,4305.63636321,3074.42424212,4941.84848435,3033.21212091,3675.60606024,152.48484847,4373.12121168,3836.84848446,4194.36363594,2645.81818155,4864.57575709,3029.09090879,4363.84848441,4141.8181814,42.0,42.0,?
2017-07-31 19:28:43.866881,4525.60606015,3787.39393902,4310.27272684,2711.75757549,3828.60606022,193.696969678,3922.36363597,432.727272684,4317.48484805,280.242424214,4495.72727228,218.424242402,4217.54545412,3482.42424208,4319.54545411,3074.42424212,4962.96969647,3033.21212091,3691.06060569,152.48484847,4388.57575714,3836.84848446,4198.99999958,2645.81818155,4876.42424194,3029.09090879,4389.09090865,4141.8181814,42.0,42.0,?
2017-07-31 19:28:43.872818,4543.12121167,3787.39393902,4331.39393896,2711.75757549,3851.7878784,193.696969678,3958.42424203,432.727272684,4331.90909048,280.242424214,4508.09090864,218.424242402,4238.66666624,3482.42424208,4339.12121169,3074.42424212,4959.36363587,3033.21212091,3713.72727236,152.48484847,4408.66666623,3836.84848446,4198.99999958,2645.81818155,4894.96969648,3029.09090879,4408.66666623,4141.8181814,42.0,42.0,?
2017-07-31 19:28:43.881428,4522.51515106,3787.39393902,4320.57575714,2711.75757549,3820.36363598,193.696969678,3934.72727233,432.727272684,4306.15151472,280.242424214,4492.12121167,218.424242402,4213.424242,3482.42424208,4319.0303026,3074.42424212,4927.42424193,3033.21212091,3700.84848448,152.48484847,4392.18181774,3836.84848446,4199.5151511,2645.81818155,4885.18181769,3029.09090879,4378.78787835,4141.8181814,42.0,42.0,?
2017-07-31 19:28:43.887931,4536.42424197,3787.39393902,4313.87878745,2711.75757549,3829.63636325,193.696969678,3933.6969693,432.727272684,4324.18181775,280.242424214,4508.60606016,218.424242402,4232.48484806,3482.42424208,4343.24242381,3074.42424212,4974.81818132,3033.21212091,3717.33333296,152.48484847,4411.75757532,3836.84848446,4195.90909049,2645.81818155,4896.51515103,3029.09090879,4399.39393895,4141.8181814,42.0,42.0,?
2017-07-31 19:28:43.896725,4520.96969652,3787.39393902,4305.12121169,2711.75757549,3812.12121174,193.696969678,3908.45454506,432.727272684,4303.06060563,280.242424214,4486.96969652,218.424242402,4214.96969655,3482.42424208,4327.78787836,3074.42424212,4976.36363587,3033.21212091,3694.15151478,152.48484847,4387.03030259,3836.84848446,4191.27272685,2645.81818155,4881.57575709,3029.09090879,4381.36363593,4141.8181814,42.0,42.0,?
2017-07-31 19:28:43.903997,4528.18181773,3787.39393902,4310.27272684,2711.75757549,3829.12121174,193.696969678,3928.03030264,432.727272684,4308.7272723,280.242424214,4498.81818137,218.424242402,4224.24242382,3482.42424208,4332.42424199,3074.42424212,4965.54545405,3033.21212091,3716.81818145,152.48484847,4392.18181774,3836.84848446,4203.1212117,2645.81818155,4886.72727224,3029.09090879,4389.09090865,4141.8181814,42.0,42.0,?
2017-07-31 19:28:43.911414,4535.90909046,3787.39393902,4317.99999957,2711.75757549,3833.24242386,193.696969678,3931.63636324,432.727272684,4311.81818139,280.242424214,4508.09090864,218.424242402,4233.51515109,3482.42424208,4336.0303026,3074.42424212,4955.24242375,3033.21212091,3724.03030266,152.48484847,4400.42424198,3836.84848446,4200.54545413,2645.81818155,4893.93939345,3029.09090879,4392.69696926,4141.8181814,42.0,42.0,?
2017-07-31 19:28:43.918900,4519.42424197,3787.39393902,4312.3333329,2711.75757549,3805.93939356,193.696969678,3906.393939,432.727272684,4298.42424199,280.242424214,4492.63636319,218.424242402,4213.424242,3482.42424208,4317.99999957,3074.42424212,4936.18181769,3033.21212091,3700.33333296,152.48484847,4382.39393896,3836.84848446,4194.87878746,2645.81818155,4881.57575709,3029.09090879,4370.03030259,4141.8181814,42.0,42.0,?
2017-07-31 19:28:43.928645,4531.27272682,3787.39393902,4310.27272684,2711.75757549,3821.39393901,193.696969678,3926.48484809,432.727272684,4315.93939351,280.242424214,4504.99999955,218.424242402,4228.87878746,3482.42424208,4337.57575714,3074.42424212,4948.03030254,3033.21212091,3730.72727235,152.48484847,4398.87878744,3836.84848446,4200.03030261,2645.81818155,4891.87878739,3029.09090879,4388.06060562,4141.8181814,42.0,42.0,?
2017-07-31 19:28:43.934782,4522.51515106,3787.39393902,4308.7272723,2711.75757549,3819.33333295,193.696969678,3923.90909052,432.727272684,4307.69696927,280.242424214,4497.27272682,218.424242402,4226.30302988,3482.42424208,4335.51515108,3074.42424212,4952.15151466,3033.21212091,3733.30302993,152.48484847,4392.69696926,3836.84848446,4195.90909049,2645.81818155,4885.69696921,3029.09090879,4380.84848441,4141.8181814,42.0,42.0,?
2017-07-31 19:28:43.943419,4514.27272682,3787.39393902,4302.0303026,2711.75757549,3806.45454507,193.696969678,3909.99999961,432.727272684,4302.0303026,280.242424214,4491.60606016,218.424242402,4221.15151473,3482.42424208,4331.90909048,3074.42424212,4962.96969647,3033.21212091,3729.69696932,152.48484847,4384.45454502,3836.84848446,4198.48484806,2645.81818155,4875.90909042,3029.09090879,4369.51515108,4141.8181814,42.0,42.0,?
2017-07-31 19:28:43.950955,4524.57575712,3787.39393902,4300.99999957,2711.75757549,3805.42424204,193.696969678,3900.72727234,432.727272684,4303.57575715,280.242424214,4493.66666622,218.424242402,4223.7272723,3482.42424208,4337.06060563,3074.42424212,4943.90909041,3033.21212091,3748.75757538,152.48484847,4393.72727229,3836.84848446,4205.69696928,2645.81818155,4884.66666618,3029.09090879,4379.30302987,4141.8181814,42.0,42.0,?
2017-07-31 19:28:43.959151,4523.54545409,3787.39393902,4312.84848442,2711.75757549,3821.39393901,193.696969678,3930.0909087,432.727272684,4305.12121169,280.242424214,4494.18181773,218.424242402,4219.09090867,3482.42424208,4332.93939351,3074.42424212,4966.57575708,3033.21212091,3761.12121175,152.48484847,4393.72727229,3836.84848446,4201.06060564,2645.81818155,4890.33333284,3029.09090879,4379.30302987,4141.8181814,42.0,42.0,?
2017-07-31 19:28:43.966880,4523.54545409,3787.39393902,4312.84848442,2711.75757549,3821.39393901,193.696969678,3930.0909087,432.727272684,4305.12121169,280.242424214,4494.18181773,218.424242402,4219.09090867,3482.42424208,4332.93939351,3074.42424212,4966.57575708,3033.21212091,3761.12121175,152.48484847,4393.72727229,3836.84848446,4201.06060564,2645.81818155,4890.33333284,3029.09090879,4379.30302987,4141.8181814,42.0,42.0,?
2017-07-31 19:28:43.974457,4555.99999954,3787.39393902,4313.87878745,2711.75757549,3853.33333295,193.696969678,3965.63636324,432.727272684,4334.99999957,280.242424214,4519.42424197,218.424242402,4256.18181776,3482.42424208,4372.60606017,3074.42424212,5019.12121162,3033.21212091,3808.51515113,152.48484847,4431.33333289,3836.84848446,4208.27272685,2645.81818155,4908.87878739,3029.09090879,4418.96969653,4141.8181814,42.0,42.0,?
2017-07-31 19:28:43.983595,4513.75757531,3787.39393902,4303.06060563,2711.75757549,3782.75757538,193.696969678,3884.75757537,432.727272684,4269.57575715,280.242424214,4463.27272683,218.424242402,4197.96969655,3482.42424208,4310.27272684,3074.42424212,4936.18181769,3033.21212091,3763.69696932,152.48484847,4374.15151471,3836.84848446,4191.78787837,2645.81818155,4870.75757527,3029.09090879,4357.15151472,4141.8181814,42.0,42.0,?
2017-07-31 19:28:43.990334,4534.36363591,3787.39393902,4321.09090866,2711.75757549,3813.66666629,193.696969678,3914.12121173,432.727272684,4306.66666624,280.242424214,4494.69696925,218.424242402,4221.66666624,3482.42424208,4332.93939351,3074.42424212,4953.6969692,3033.21212091,3808.51515113,152.48484847,4393.21212077,3836.84848446,4203.63636322,2645.81818155,4888.7878783,3029.09090879,4383.9393935,4141.8181814,42.0,42.0,?
2017-07-31 19:28:44.002129,4633.78787832,3787.39393902,4348.39393896,2711.75757549,3946.06060567,193.696969678,4042.9090905,432.727272684,4431.84848441,280.242424214,4603.39393893,218.424242402,4348.90909047,3482.42424208,4467.39393895,3074.42424212,5089.18181767,3033.21212091,3952.75757536,152.48484847,4513.75757531,3836.84848446,4211.36363594,2645.81818155,4969.66666617,3029.09090879,4519.93939349,4141.8181814,42.0,42.0,?
2017-07-31 19:28:44.006401,4536.42424197,3787.39393902,4303.06060563,2711.75757549,3826.54545416,193.696969678,3922.87878749,432.727272684,4311.81818139,280.242424214,4502.42424197,218.424242402,4237.1212117,3482.42424208,4353.03030259,3074.42424212,4966.06060556,3033.21212091,3841.4848481,152.48484847,4408.15151471,3836.84848446,4184.06060564,2645.81818155,4896.51515103,3029.09090879,4400.42424198,4141.8181814,42.0,42.0,?
2017-07-31 19:28:44.013423,4481.30302985,3787.39393902,4286.06060563,2711.75757549,3753.39393902,193.696969678,3857.96969658,432.727272684,4245.87878745,280.242424214,4446.27272683,218.424242402,4159.33333292,3482.42424208,4270.09090866,3074.42424212,4896.51515103,3033.21212091,3781.72727235,152.48484847,4336.54545411,3836.84848446,4195.90909049,2645.81818155,4849.63636315,3029.09090879,4326.24242381,4141.8181814,42.0,42.0,?
2017-07-31 19:28:44.022409,4557.54545409,3787.39393902,4310.78787836,2711.75757549,3834.7878784,193.696969678,3936.78787839,432.727272684,4331.39393896,280.242424214,4512.72727228,218.424242402,4241.24242382,3482.42424208,4359.21212078,3074.42424212,5001.60606011,3033.21212091,3884.24242385,152.48484847,4416.90909047,3836.84848446,4207.24242382,2645.81818155,4908.36363587,3029.09090879,4413.81818138,4141.8181814,42.0,42.0,?
2017-07-31 19:28:44.028059,4517.87878743,3787.39393902,4302.0303026,2711.75757549,3802.33333295,193.696969678,3902.7878784,432.727272684,4300.48484805,280.242424214,4481.81818137,218.424242402,4213.93939352,3482.42424208,4330.87878745,3074.42424212,4952.66666617,3033.21212091,3860.03030264,152.48484847,4388.57575714,3836.84848446,4194.36363594,2645.81818155,4885.18181769,3029.09090879,4369.51515108,4141.8181814,42.0,42.0,?
2017-07-31 19:28:44.035954,4497.27272682,3787.39393902,4297.90909048,2711.75757549,3788.93939356,193.696969678,3900.72727234,432.727272684,4283.99999957,280.242424214,4476.66666622,218.424242402,4202.09090867,3482.42424208,4313.87878745,3074.42424212,4924.33333284,3033.21212091,3863.12121173,152.48484847,4368.99999956,3836.84848446,4201.06060564,2645.81818155,4860.96969648,3029.09090879,4354.06060563,4141.8181814,42.0,42.0,?
2017-07-31 19:28:44.044803,4538.48484803,3787.39393902,4299.45454502,2711.75757549,3806.45454507,193.696969678,3920.30302991,432.727272684,4308.21212078,280.242424214,4499.33333288,218.424242402,4228.36363594,3482.42424208,4346.84848441,3074.42424212,4975.84848435,3033.21212091,3908.45454506,152.48484847,4399.90909047,3836.84848446,4204.66666625,2645.81818155,4889.81818133,3029.09090879,4396.30302986,4141.8181814,42.0,42.0,?
2017-07-31 19:28:44.052021,4535.39393894,3787.39393902,4305.12121169,2711.75757549,3804.39393901,193.696969678,3917.21212082,432.727272684,4316.96969654,280.242424214,4498.30302985,218.424242402,4218.57575715,3482.42424208,4345.30302987,3074.42424212,4988.21212071,3033.21212091,3908.96969658,152.48484847,4406.09090865,3836.84848446,4200.54545413,2645.81818155,4901.66666618,3029.09090879,4390.12121168,4141.8181814,42.0,42.0,?
2017-07-31 19:28:44.060679,4512.21212076,3787.39393902,4322.6363632,2711.75757549,3815.21212083,193.696969678,3932.66666627,432.727272684,4316.96969654,280.242424214,4493.66666622,218.424242402,4210.84848443,3482.42424208,4339.12121169,3074.42424212,4982.54545405,3033.21212091,3900.72727234,152.48484847,4396.81818138,3836.84848446,4196.93939352,2645.81818155,4883.12121163,3029.09090879,4380.3333329,4141.8181814,42.0,42.0,?
2017-07-31 19:28:44.067163,4506.54545409,3787.39393902,4323.15151472,2711.75757549,3805.93939356,193.696969678,3912.06060567,432.727272684,4297.39393896,280.242424214,4477.69696925,218.424242402,4203.63636322,3482.42424208,4328.30302987,3074.42424212,4943.90909041,3033.21212091,3895.57575719,152.48484847,4386.51515108,3836.84848446,4197.96969655,2645.81818155,4875.39393891,3029.09090879,4379.30302987,4141.8181814,42.0,42.0,?
2017-07-31 19:28:44.079251,4511.69696925,3787.39393902,4311.30302987,2711.75757549,3791.51515114,193.696969678,3891.96969658,432.727272684,4292.75757533,280.242424214,4480.78787834,218.424242402,4204.66666625,3482.42424208,4327.27272684,3074.42424212,4912.99999951,3033.21212091,3906.393939,152.48484847,4389.09090865,3836.84848446,4201.06060564,2645.81818155,4885.69696921,3029.09090879,4376.72727229,4141.8181814,42.0,42.0,?
2017-07-31 19:28:44.084055,4512.72727228,3787.39393902,4313.87878745,2711.75757549,3791.51515114,193.696969678,3919.27272688,432.727272684,4302.54545412,280.242424214,4494.18181773,218.424242402,4210.33333291,3482.42424208,4335.51515108,3074.42424212,4950.0909086,3033.21212091,3906.393939,152.48484847,4384.96969653,3836.84848446,4196.93939352,2645.81818155,4879.51515103,3029.09090879,4374.15151471,4141.8181814,42.0,42.0,?
2017-07-31 19:28:44.093441,4516.33333288,3787.39393902,4321.09090866,2711.75757549,3793.06060568,193.696969678,3934.72727233,432.727272684,4306.66666624,280.242424214,4495.21212076,218.424242402,4210.84848443,3482.42424208,4339.12121169,3074.42424212,4995.93939344,3033.21212091,3890.93939355,152.48484847,4377.75757532,3836.84848446,4193.84848443,2645.81818155,4869.72727224,3029.09090879,4376.21212077,4141.8181814,42.0,42.0,?
2017-07-31 19:28:44.104183,4511.69696925,3787.39393902,4310.78787836,2711.75757549,3786.36363599,193.696969678,3919.27272688,432.727272684,4302.54545412,280.242424214,4493.66666622,218.424242402,4211.36363594,3482.42424208,4337.06060563,3074.42424212,4966.57575708,3033.21212091,3891.45454507,152.48484847,4378.78787835,3836.84848446,4198.48484806,2645.81818155,4869.72727224,3029.09090879,4369.51515108,4141.8181814,42.0,42.0,?
2017-07-31 19:28:44.108944,4504.48484803,3787.39393902,4298.93939351,2711.75757549,3779.15151477,193.696969678,3906.90909052,432.727272684,4295.84848442,280.242424214,4492.12121167,218.424242402,4207.24242382,3482.42424208,4331.90909048,3074.42424212,4935.66666617,3033.21212091,3899.69696931,152.48484847,4378.78787835,3836.84848446,4202.60606019,2645.81818155,4870.75757527,3029.09090879,4359.72727229,4141.8181814,42.0,42.0,?
2017-07-31 19:28:44.117109,4502.42424197,3787.39393902,4304.09090866,2711.75757549,3769.8787875,193.696969678,3899.69696931,432.727272684,4295.3333329,280.242424214,4485.42424198,218.424242402,4194.87878746,3482.42424208,4321.09090866,3074.42424212,4942.87878738,3033.21212091,3886.81818143,152.48484847,4368.99999956,3836.84848446,4196.93939352,2645.81818155,4866.12121163,3029.09090879,4355.60606017,4141.8181814,42.0,42.0,?
2017-07-31 19:28:44.123313,4502.93939349,3787.39393902,4323.15151472,2711.75757549,3772.45454508,193.696969678,3905.87878749,432.727272684,4300.99999957,280.242424214,4484.39393895,218.424242402,4195.39393897,3482.42424208,4319.54545411,3074.42424212,4920.21212072,3033.21212091,3870.84848446,152.48484847,4370.54545411,3836.84848446,4192.8181814,2645.81818155,4866.63636315,3029.09090879,4362.30302987,4141.8181814,42.0,42.0,?
2017-07-31 19:28:44.130548,4504.99999955,3787.39393902,4323.15151472,2711.75757549,3779.66666629,193.696969678,3917.21212082,432.727272684,4295.84848442,280.242424214,4486.45454501,218.424242402,4203.1212117,3482.42424208,4322.6363632,3074.42424212,4910.93939345,3033.21212091,3866.72727234,152.48484847,4374.66666623,3836.84848446,4197.96969655,2645.81818155,4868.1818177,3029.09090879,4367.96969653,4141.8181814,42.0,42.0,?
2017-07-31 19:28:44.140647,4501.39393894,3787.39393902,4300.99999957,2711.75757549,3771.42424205,193.696969678,3908.96969658,432.727272684,4288.63636321,280.242424214,4482.8484844,218.424242402,4196.93939352,3482.42424208,4315.42424199,3074.42424212,4939.78787829,3033.21212091,3863.63636325,152.48484847,4359.72727229,3836.84848446,4198.48484806,2645.81818155,4857.36363588,3029.09090879,4362.30302987,4141.8181814,42.0,42.0,?
2017-07-31 19:28:44.149561,4502.42424197,3787.39393902,4297.90909048,2711.75757549,3767.30302993,193.696969678,3914.63636324,432.727272684,4295.3333329,280.242424214,4482.33333289,218.424242402,4190.75757534,3482.42424208,4314.39393896,3074.42424212,4942.87878738,3033.21212091,3868.7878784,152.48484847,4359.72727229,3836.84848446,4193.33333291,2645.81818155,4860.96969648,3029.09090879,4363.84848441,4141.8181814,42.0,42.0,?
2017-07-31 19:28:44.153099,4505.51515106,3787.39393902,4316.45454502,2711.75757549,3771.42424205,193.696969678,3927.51515112,432.727272684,4294.81818139,280.242424214,4481.81818137,218.424242402,4192.30302988,3482.42424208,4321.60606017,3074.42424212,4924.84848436,3033.21212091,3880.12121173,152.48484847,4372.09090865,3836.84848446,4196.424242,2645.81818155,4869.21212073,3029.09090879,4366.42424199,4141.8181814,42.0,42.0,?
2017-07-31 19:28:44.161627,4500.36363591,3787.39393902,4311.30302987,2711.75757549,3767.81818144,193.696969678,3906.393939,432.727272684,4288.63636321,280.242424214,4482.33333289,218.424242402,4195.39393897,3482.42424208,4326.24242381,3074.42424212,4940.30302981,3033.21212091,3881.66666628,152.48484847,4368.99999956,3836.84848446,4199.5151511,2645.81818155,4860.96969648,3029.09090879,4364.36363593,4141.8181814,42.0,42.0,?
2017-07-31 19:28:44.174937,4498.81818137,3787.39393902,4296.87878745,2711.75757549,3764.21212084,193.696969678,3892.99999961,432.727272684,4292.75757533,280.242424214,4485.93939349,218.424242402,4200.03030261,3482.42424208,4331.39393896,3074.42424212,4959.36363587,3033.21212091,3877.54545416,152.48484847,4366.42424199,3836.84848446,4194.87878746,2645.81818155,4861.99999951,3029.09090879,4368.99999956,4141.8181814,42.0,42.0,?
2017-07-31 19:28:44.178572,4504.99999955,3787.39393902,4310.78787836,2711.75757549,3766.78787841,193.696969678,3918.24242385,432.727272684,4298.93939351,280.242424214,4488.51515107,218.424242402,4201.57575716,3482.42424208,4333.96969654,3074.42424212,4943.90909041,3033.21212091,3889.393939,152.48484847,4374.66666623,3836.84848446,4195.90909049,2645.81818155,4868.69696921,3029.09090879,4371.06060562,4141.8181814,42.0,42.0,?
2017-07-31 19:28:44.190305,4509.12121167,3787.39393902,4324.18181775,2711.75757549,3766.2727269,193.696969678,3932.66666627,432.727272684,4297.90909048,280.242424214,4490.57575713,218.424242402,4198.48484806,3482.42424208,4329.3333329,3074.42424212,4932.57575708,3033.21212091,3897.12121173,152.48484847,4377.2424238,3836.84848446,4203.1212117,2645.81818155,4866.63636315,3029.09090879,4365.39393896,4141.8181814,42.0,42.0,?
2017-07-31 19:28:44.197120,4501.90909046,3787.39393902,4310.78787836,2711.75757549,3756.48484811,193.696969678,3921.84848446,432.727272684,4294.30302987,280.242424214,4489.5454541,218.424242402,4197.96969655,3482.42424208,4326.24242381,3074.42424212,4931.54545405,3033.21212091,3885.27272688,152.48484847,4371.06060562,3836.84848446,4196.93939352,2645.81818155,4865.60606012,3029.09090879,4362.81818138,4141.8181814,42.0,42.0,?
2017-07-31 19:28:44.202891,4495.72727228,3787.39393902,4294.81818139,2711.75757549,3752.8787875,193.696969678,3905.36363597,432.727272684,4295.84848442,280.242424214,4489.5454541,218.424242402,4196.424242,3482.42424208,4322.12121169,3074.42424212,4935.15151466,3033.21212091,3878.06060567,152.48484847,4367.45454502,3836.84848446,4191.27272685,2645.81818155,4866.63636315,3029.09090879,4362.30302987,4141.8181814,42.0,42.0,?
2017-07-31 19:28:44.209360,4494.18181773,3775.03030265,4295.84848442,2711.75757549,3753.90909053,193.696969678,3892.4848481,432.727272684,4294.30302987,280.242424214,4487.99999955,218.424242402,4187.15151473,3482.42424208,4312.3333329,3074.42424212,4936.18181769,3033.21212091,3881.15151476,152.48484847,4362.30302987,3836.84848446,4197.45454503,2645.81818155,4857.87878739,3029.09090879,4359.21212078,4141.8181814,42.0,42.0,?
2017-07-31 19:28:44.223864,4489.03030258,3775.03030265,4299.45454502,2715.87878761,3751.84848447,193.696969678,3904.84848446,432.727272684,4293.27272684,280.242424214,4485.42424198,218.424242402,4185.60606019,3482.42424208,4312.3333329,3074.42424212,4917.63636314,3033.21212091,3877.03030264,152.48484847,4355.60606017,3836.84848446,4192.30302988,2645.81818155,4848.09090861,3029.09090879,4360.75757532,4141.8181814,42.0,42.0,?
2017-07-31 19:28:44.225892,4492.12121167,3775.03030265,4313.87878745,2715.87878761,3753.90909053,193.696969678,3911.54545415,432.727272684,4290.69696927,280.242424214,4484.90909046,218.424242402,4188.69696928,3482.42424208,4320.57575714,3074.42424212,4942.36363587,3033.21212091,3882.69696931,152.48484847,4365.39393896,3836.84848446,4192.8181814,2645.81818155,4857.36363588,3029.09090879,4368.99999956,4162.42424201,42.0,42.0,?
2017-07-31 19:28:44.233087,4492.12121167,3775.03030265,4313.87878745,2715.87878761,3753.90909053,189.575757557,3911.54545415,432.727272684,4290.69696927,280.242424214,4484.90909046,218.424242402,4188.69696928,3482.42424208,4320.57575714,3074.42424212,4942.36363587,3033.21212091,3882.69696931,152.48484847,4365.39393896,3836.84848446,4192.8181814,2645.81818155,4860.45454497,3029.09090879,4368.48484805,4162.42424201,42.0,42.0,?
2017-07-31 19:28:44.239901,4492.63636319,3775.03030265,4299.45454502,2715.87878761,3750.30302993,189.575757557,3901.75757537,457.454545409,4289.66666624,280.242424214,4483.36363592,218.424242402,4190.24242382,3482.42424208,4315.42424199,3074.42424212,4942.36363587,3033.21212091,3871.36363598,152.48484847,4355.60606017,3836.84848446,4193.33333291,2645.81818155,4852.72727224,3029.09090879,4356.12121169,4162.42424201,42.0,42.0,?
2017-07-31 19:28:44.247863,4492.12121167,3775.03030265,4292.75757533,2715.87878761,3750.30302993,189.575757557,3915.15151476,457.454545409,4293.27272684,313.212121181,4481.81818137,218.424242402,4189.21212079,3482.42424208,4321.09090866,3074.42424212,4919.6969692,3033.21212091,3869.81818143,152.48484847,4357.15151472,3836.84848446,4197.96969655,2645.81818155,4857.36363588,3029.09090879,4354.06060563,4162.42424201,42.0,42.0,?
2017-07-31 19:28:44.256895,4492.12121167,3775.03030265,4304.60606018,2715.87878761,3746.69696932,189.575757557,3905.87878749,457.454545409,4289.15151472,313.212121181,4479.24242379,259.63636361,4187.66666625,3482.42424208,4322.6363632,3074.42424212,4923.30302981,3033.21212091,3874.96969658,152.48484847,4362.81818138,3836.84848446,4197.45454503,2645.81818155,4861.99999951,3029.09090879,4362.81818138,4162.42424201,42.0,42.0,?
2017-07-31 19:28:44.264919,4487.48484804,3775.03030265,4299.96969654,2715.87878761,3735.87878751,189.575757557,3890.93939355,457.454545409,4279.87878745,313.212121181,4473.57575713,259.63636361,4188.18181776,3494.78787844,4313.87878745,3074.42424212,4924.33333284,3033.21212091,3872.39393901,152.48484847,4355.60606017,3836.84848446,4196.424242,2645.81818155,4856.84848436,3029.09090879,4357.66666623,4162.42424201,42.0,42.0,?
2017-07-31 19:28:44.271616,4487.48484804,3775.03030265,4288.12121169,2715.87878761,3743.60606023,189.575757557,3912.57575718,457.454545409,4281.424242,313.212121181,4476.1515147,259.63636361,4188.69696928,3494.78787844,4313.87878745,3086.78787848,4911.96969648,3033.21212091,3879.0909087,152.48484847,4358.18181775,3836.84848446,4201.57575716,2645.81818155,4859.93939345,3029.09090879,4356.6363632,4162.42424201,42.0,42.0,?
2017-07-31 19:28:44.279058,4495.72727228,3775.03030265,4301.51515109,2715.87878761,3758.03030265,189.575757557,3920.30302991,457.454545409,4288.12121169,313.212121181,4487.48484804,259.63636361,4192.8181814,3494.78787844,4324.18181775,3086.78787848,4925.36363587,3062.06060575,3891.45454507,152.48484847,4368.99999956,3836.84848446,4197.96969655,2645.81818155,4865.0909086,3029.09090879,4371.57575714,4162.42424201,42.0,42.0,?
2017-07-31 19:28:44.290549,4492.63636319,3775.03030265,4307.69696927,2715.87878761,3748.75757538,189.575757557,3893.51515113,457.454545409,4288.12121169,313.212121181,4490.57575713,259.63636361,4196.93939352,3494.78787844,4324.69696926,3086.78787848,4940.30302981,3062.06060575,3889.90909052,201.939393919,4362.81818138,3836.84848446,4188.18181776,2645.81818155,4855.81818133,3029.09090879,4369.51515108,4162.42424201,42.0,42.0,?
2017-07-31 19:28:44.295594,4487.48484804,3775.03030265,4296.36363593,2715.87878761,3742.06060569,189.575757557,3890.42424204,457.454545409,4288.12121169,313.212121181,4485.93939349,259.63636361,4194.36363594,3494.78787844,4319.54545411,3086.78787848,4935.15151466,3062.06060575,3883.72727234,201.939393919,4351.99999956,3824.4848481,4189.21212079,2645.81818155,4851.1818177,3029.09090879,4358.69696926,4162.42424201,42.0,42.0,?
2017-07-31 19:28:44.302450,4492.12121167,3775.03030265,4294.81818139,2715.87878761,3749.78787841,189.575757557,3899.69696931,457.454545409,4282.96969654,313.212121181,4477.69696925,259.63636361,4187.66666625,3494.78787844,4316.96969654,3086.78787848,4925.36363587,3062.06060575,3883.72727234,201.939393919,4357.15151472,3824.4848481,4196.424242,2637.57575731,4858.90909042,3029.09090879,4364.87878744,4162.42424201,42.0,42.0,?
2017-07-31 19:28:44.309988,4492.12121167,3775.03030265,4291.7272723,2715.87878761,3752.36363599,189.575757557,3894.03030264,457.454545409,4277.30302988,313.212121181,4476.1515147,259.63636361,4186.1212117,3494.78787844,4314.39393896,3086.78787848,4915.06060557,3062.06060575,3887.33333294,201.939393919,4360.24242381,3824.4848481,4196.93939352,2637.57575731,4858.39393891,3020.84848455,4372.09090865,4162.42424201,42.0,42.0,?
2017-07-31 19:28:44.318449,4484.39393895,3775.03030265,4286.57575715,2715.87878761,3749.2727269,189.575757557,3906.90909052,457.454545409,4281.424242,313.212121181,4481.30302985,259.63636361,4189.21212079,3494.78787844,4316.96969654,3086.78787848,4910.42424193,3062.06060575,3894.03030264,210.181818161,4355.60606017,3824.4848481,4195.39393897,2637.57575731,4854.27272679,3020.84848455,4367.96969653,4162.42424201,42.0,42.0,?
2017-07-31 19:28:44.327257,4483.36363592,3775.03030265,4294.81818139,2715.87878761,3746.18181781,189.575757557,3922.36363597,457.454545409,4287.60606018,313.212121181,4480.27272682,259.63636361,4194.36363594,3494.78787844,4327.78787836,3086.78787848,4934.12121163,3062.06060575,3897.12121173,210.181818161,4359.21212078,3828.60606022,4196.424242,2637.57575731,4856.33333285,3020.84848455,4365.39393896,4162.42424201,42.0,42.0,?
2017-07-31 19:28:44.333433,4485.93939349,3775.03030265,4307.18181775,2715.87878761,3748.75757538,189.575757557,3904.84848446,457.454545409,4290.69696927,313.212121181,4480.27272682,259.63636361,4196.424242,3494.78787844,4331.90909048,3086.78787848,4959.36363587,3062.06060575,3895.06060567,210.181818161,4358.69696926,3828.60606022,4194.87878746,2637.57575731,4850.66666618,3020.84848455,4367.96969653,4162.42424201,42.0,42.0,?
2017-07-31 19:28:44.342046,4478.21212076,3775.03030265,4303.06060563,2715.87878761,3748.24242387,189.575757557,3888.87878749,457.454545409,4288.63636321,313.212121181,4478.72727228,259.63636361,4189.72727231,3494.78787844,4317.99999957,3086.78787848,4926.3939389,3062.06060575,3885.7878784,210.181818161,4342.72727229,3828.60606022,4193.84848443,2637.57575731,4838.81818133,3020.84848455,4362.81818138,4162.42424201,42.0,42.0,?
2017-07-31 19:28:44.350822,4472.5454541,3775.03030265,4288.12121169,2715.87878761,3741.54545417,189.575757557,3906.90909052,457.454545409,4293.78787836,313.212121181,4479.24242379,259.63636361,4185.60606019,3494.78787844,4307.18181775,3086.78787848,4884.15151466,3062.06060575,3880.12121173,210.181818161,4339.6363632,3828.60606022,4193.33333291,2637.57575731,4839.84848436,3020.84848455,4358.69696926,4162.42424201,42.0,42.0,?
2017-07-31 19:28:44.357943,4473.57575713,3775.03030265,4279.36363594,2715.87878761,3737.42424205,189.575757557,3915.66666628,457.454545409,4305.12121169,313.212121181,4484.39393895,259.63636361,4191.27272685,3494.78787844,4313.87878745,3086.78787848,4901.66666618,3062.06060575,3876.51515113,210.181818161,4340.15151472,3828.60606022,4187.66666625,2637.57575731,4836.75757527,3020.84848455,4358.69696926,4162.42424201,42.0,42.0,?
2017-07-31 19:28:44.367659,4465.33333289,3775.03030265,4285.0303026,2715.87878761,3734.84848448,189.575757557,3895.57575719,457.454545409,4304.60606018,313.212121181,4484.39393895,259.63636361,4197.96969655,3494.78787844,4323.66666623,3086.78787848,4929.99999951,3062.06060575,3868.27272689,210.181818161,4329.84848442,3828.60606022,4188.18181776,2637.57575731,4827.99999952,3020.84848455,4350.45454502,4162.42424201,42.0,42.0,?
2017-07-31 19:28:44.373798,4461.72727228,3775.03030265,4293.27272684,2715.87878761,3735.36363599,189.575757557,3896.60606022,457.454545409,4298.42424199,313.212121181,4480.78787834,259.63636361,4198.99999958,3494.78787844,4329.84848442,3086.78787848,4927.42424193,3062.06060575,3878.57575719,210.181818161,4333.45454502,3828.60606022,4198.48484806,2637.57575731,4832.12121164,3020.84848455,4348.90909047,4162.42424201,42.0,42.0,?
2017-07-31 19:28:44.383089,4473.06060561,3775.03030265,4292.75757533,2715.87878761,3743.60606023,189.575757557,3919.27272688,457.454545409,4297.90909048,313.212121181,4481.30302985,259.63636361,4194.36363594,3494.78787844,4331.39393896,3086.78787848,4930.51515102,3062.06060575,3898.15151476,210.181818161,4351.99999956,3828.60606022,4197.96969655,2637.57575731,4844.484848,3020.84848455,4361.27272684,4162.42424201,42.0,42.0,?
2017-07-31 19:28:44.388482,4485.93939349,3775.03030265,4296.36363593,2715.87878761,3753.39393902,189.575757557,3916.69696931,457.454545409,4298.42424199,313.212121181,4480.27272682,259.63636361,4192.30302988,3494.78787844,4329.84848442,3086.78787848,4932.06060557,3062.06060575,3905.87878749,210.181818161,4363.84848441,3828.60606022,4193.84848443,2637.57575731,4857.87878739,3020.84848455,4375.18181774,4162.42424201,42.0,42.0,?
2017-07-31 19:28:44.396149,4492.12121167,3775.03030265,4303.57575715,2715.87878761,3759.5757572,189.575757557,3895.06060567,457.454545409,4290.69696927,313.212121181,4469.96969652,259.63636361,4194.36363594,3494.78787844,4326.24242381,3086.78787848,4913.51515102,3062.06060575,3906.90909052,210.181818161,4362.81818138,3828.60606022,4193.33333291,2637.57575731,4858.90909042,3020.84848455,4382.90909047,4162.42424201,42.0,42.0,?
2017-07-31 19:28:44.404940,4486.96969652,3775.03030265,4296.87878745,2715.87878761,3754.42424205,189.575757557,3892.4848481,457.454545409,4282.96969654,313.212121181,4462.75757531,259.63636361,4190.75757534,3494.78787844,4320.06060563,3086.78787848,4917.63636314,3062.06060575,3902.27272688,210.181818161,4362.30302987,3828.60606022,4193.33333291,2637.57575731,4853.24242376,3020.84848455,4375.18181774,4162.42424201,42.0,42.0,?
2017-07-31 19:28:44.411222,4472.5454541,3775.03030265,4280.39393897,2715.87878761,3741.54545417,189.575757557,3900.21212082,457.454545409,4283.99999957,313.212121181,4463.78787834,259.63636361,4181.99999958,3494.78787844,4313.87878745,3086.78787848,4936.18181769,3062.06060575,3890.93939355,210.181818161,4357.66666623,3828.60606022,4194.36363594,2637.57575731,4846.03030255,3020.84848455,4363.84848441,4162.42424201,42.0,42.0,?
2017-07-31 19:28:44.420990,4474.60606016,3775.03030265,4285.0303026,2715.87878761,3746.69696932,189.575757557,3900.21212082,457.454545409,4285.54545412,313.212121181,4463.78787834,259.63636361,4180.45454504,3494.78787844,4314.39393896,3086.78787848,4937.72727223,3062.06060575,3894.03030264,210.181818161,4353.03030259,3828.60606022,4193.84848443,2637.57575731,4840.87878739,3020.84848455,4373.6363632,4162.42424201,42.0,42.0,?
2017-07-31 19:28:44.427660,4483.87878743,3775.03030265,4295.84848442,2715.87878761,3758.54545417,189.575757557,3893.51515113,457.454545409,4282.96969654,313.212121181,4463.27272683,259.63636361,4186.63636322,3494.78787844,4320.06060563,3086.78787848,4931.03030254,3062.06060575,3900.72727234,210.181818161,4360.24242381,3828.60606022,4193.33333291,2637.57575731,4851.1818177,3020.84848455,4382.90909047,4162.42424201,42.0,42.0,?
2017-07-31 19:28:44.434899,4478.21212076,3775.03030265,4291.7272723,2715.87878761,3751.33333296,189.575757557,3892.4848481,457.454545409,4281.424242,313.212121181,4462.75757531,259.63636361,4188.69696928,3494.78787844,4321.09090866,3086.78787848,4915.57575708,3062.06060575,3895.57575719,210.181818161,4358.18181775,3828.60606022,4195.39393897,2637.57575731,4855.81818133,3020.84848455,4372.60606017,4162.42424201,42.0,42.0,?
2017-07-31 19:28:44.442996,4478.21212076,3775.03030265,4296.36363593,2715.87878761,3748.75757538,189.575757557,3902.27272688,457.454545409,4286.06060563,313.212121181,4463.78787834,259.63636361,4186.63636322,3494.78787844,4317.99999957,3086.78787848,4914.03030254,3062.06060575,3898.66666628,210.181818161,4354.57575714,3828.60606022,4195.39393897,2637.57575731,4848.09090861,3020.84848455,4375.18181774,4162.42424201,42.0,42.0,?
2017-07-31 19:28:44.452486,4477.18181773,3775.03030265,4290.69696927,2715.87878761,3746.69696932,189.575757557,3877.03030264,457.454545409,4279.87878745,313.212121181,4460.18181774,259.63636361,4185.60606019,3494.78787844,4313.36363593,3086.78787848,4940.81818132,3062.06060575,3892.99999961,210.181818161,4350.96969653,3828.60606022,4189.72727231,2637.57575731,4840.87878739,3020.84848455,4372.60606017,4162.42424201,42.0,42.0,?
2017-07-31 19:28:44.460661,4477.18181773,3775.03030265,4290.69696927,2715.87878761,3746.69696932,189.575757557,3877.03030264,457.454545409,4279.87878745,313.212121181,4460.18181774,259.63636361,4185.60606019,3494.78787844,4313.36363593,3086.78787848,4940.81818132,3062.06060575,3892.99999961,210.181818161,4350.96969653,3828.60606022,4189.72727231,2637.57575731,4840.87878739,3020.84848455,4372.60606017,4162.42424201,42.0,42.0,?
2017-07-31 19:28:44.470642,4475.12121167,3775.03030265,4279.36363594,2715.87878761,3748.24242387,189.575757557,3891.96969658,457.454545409,4288.12121169,313.212121181,4470.48484804,259.63636361,4190.24242382,3494.78787844,4322.12121169,3086.78787848,4907.84848436,3062.06060575,3896.0909087,210.181818161,4351.48484805,3828.60606022,4200.03030261,2637.57575731,4847.06060558,3020.84848455,4371.57575714,4162.42424201,42.0,42.0,?
2017-07-31 19:28:44.474511,4479.75757531,3775.03030265,4285.54545412,2715.87878761,3751.84848447,189.575757557,3898.66666628,457.454545409,4290.18181775,313.212121181,4474.60606016,259.63636361,4191.78787837,3494.78787844,4321.60606017,3086.78787848,4943.90909041,3062.06060575,3904.84848446,210.181818161,4356.12121169,3828.60606022,4195.90909049,2637.57575731,4848.60606012,3020.84848455,4380.84848441,4162.42424201,42.0,42.0,?
2017-07-31 19:28:44.484193,4479.75757531,3775.03030265,4285.54545412,2715.87878761,3751.84848447,189.575757557,3898.66666628,457.454545409,4290.18181775,313.212121181,4471.51515107,259.63636361,4192.8181814,3494.78787844,4321.60606017,3086.78787848,4943.90909041,3062.06060575,3904.84848446,210.181818161,4357.15151472,3828.60606022,4195.90909049,2637.57575731,4846.03030255,3020.84848455,4381.36363593,4162.42424201,42.0,42.0,?
2017-07-31 19:28:44.495803,4482.33333289,3775.03030265,4290.18181775,2715.87878761,3761.63636326,189.575757557,3900.21212082,457.454545409,4294.30302987,313.212121181,4473.06060561,259.63636361,4197.96969655,3494.78787844,4323.15151472,3086.78787848,4929.99999951,3062.06060575,3904.84848446,210.181818161,4359.21212078,3828.60606022,4195.90909049,2637.57575731,4847.06060558,3020.84848455,4383.42424199,4162.42424201,42.0,42.0,?
2017-07-31 19:28:44.498577,4471.51515107,3775.03030265,4296.36363593,2715.87878761,3777.60606023,189.575757557,3899.18181779,457.454545409,4286.06060563,313.212121181,4473.57575713,259.63636361,4196.93939352,3494.78787844,4323.66666623,3086.78787848,4923.30302981,3062.06060575,3901.24242385,210.181818161,4357.66666623,3828.60606022,4192.8181814,2637.57575731,4847.57575709,3020.84848455,4384.45454502,4162.42424201,42.0,42.0,?
2017-07-31 19:28:44.508964,4484.39393895,3775.03030265,4290.18181775,2715.87878761,3777.09090871,189.575757557,3883.72727234,457.454545409,4280.39393897,313.212121181,4461.21212077,259.63636361,4186.1212117,3494.78787844,4316.45454502,3086.78787848,4933.0909086,3062.06060575,3900.72727234,210.181818161,4354.06060563,3828.60606022,4192.8181814,2637.57575731,4844.484848,3020.84848455,4383.9393935,4162.42424201,42.0,42.0,?
2017-07-31 19:28:44.513455,4484.39393895,3775.03030265,4290.18181775,2715.87878761,3777.09090871,189.575757557,3883.72727234,457.454545409,4280.39393897,313.212121181,4461.21212077,259.63636361,4186.1212117,3494.78787844,4316.45454502,3086.78787848,4933.0909086,3062.06060575,3900.72727234,210.181818161,4354.06060563,3828.60606022,4192.8181814,2637.57575731,4844.484848,3020.84848455,4383.9393935,4162.42424201,42.0,42.0,?
2017-07-31 19:28:44.521077,4487.99999955,3775.03030265,4280.39393897,2715.87878761,3784.81818144,189.575757557,3909.99999961,457.454545409,4290.69696927,313.212121181,4472.03030258,259.63636361,4190.24242382,3494.78787844,4320.06060563,3086.78787848,4921.75757527,3062.06060575,3906.90909052,210.181818161,4361.27272684,3828.60606022,4196.93939352,2637.57575731,4848.09090861,3020.84848455,4387.03030259,4162.42424201,42.0,42.0,?
2017-07-31 19:28:44.530805,4477.18181773,3775.03030265,4273.69696927,2715.87878761,3781.21212083,189.575757557,3905.36363597,457.454545409,4296.87878745,313.212121181,4477.18181773,259.63636361,4187.66666625,3494.78787844,4314.39393896,3086.78787848,4912.99999951,3062.06060575,3897.63636325,210.181818161,4361.78787835,3828.60606022,4189.72727231,2637.57575731,4850.66666618,3020.84848455,4377.75757532,4162.42424201,42.0,42.0,?
2017-07-31 19:28:44.537290,4476.1515147,3775.03030265,4280.90909048,2715.87878761,3780.69696932,189.575757557,3895.57575719,457.454545409,4294.81818139,313.212121181,4478.72727228,259.63636361,4185.09090867,3494.78787844,4310.27272684,3086.78787848,4907.84848436,3062.06060575,3891.45454507,210.181818161,4355.09090866,3828.60606022,4185.60606019,2637.57575731,4845.51515103,3020.84848455,4374.15151471,4162.42424201,42.0,42.0,?
2017-07-31 19:28:44.546225,4481.30302985,3775.03030265,4287.60606018,2715.87878761,3788.42424205,189.575757557,3894.54545416,457.454545409,4292.75757533,313.212121181,4477.69696925,259.63636361,4185.09090867,3494.78787844,4310.78787836,3086.78787848,4916.60606011,3062.06060575,3899.18181779,210.181818161,4354.06060563,3828.60606022,4192.30302988,2637.57575731,4839.33333285,3020.84848455,4380.84848441,4162.42424201,42.0,42.0,?
2017-07-31 19:28:44.551940,4486.96969652,3775.03030265,4290.69696927,2715.87878761,3789.45454508,189.575757557,3887.84848446,457.454545409,4293.78787836,313.212121181,4482.33333289,259.63636361,4194.36363594,3494.78787844,4314.39393896,3086.78787848,4938.24242375,3062.06060575,3909.99999961,210.181818161,4363.3333329,3828.60606022,4196.424242,2637.57575731,4847.57575709,3020.84848455,4387.54545411,4162.42424201,42.0,42.0,?
2017-07-31 19:28:44.559951,4491.60606016,3775.03030265,4291.7272723,2715.87878761,3785.33333295,189.575757557,3887.84848446,457.454545409,4293.78787836,313.212121181,4490.06060561,259.63636361,4205.69696928,3494.78787844,4322.6363632,3086.78787848,4944.93939344,3062.06060575,3911.54545415,210.181818161,4369.51515108,3828.60606022,4193.33333291,2637.57575731,4860.45454497,3020.84848455,4385.99999956,4162.42424201,42.0,42.0,?
2017-07-31 19:28:44.568511,4493.1515147,3775.03030265,4290.18181775,2715.87878761,3789.45454508,189.575757557,3901.75757537,457.454545409,4294.81818139,313.212121181,4494.69696925,259.63636361,4205.18181776,3494.78787844,4329.84848442,3086.78787848,4935.15151466,3062.06060575,3913.0909087,210.181818161,4370.03030259,3828.60606022,4192.8181814,2637.57575731,4860.96969648,3020.84848455,4385.48484805,4162.42424201,42.0,42.0,?
2017-07-31 19:28:44.576114,4492.63636319,3775.03030265,4288.12121169,2715.87878761,3792.54545417,189.575757557,3901.24242385,457.454545409,4299.96969654,313.212121181,4496.24242379,259.63636361,4201.57575716,3494.78787844,4329.3333329,3086.78787848,4929.99999951,3062.06060575,3924.93939355,210.181818161,4371.57575714,3828.60606022,4193.33333291,2637.57575731,4854.27272679,3020.84848455,4391.66666623,4162.42424201,42.0,42.0,?
2017-07-31 19:28:44.583990,4490.57575713,3775.03030265,4289.15151472,2715.87878761,3789.96969659,189.575757557,3890.93939355,457.454545409,4297.39393896,313.212121181,4491.60606016,259.63636361,4201.06060564,3494.78787844,4321.60606017,3086.78787848,4928.45454496,3062.06060575,3923.393939,210.181818161,4373.12121168,3828.60606022,4192.30302988,2637.57575731,4853.24242376,3020.84848455,4394.75757532,4162.42424201,42.0,42.0,?
2017-07-31 19:28:44.591867,4494.69696925,3775.03030265,4294.30302987,2715.87878761,3797.1818178,189.575757557,3891.96969658,457.454545409,4298.42424199,313.212121181,4491.60606016,259.63636361,4203.1212117,3494.78787844,4322.6363632,3086.78787848,4927.93939345,3062.06060575,3912.06060567,210.181818161,4375.69696926,3828.60606022,4197.96969655,2637.57575731,4855.81818133,3020.84848455,4397.33333289,4162.42424201,42.0,42.0,?
2017-07-31 19:28:44.598942,4500.36363591,3775.03030265,4300.48484805,2715.87878761,3804.90909053,189.575757557,3897.63636325,457.454545409,4302.54545412,313.212121181,4495.72727228,259.63636361,4207.24242382,3494.78787844,4331.39393896,3086.78787848,4927.93939345,3062.06060575,3921.84848446,210.181818161,4378.78787835,3828.60606022,4200.54545413,2637.57575731,4857.87878739,3020.84848455,4399.90909047,4162.42424201,42.0,42.0,?
2017-07-31 19:28:44.607712,4501.90909046,3775.03030265,4294.30302987,2715.87878761,3801.30302992,189.575757557,3909.48484809,457.454545409,4300.48484805,313.212121181,4497.27272682,259.63636361,4207.75757534,3494.78787844,4332.93939351,3086.78787848,4924.84848436,3062.06060575,3937.81818142,210.181818161,4382.90909047,3828.60606022,4196.93939352,2637.57575731,4865.0909086,3020.84848455,4402.99999956,4162.42424201,42.0,42.0,?
2017-07-31 19:28:44.618175,4502.42424197,3775.03030265,4288.63636321,2715.87878761,3802.33333295,189.575757557,3913.60606021,457.454545409,4298.42424199,313.212121181,4493.66666622,259.63636361,4204.15151473,3494.78787844,4327.78787836,3086.78787848,4939.78787829,3062.06060575,3931.12121173,210.181818161,4383.42424199,3828.60606022,4191.78787837,2637.57575731,4865.60606012,3020.84848455,4408.15151471,4162.42424201,42.0,42.0,?
2017-07-31 19:28:44.623417,4502.42424197,3775.03030265,4300.99999957,2715.87878761,3806.45454507,189.575757557,3900.21212082,457.454545409,4297.39393896,313.212121181,4487.99999955,259.63636361,4201.57575716,3494.78787844,4319.0303026,3086.78787848,4954.72727223,3062.06060575,3915.15151476,210.181818161,4378.78787835,3828.60606022,4192.30302988,2637.57575731,4858.39393891,3020.84848455,4409.69696926,4162.42424201,42.0,42.0,?
2017-07-31 19:28:44.634079,4504.99999955,3775.03030265,4304.09090866,2715.87878761,3807.4848481,189.575757557,3894.54545416,457.454545409,4296.87878745,313.212121181,4489.5454541,259.63636361,4202.09090867,3494.78787844,4314.90909048,3086.78787848,4934.12121163,3062.06060575,3923.90909052,210.181818161,4381.87878744,3828.60606022,4196.424242,2637.57575731,4861.99999951,3020.84848455,4412.78787835,4162.42424201,42.0,42.0,?
2017-07-31 19:28:44.638826,4505.51515106,3775.03030265,4293.27272684,2715.87878761,3810.06060568,189.575757557,3895.06060567,457.454545409,4298.93939351,313.212121181,4493.66666622,259.63636361,4202.09090867,3494.78787844,4323.15151472,3086.78787848,4925.87878739,3062.06060575,3948.12121173,210.181818161,4392.69696926,3828.60606022,4195.90909049,2637.57575731,4871.7878783,3020.84848455,4416.39393895,4162.42424201,42.0,42.0,?
2017-07-31 19:28:44.647915,4502.93939349,3775.03030265,4305.63636321,2715.87878761,3818.81818144,189.575757557,3897.12121173,457.454545409,4302.54545412,313.212121181,4495.21212076,259.63636361,4205.69696928,3494.78787844,4333.96969654,3086.78787848,4952.15151466,3062.06060575,3951.72727233,210.181818161,4394.75757532,3828.60606022,4198.99999958,2637.57575731,4871.7878783,3020.84848455,4416.90909047,4162.42424201,42.0,42.0,?
2017-07-31 19:28:44.655245,4502.93939349,3775.03030265,4321.09090866,2715.87878761,3826.54545416,189.575757557,3915.66666628,457.454545409,4302.0303026,313.212121181,4494.18181773,259.63636361,4209.30302988,3494.78787844,4330.36363593,3086.78787848,4946.99999951,3062.06060575,3938.33333294,210.181818161,4388.06060562,3828.60606022,4200.03030261,2637.57575731,4860.45454497,3020.84848455,4421.03030259,4162.42424201,42.0,42.0,?
2017-07-31 19:28:44.663220,4511.69696925,3775.03030265,4310.27272684,2715.87878761,3823.45454507,189.575757557,3925.45454506,457.454545409,4298.93939351,313.212121181,4494.69696925,259.63636361,4207.75757534,3494.78787844,4328.30302987,3086.78787848,4934.12121163,3062.06060575,3943.99999961,210.181818161,4394.2424238,3828.60606022,4195.90909049,2637.57575731,4863.03030254,3020.84848455,4429.78787834,4162.42424201,42.0,42.0,?
2017-07-31 19:28:44.670546,4519.42424197,3775.03030265,4301.51515109,2715.87878761,3818.81818144,189.575757557,3912.06060567,457.454545409,4304.60606018,313.212121181,4497.27272682,259.63636361,4212.90909049,3494.78787844,4341.69696926,3086.78787848,4966.06060556,3062.06060575,3959.96969657,210.181818161,4407.12121168,3828.60606022,4196.424242,2637.57575731,4876.42424194,3020.84848455,4430.81818138,4162.42424201,42.0,42.0,?
2017-07-31 19:28:44.683743,4512.21212076,3775.03030265,4307.69696927,2715.87878761,3822.42424204,189.575757557,3906.90909052,457.454545409,4305.12121169,313.212121181,4495.21212076,259.63636361,4214.96969655,3494.78787844,4341.69696926,3086.78787848,4957.30302981,3062.06060575,3954.30302991,210.181818161,4399.39393895,3828.60606022,4196.93939352,2637.57575731,4869.72727224,3020.84848455,4423.60606016,4162.42424201,42.0,42.0,?
2017-07-31 19:28:44.685772,4509.63636319,3775.03030265,4307.69696927,2715.87878761,3826.03030265,189.575757557,3907.93939355,457.454545409,4298.93939351,313.212121181,4492.12121167,259.63636361,4207.24242382,3494.78787844,4327.78787836,3086.78787848,4916.0909086,3062.06060575,3952.24242385,210.181818161,4396.81818138,3828.60606022,4200.03030261,2637.57575731,4867.15151466,3020.84848455,4428.75757531,4162.42424201,42.0,42.0,?
2017-07-31 19:28:44.692990,4513.24242379,3775.03030265,4300.99999957,2715.87878761,3817.78787841,189.575757557,3895.57575719,457.454545409,4300.48484805,313.212121181,4494.69696925,259.63636361,4204.15151473,3494.78787844,4329.3333329,3086.78787848,4933.0909086,3062.06060575,3961.51515112,210.181818161,4402.48484804,3828.60606022,4197.45454503,2637.57575731,4872.30302982,3020.84848455,4432.36363592,4162.42424201,42.0,42.0,?
2017-07-31 19:28:44.703276,4511.69696925,3775.03030265,4296.87878745,2715.87878761,3808.51515113,189.575757557,3893.51515113,457.454545409,4303.57575715,313.212121181,4492.12121167,259.63636361,4204.66666625,3494.78787844,4332.93939351,3086.78787848,4968.12121162,3062.06060575,3956.87878748,210.181818161,4397.84848441,3828.60606022,4190.75757534,2637.57575731,4866.12121163,3020.84848455,4423.09090865,4162.42424201,42.0,42.0,?
2017-07-31 19:28:44.715746,4519.42424197,3783.27272689,4296.87878745,2715.87878761,3814.69696932,189.575757557,3918.24242385,457.454545409,4305.12121169,313.212121181,4493.1515147,259.63636361,4209.8181814,3494.78787844,4334.99999957,3086.78787848,4969.66666617,3062.06060575,3958.93939354,210.181818161,4405.06060562,3828.60606022,4193.84848443,2637.57575731,4873.84848436,3020.84848455,4430.30302986,4162.42424201,42.0,42.0,?
2017-07-31 19:28:44.719173,4524.57575712,3783.27272689,4302.54545412,2707.63636337,3818.30302992,189.575757557,3916.18181779,457.454545409,4303.57575715,313.212121181,4494.69696925,259.63636361,4212.90909049,3494.78787844,4336.0303026,3086.78787848,4947.51515102,3062.06060575,3968.21212082,210.181818161,4410.72727229,3828.60606022,4201.06060564,2637.57575731,4881.06060557,3020.84848455,4439.06060562,4162.42424201,42.0,42.0,?
2017-07-31 19:28:44.724960,4511.18181773,3783.27272689,4302.0303026,2707.63636337,3809.03030265,189.575757557,3887.84848446,457.454545409,4298.93939351,313.212121181,4486.96969652,259.63636361,4205.18181776,3494.78787844,4324.18181775,3086.78787848,4924.33333284,3062.06060575,3960.9999996,210.181818161,4400.42424198,3828.60606022,4199.5151511,2637.57575731,4867.15151466,3020.84848455,4425.66666622,4162.42424201,42.0,42.0,?
2017-07-31 19:28:44.732581,4507.57575713,3783.27272689,4299.45454502,2707.63636337,3809.54545416,193.696969678,3899.18181779,457.454545409,4297.90909048,313.212121181,4487.48484804,259.63636361,4199.5151511,3494.78787844,4317.48484805,3086.78787848,4932.57575708,3062.06060575,3950.6969693,210.181818161,4392.18181774,3828.60606022,4194.36363594,2637.57575731,4856.84848436,3020.84848455,4421.03030259,4162.42424201,42.0,42.0,?
2017-07-31 19:28:44.740129,4513.75757531,3783.27272689,4299.96969654,2707.63636337,3816.75757538,193.696969678,3914.63636324,457.454545409,4297.39393896,313.212121181,4491.60606016,259.63636361,4204.15151473,3494.78787844,4322.12121169,3086.78787848,4963.48484799,3062.06060575,3950.18181779,210.181818161,4389.09090865,3828.60606022,4192.8181814,2637.57575731,4855.81818133,3020.84848455,4428.2424238,4162.42424201,42.0,42.0,?
2017-07-31 19:28:44.749968,4508.60606016,3783.27272689,4302.54545412,2707.63636337,3811.09090871,193.696969678,3895.06060567,457.454545409,4294.81818139,321.454545422,4486.96969652,259.63636361,4206.72727231,3494.78787844,4322.6363632,3086.78787848,4951.12121163,3062.06060575,3947.60606021,210.181818161,4389.09090865,3828.60606022,4196.424242,2637.57575731,4858.39393891,3020.84848455,4422.57575713,4162.42424201,42.0,42.0,?
2017-07-31 19:28:44.757194,4500.87878743,3783.27272689,4305.63636321,2707.63636337,3808.51515113,193.696969678,3899.18181779,457.454545409,4296.36363593,321.454545422,4487.48484804,259.63636361,4206.21212079,3494.78787844,4321.60606017,3086.78787848,4914.54545405,3062.06060575,3949.15151476,210.181818161,4390.6363632,3828.60606022,4198.99999958,2637.57575731,4860.96969648,3020.84848455,4416.39393895,4162.42424201,42.0,42.0,?
2017-07-31 19:28:44.763271,4501.90909046,3783.27272689,4298.42424199,2707.63636337,3810.57575719,193.696969678,3919.27272688,457.454545409,4303.57575715,321.454545422,4497.78787834,259.63636361,4209.30302988,3507.1515148,4327.27272684,3086.78787848,4925.36363587,3062.06060575,3962.54545415,210.181818161,4391.15151471,3828.60606022,4199.5151511,2637.57575731,4860.96969648,3020.84848455,4419.99999956,4162.42424201,42.0,42.0,?
2017-07-31 19:28:44.773388,4507.57575713,3783.27272689,4288.63636321,2707.63636337,3807.4848481,193.696969678,3902.7878784,457.454545409,4309.24242381,321.454545422,4503.454545,259.63636361,4213.424242,3507.1515148,4331.39393896,3090.9090906,4957.81818132,3062.06060575,3966.15151475,210.181818161,4392.18181774,3828.60606022,4196.424242,2637.57575731,4860.45454497,3020.84848455,4420.51515107,4162.42424201,42.0,42.0,?
2017-07-31 19:28:44.779019,4507.06060561,3783.27272689,4295.84848442,2707.63636337,3810.06060568,193.696969678,3888.87878749,457.454545409,4306.66666624,321.454545422,4501.39393894,259.63636361,4210.84848443,3507.1515148,4330.36363593,3090.9090906,4962.45454496,3057.93939363,3950.18181779,210.181818161,4392.69696926,3828.60606022,4190.24242382,2637.57575731,4863.03030254,3020.84848455,4418.45454501,4162.42424201,42.0,42.0,?
2017-07-31 19:28:44.787053,4508.60606016,3783.27272689,4307.69696927,2707.63636337,3820.36363598,193.696969678,3904.84848446,457.454545409,4302.0303026,321.454545422,4499.8484844,259.63636361,4210.33333291,3507.1515148,4330.36363593,3090.9090906,4950.60606011,3057.93939363,3945.03030264,210.181818161,4391.66666623,3828.60606022,4192.30302988,2637.57575731,4868.1818177,3020.84848455,4420.51515107,4162.42424201,42.0,42.0,?
2017-07-31 19:28:44.795860,4512.21212076,3783.27272689,4296.87878745,2707.63636337,3815.21212083,193.696969678,3916.18181779,457.454545409,4304.09090866,321.454545422,4495.72727228,259.63636361,4213.424242,3507.1515148,4327.78787836,3090.9090906,4938.24242375,3057.93939363,3951.72727233,210.181818161,4388.06060562,3820.36363598,4196.93939352,2637.57575731,4862.51515103,3020.84848455,4416.90909047,4162.42424201,42.0,42.0,?
2017-07-31 19:28:44.801937,4506.03030258,3783.27272689,4287.09090866,2707.63636337,3800.78787841,193.696969678,3911.54545415,457.454545409,4305.12121169,321.454545422,4496.24242379,259.63636361,4210.33333291,3507.1515148,4324.69696926,3090.9090906,4934.63636314,3057.93939363,3946.06060567,210.181818161,4383.9393935,3820.36363598,4195.39393897,2654.0606058,4852.72727224,3020.84848455,4409.69696926,4162.42424201,42.0,42.0,?
2017-07-31 19:28:44.810081,4504.48484803,3783.27272689,4290.69696927,2707.63636337,3800.27272689,193.696969678,3903.30302991,457.454545409,4302.0303026,321.454545422,4501.39393894,259.63636361,4208.27272685,3507.1515148,4325.72727229,3090.9090906,4944.42424193,3057.93939363,3940.393939,210.181818161,4380.84848441,3820.36363598,4192.8181814,2654.0606058,4855.30302982,3024.96969667,4410.72727229,4162.42424201,42.0,42.0,?
2017-07-31 19:28:44.818444,4512.21212076,3783.27272689,4292.24242381,2707.63636337,3809.54545416,193.696969678,3899.69696931,457.454545409,4298.42424199,321.454545422,4500.87878743,259.63636361,4207.75757534,3507.1515148,4323.15151472,3090.9090906,4943.90909041,3057.93939363,3948.63636324,201.939393919,4379.30302987,3820.36363598,4195.39393897,2654.0606058,4858.90909042,3024.96969667,4414.84848441,4162.42424201,42.0,42.0,?
2017-07-31 19:28:44.826737,4516.33333288,3783.27272689,4307.18181775,2707.63636337,3819.84848447,193.696969678,3914.63636324,457.454545409,4302.54545412,321.454545422,4497.27272682,259.63636361,4209.8181814,3507.1515148,4323.66666623,3090.9090906,4940.30302981,3057.93939363,3962.03030263,201.939393919,4388.57575714,3816.24242386,4198.99999958,2654.0606058,4861.484848,3024.96969667,4421.03030259,4162.42424201,42.0,42.0,?
2017-07-31 19:28:44.834001,4509.63636319,3783.27272689,4318.51515108,2707.63636337,3818.81818144,193.696969678,3924.93939355,457.454545409,4306.15151472,321.454545422,4498.30302985,259.63636361,4213.424242,3507.1515148,4333.96969654,3090.9090906,4961.42424193,3057.93939363,3970.78787839,201.939393919,4394.75757532,3816.24242386,4193.84848443,2654.0606058,4864.57575709,3024.96969667,4425.15151471,4162.42424201,42.0,42.0,?
2017-07-31 19:28:44.843912,4503.96969652,3783.27272689,4305.12121169,2707.63636337,3809.54545416,193.696969678,3913.60606021,457.454545409,4301.51515109,321.454545422,4497.78787834,259.63636361,4213.424242,3507.1515148,4333.45454502,3090.9090906,4960.90909041,3057.93939363,3965.12121172,201.939393919,4387.03030259,3816.24242386,4190.75757534,2654.0606058,4858.90909042,3024.96969667,4421.03030259,4162.42424201,42.0,42.0,?
2017-07-31 19:28:44.849697,4504.99999955,3783.27272689,4292.75757533,2707.63636337,3810.06060568,193.696969678,3904.33333294,457.454545409,4295.3333329,321.454545422,4492.12121167,259.63636361,4205.18181776,3507.1515148,4320.57575714,3090.9090906,4933.60606011,3057.93939363,3956.36363597,201.939393919,4380.3333329,3816.24242386,4196.424242,2654.0606058,4852.72727224,3024.96969667,4412.78787835,4162.42424201,42.0,42.0,?
2017-07-31 19:28:44.857544,4502.42424197,3783.27272689,4294.30302987,2707.63636337,3815.72727235,193.696969678,3911.54545415,457.454545409,4295.84848442,321.454545422,4487.48484804,259.63636361,4200.03030261,3507.1515148,4322.12121169,3090.9090906,4945.96969648,3057.93939363,3958.42424203,201.939393919,4377.75757532,3816.24242386,4195.90909049,2654.0606058,4853.75757527,3024.96969667,4406.60606017,4162.42424201,42.0,42.0,?
2017-07-31 19:28:44.866975,4500.36363591,3783.27272689,4295.3333329,2707.63636337,3814.69696932,193.696969678,3916.18181779,457.454545409,4301.51515109,321.454545422,4489.5454541,259.63636361,4207.75757534,3507.1515148,4333.96969654,3090.9090906,4974.30302981,3057.93939363,3969.75757536,201.939393919,4384.45454502,3816.24242386,4194.36363594,2654.0606058,4864.57575709,3024.96969667,4409.18181774,4162.42424201,42.0,42.0,?
2017-07-31 19:28:44.873752,4507.57575713,3783.27272689,4298.42424199,2707.63636337,3815.72727235,193.696969678,3913.0909087,457.454545409,4306.15151472,321.454545422,4494.69696925,259.63636361,4214.45454503,3507.1515148,4333.45454502,3090.9090906,4966.06060556,3057.93939363,3980.06060566,201.939393919,4393.72727229,3816.24242386,4195.39393897,2654.0606058,4870.75757527,3024.96969667,4416.90909047,4162.42424201,42.0,42.0,?
2017-07-31 19:28:44.882305,4515.81818137,3783.27272689,4306.15151472,2707.63636337,3821.90909053,193.696969678,3904.33333294,457.454545409,4303.06060563,321.454545422,4491.09090864,259.63636361,4209.8181814,3507.1515148,4327.78787836,3090.9090906,4954.72727223,3057.93939363,3979.03030263,201.939393919,4389.09090865,3816.24242386,4192.8181814,2654.0606058,4865.60606012,3024.96969667,4422.57575713,4162.42424201,42.0,42.0,?
2017-07-31 19:28:44.889346,4511.69696925,3783.27272689,4298.42424199,2707.63636337,3816.75757538,193.696969678,3907.42424203,457.454545409,4298.42424199,321.454545422,4488.51515107,259.63636361,4204.66666625,3507.1515148,4329.84848442,3090.9090906,4962.45454496,3057.93939363,3979.03030263,201.939393919,4384.45454502,3816.24242386,4197.96969655,2654.0606058,4863.03030254,3024.96969667,4419.48484804,4162.42424201,42.0,42.0,?
2017-07-31 19:28:44.897732,4503.96969652,3783.27272689,4295.84848442,2707.63636337,3807.99999962,193.696969678,3917.21212082,457.454545409,4299.96969654,321.454545422,4491.60606016,259.63636361,4205.69696928,3507.1515148,4332.93939351,3090.9090906,4961.93939344,3057.93939363,3989.84848445,201.939393919,4390.12121168,3816.24242386,4201.06060564,2654.0606058,4864.57575709,3024.96969667,4410.21212077,4162.42424201,42.0,42.0,?
2017-07-31 19:28:44.905241,4506.03030258,3783.27272689,4306.15151472,2707.63636337,3813.66666629,193.696969678,3910.51515112,457.454545409,4300.99999957,321.454545422,4488.51515107,259.63636361,4207.24242382,3507.1515148,4331.39393896,3090.9090906,4968.63636314,3057.93939363,3991.90909051,201.939393919,4392.69696926,3816.24242386,4192.8181814,2654.0606058,4868.69696921,3024.96969667,4409.18181774,4162.42424201,42.0,42.0,?
2017-07-31 19:28:44.913386,4506.03030258,3783.27272689,4302.0303026,2707.63636337,3815.72727235,193.696969678,3902.7878784,457.454545409,4299.96969654,321.454545422,4485.93939349,259.63636361,4209.8181814,3507.1515148,4330.87878745,3090.9090906,4986.15151465,3057.93939363,3981.60606021,201.939393919,4387.54545411,3816.24242386,4190.24242382,2654.0606058,4868.1818177,3024.96969667,4415.36363592,4162.42424201,42.0,42.0,?
2017-07-31 19:28:44.920603,4507.06060561,3783.27272689,4292.75757533,2707.63636337,3812.12121174,193.696969678,3908.96969658,457.454545409,4302.0303026,321.454545422,4493.1515147,259.63636361,4212.39393897,3507.1515148,4333.45454502,3090.9090906,4979.96969647,3057.93939363,3985.21212081,201.939393919,4391.66666623,3816.24242386,4197.96969655,2654.0606058,4864.57575709,3024.96969667,4420.51515107,4162.42424201,42.0,42.0,?
2017-07-31 19:28:44.927888,4516.8484844,3783.27272689,4307.18181775,2707.63636337,3824.99999962,193.696969678,3912.57575718,457.454545409,4303.57575715,321.454545422,4496.24242379,259.63636361,4211.87878746,3507.1515148,4332.93939351,3090.9090906,4968.63636314,3057.93939363,4002.72727233,201.939393919,4405.06060562,3816.24242386,4199.5151511,2654.0606058,4873.84848436,3024.96969667,4423.60606016,4162.42424201,42.0,42.0,?
2017-07-31 19:28:44.935498,4515.81818137,3783.27272689,4316.45454502,2707.63636337,3826.54545416,193.696969678,3910.51515112,457.454545409,4302.0303026,321.454545422,4491.60606016,259.63636361,4213.93939352,3507.1515148,4331.39393896,3090.9090906,4976.87878738,3057.93939363,4002.72727233,201.939393919,4402.99999956,3816.24242386,4192.8181814,2654.0606058,4876.42424194,3024.96969667,4421.5454541,4162.42424201,42.0,42.0,?
2017-07-31 19:28:44.942859,4511.18181773,3783.27272689,4300.48484805,2707.63636337,3813.66666629,193.696969678,3917.21212082,457.454545409,4303.57575715,321.454545422,4494.69696925,259.63636361,4215.99999958,3507.1515148,4334.99999957,3090.9090906,4974.81818132,3057.93939363,3997.57575718,201.939393919,4399.39393895,3816.24242386,4194.36363594,2654.0606058,4870.75757527,3024.96969667,4425.66666622,4162.42424201,42.0,42.0,?
2017-07-31 19:28:44.951665,4519.42424197,3783.27272689,4302.54545412,2707.63636337,3820.8787875,193.696969678,3924.42424203,457.454545409,4302.54545412,321.454545422,4497.78787834,259.63636361,4214.96969655,3507.1515148,4334.99999957,3090.9090906,4969.66666617,3057.93939363,4005.81818142,201.939393919,4404.03030259,3816.24242386,4196.93939352,2654.0606058,4872.30302982,3024.96969667,4440.60606016,4162.42424201,42.0,42.0,?
2017-07-31 19:28:44.959223,4517.87878743,3783.27272689,4317.48484805,2707.63636337,3830.15151477,193.696969678,3907.42424203,457.454545409,4295.3333329,321.454545422,4489.5454541,259.63636361,4209.8181814,3507.1515148,4328.81818139,3090.9090906,4982.03030253,3057.93939363,4006.33333293,201.939393919,4399.90909047,3816.24242386,4192.8181814,2654.0606058,4871.27272679,3024.96969667,4439.06060562,4162.42424201,42.0,42.0,?
2017-07-31 19:28:44.969032,4506.03030258,3783.27272689,4310.78787836,2707.63636337,3817.78787841,193.696969678,3898.66666628,457.454545409,4296.87878745,321.454545422,4484.39393895,259.63636361,4207.75757534,3507.1515148,4329.3333329,3090.9090906,4991.3030298,3057.93939363,4000.15151475,201.939393919,4395.27272683,3816.24242386,4193.84848443,2654.0606058,4864.57575709,3024.96969667,4430.81818138,4162.42424201,42.0,42.0,?
2017-07-31 19:28:44.976205,4506.54545409,3783.27272689,4305.12121169,2707.63636337,3814.1818178,193.696969678,3918.24242385,457.454545409,4302.0303026,321.454545422,4486.45454501,259.63636361,4209.30302988,3507.1515148,4329.3333329,3090.9090906,4976.36363587,3057.93939363,3997.57575718,201.939393919,4388.57575714,3816.24242386,4196.424242,2654.0606058,4855.30302982,3024.96969667,4436.48484804,4162.42424201,42.0,42.0,?
2017-07-31 19:28:44.982799,4508.09090864,3783.27272689,4311.81818139,2707.63636337,3819.84848447,193.696969678,3931.63636324,457.454545409,4296.87878745,321.454545422,4486.96969652,259.63636361,4209.30302988,3507.1515148,4322.12121169,3090.9090906,4950.60606011,3057.93939363,3998.60606021,201.939393919,4381.87878744,3816.24242386,4194.87878746,2654.0606058,4851.69696921,3024.96969667,4435.45454501,4162.42424201,42.0,42.0,?
2017-07-31 19:28:44.991381,4504.48484803,3783.27272689,4307.69696927,2707.63636337,3815.72727235,193.696969678,3922.87878749,457.454545409,4293.78787836,321.454545422,4487.48484804,259.63636361,4212.39393897,3507.1515148,4328.81818139,3090.9090906,4962.96969647,3057.93939363,4005.81818142,201.939393919,4390.6363632,3816.24242386,4194.36363594,2654.0606058,4860.45454497,3024.96969667,4426.69696925,4162.42424201,42.0,42.0,?
2017-07-31 19:28:45.000307,4514.27272682,3783.27272689,4310.27272684,2707.63636337,3814.69696932,193.696969678,3913.0909087,457.454545409,4298.93939351,321.454545422,4495.21212076,259.63636361,4217.54545412,3507.1515148,4341.69696926,3090.9090906,5000.57575708,3057.93939363,4015.09090869,201.939393919,4401.45454501,3816.24242386,4192.30302988,2654.0606058,4866.12121163,3024.96969667,4438.5454541,4162.42424201,42.0,42.0,?
2017-07-31 19:28:45.006711,4524.57575712,3783.27272689,4329.3333329,2707.63636337,3820.36363598,193.696969678,3918.75757537,457.454545409,4302.54545412,321.454545422,4499.33333288,259.63636361,4219.09090867,3507.1515148,4340.15151472,3090.9090906,4994.39393889,3057.93939363,4017.15151475,201.939393919,4399.39393895,3816.24242386,4194.36363594,2654.0606058,4867.66666618,3024.96969667,4451.42424198,4162.42424201,42.0,42.0,?
2017-07-31 19:28:45.015273,4511.69696925,3783.27272689,4325.21212078,2707.63636337,3822.42424204,193.696969678,3912.57575718,457.454545409,4296.87878745,321.454545422,4494.18181773,259.63636361,4213.93939352,3507.1515148,4328.81818139,3090.9090906,4955.75757526,3057.93939363,4013.03030263,201.939393919,4392.18181774,3816.24242386,4197.45454503,2654.0606058,4863.54545406,3024.96969667,4439.06060562,4162.42424201,42.0,42.0,?
