Timestamp,F3 Value,F3 Quality,FC5 Value,FC5 Quality,F7 Value,F7 Quality,T7 Value,T7 Quality,P7 Value,P7 Quality,O1 Value,O1 Quality,O2 Value,O2 Quality,P8 Value,P8 Quality,T8 Value,T8 Quality,F8 Value,F8 Quality,AF4 Value,AF4 Quality,FC6 Value,FC6 Quality,F4 Value,F4 Quality,AF3 Value,AF3 Quality,X Value,Y Value,Z Value
2017-07-31 18:08:36.794667,4538.48484803,0,4215.99999958,0,3878.06060567,0,3935.75757536,0,4290.69696927,0,4419.48484804,0,4182.5151511,0,4333.45454502,0,4996.45454495,0,4155.72727231,0,4429.27272683,0,3992.42424203,0,4817.1818177,0,4514.78787834,0,42.0,42.0,?
2017-07-31 18:08:36.794743,4579.18181772,0,4231.45454503,0,3890.42424204,0,3928.54545415,0,4336.54545411,0,4464.81818137,0,4220.63636321,0,4413.81818138,0,5018.09090859,0,4254.1212117,0,4456.06060561,0,4228.36363594,0,4888.7878783,0,4562.18181773,0,42.0,42.0,?
2017-07-31 18:08:36.795159,4585.36363591,0,4200.03030261,0,3904.33333294,0,3945.03030264,0,4337.57575714,0,4467.39393895,0,4232.99999958,0,4426.18181774,0,5036.12121162,0,4269.06060563,0,4464.30302986,0,4228.36363594,0,4871.27272679,0,4572.99999954,0,42.0,42.0,?
2017-07-31 18:08:36.796559,4563.72727227,0,4283.99999957,0,3906.90909052,0,3948.63636324,0,4309.75757533,0,4459.15151471,0,4233.51515109,0,4426.69696925,0,5041.27272677,0,4273.69696927,0,4472.03030258,0,4253.60606018,0,4878.99999951,0,4581.7575753,0,42.0,42.0,?
2017-07-31 18:08:36.801366,4592.0606056,0,4283.99999957,0,3876.51515113,0,3921.33333294,0,4360.75757532,0,4455.03030258,0,4210.84848443,0,4399.90909047,0,5057.24242374,0,4240.7272723,0,4460.18181774,0,4202.60606019,0,4927.42424193,0,4568.87878742,0,42.0,42.0,?
2017-07-31 18:08:36.804058,4592.0606056,0,4111.42424201,0,3927.51515112,0,3960.9999996,0,4360.75757532,0,4461.72727228,0,4241.24242382,0,4448.8484844,0,5057.24242374,0,4290.18181775,0,4469.96969652,0,4202.60606019,0,4822.84848437,0,4594.63636318,0,42.0,42.0,?
2017-07-31 18:08:36.809591,4604.42424196,0,4049.09090869,0,3949.15151476,0,3972.33333294,0,4388.57575714,0,4455.03030258,0,4258.24242382,0,4476.1515147,0,5086.6060601,0,4313.87878745,0,4482.33333289,0,4189.21212079,0,4793.48484801,0,4598.24242378,0,42.0,42.0,?
2017-07-31 18:08:36.813732,4543.63636318,0,4312.84848442,0,3854.87878749,0,3902.7878784,0,4301.51515109,0,4449.36363592,0,4191.78787837,0,4384.45454502,0,4989.75757526,0,4220.63636321,0,4448.33333289,0,4260.81818139,0,4952.15151466,0,4545.18181773,0,42.0,42.0,?
2017-07-31 18:08:36.819783,4549.30302985,0,4272.66666624,0,3867.24242386,0,3929.57575718,0,4296.87878745,0,4459.66666622,0,4187.66666625,0,4380.3333329,0,4985.12121162,0,4229.39393897,0,4441.63636319,0,4244.84848442,0,4920.21212072,0,4557.54545409,0,42.0,42.0,?
2017-07-31 18:08:36.825742,4578.66666621,0,4170.15151473,0,3911.03030264,0,3950.18181779,0,4333.96969654,0,4460.69696925,0,4214.45454503,0,4423.09090865,0,5026.33333283,0,4274.7272723,0,4463.27272683,0,4219.09090867,0,4856.33333285,0,4582.78787833,0,42.0,42.0,?
2017-07-31 18:08:36.830057,4563.21212076,0,4245.87878745,0,3882.69696931,0,3916.18181779,0,4320.06060563,0,4455.5454541,0,4203.1212117,0,4404.54545411,0,5005.72727223,0,4253.09090867,0,4462.2424238,0,4243.30302988,0,4905.7878783,0,4569.90909045,0,42.0,42.0,?
2017-07-31 18:08:36.833348,4569.39393894,0,4218.57575715,0,3887.84848446,0,3938.84848445,0,4320.06060563,0,4458.12121168,0,4212.90909049,0,4406.60606017,0,5014.9999995,0,4259.27272685,0,4460.18181774,0,4231.45454503,0,4892.90909042,0,4575.0606056,0,42.0,42.0,?
2017-07-31 18:08:36.837667,4571.454545,0,4206.21212079,0,3895.06060567,0,3943.48484809,0,4319.54545411,0,4459.15151471,0,4222.18181776,0,4413.30302986,0,5023.24242374,0,4261.33333291,0,4450.90909046,0,4224.75757534,0,4878.484848,0,4573.51515106,0,42.0,42.0,?
2017-07-31 18:08:36.841763,4568.87878742,0,4218.06060564,0,3896.60606022,0,3928.54545415,0,4324.18181775,0,4459.15151471,0,4226.8181814,0,4415.87878744,0,5022.21212071,0,4257.21212079,0,4449.36363592,0,4231.96969655,0,4880.03030254,0,4573.51515106,0,42.0,42.0,?
2017-07-31 18:08:36.843819,4578.15151469,0,4214.45454503,0,3900.72727234,0,3939.36363597,0,4326.75757532,0,4455.5454541,0,4226.8181814,0,4417.42424198,0,5027.36363586,0,4259.78787836,0,4460.18181774,0,4231.45454503,0,4882.60606012,0,4583.81818136,0,42.0,42.0,?
2017-07-31 18:08:36.846661,4578.15151469,0,4213.424242,0,3892.99999961,0,3947.60606021,0,4328.30302987,0,4459.66666622,0,4216.51515109,0,4410.72727229,0,5021.69696919,0,4251.54545412,0,4456.06060561,0,4229.90909049,0,4882.0909086,0,4579.18181772,0,42.0,42.0,?
2017-07-31 18:08:36.849757,4569.90909045,0,4209.8181814,0,3891.45454507,0,3946.06060567,0,4336.0303026,0,4467.39393895,0,4214.96969655,0,4412.27272683,0,5017.06060556,0,4250.51515109,0,4449.36363592,0,4229.90909049,0,4878.99999951,0,4571.96969651,0,42.0,42.0,?
2017-07-31 18:08:36.854940,4565.27272682,0,4214.45454503,0,3897.12121173,0,3943.99999961,0,4330.87878745,0,4463.78787834,0,4218.57575715,0,4416.90909047,0,5022.72727222,0,4255.66666624,0,4453.48484804,0,4229.90909049,0,4884.66666618,0,4576.09090863,0,42.0,42.0,?
2017-07-31 18:08:36.861547,4568.87878742,0,4211.36363594,0,3902.7878784,0,3947.0909087,0,4332.42424199,0,4463.78787834,0,4222.69696927,0,4424.63636319,0,5037.15151465,0,4262.87878745,0,4460.18181774,0,4230.424242,0,4883.63636315,0,4584.84848439,0,42.0,42.0,?
2017-07-31 18:08:36.865716,4572.48484803,0,4211.87878746,0,3900.72727234,0,3943.99999961,0,4340.15151472,0,4469.96969652,0,4222.69696927,0,4430.30302986,0,5040.75757525,0,4265.96969654,0,4462.2424238,0,4230.93939352,0,4888.7878783,0,4586.90909045,0,42.0,42.0,?
2017-07-31 18:08:36.874146,4573.51515106,0,4210.33333291,0,3901.75757537,0,3943.99999961,0,4334.99999957,0,4461.72727228,0,4220.63636321,0,4428.2424238,0,5032.51515101,0,4264.93939351,0,4462.2424238,0,4228.87878746,0,4889.81818133,0,4590.51515106,0,42.0,42.0,?
2017-07-31 18:08:36.880414,4572.48484803,0,4206.21212079,0,3903.81818143,0,3947.60606021,0,4325.72727229,0,4452.96969652,0,4220.1212117,0,4422.57575713,0,5024.27272677,0,4263.39393897,0,4465.8484844,0,4228.87878746,0,4884.66666618,0,4593.60606015,0,42.0,42.0,?
2017-07-31 18:08:36.901131,4562.69696924,0,4209.30302988,0,3891.45454507,0,3937.30302991,0,4329.84848442,0,4460.69696925,0,4206.21212079,0,4409.18181774,0,5019.12121162,0,4243.81818139,0,4452.45454501,0,4228.87878746,0,4877.45454497,0,4580.21212075,0,42.0,42.0,?
2017-07-31 18:08:36.901242,4562.69696924,0,4209.30302988,0,3891.45454507,0,3937.30302991,0,4329.84848442,0,4460.69696925,0,4206.21212079,0,4409.18181774,0,5019.12121162,0,4243.81818139,0,4452.45454501,0,4228.87878746,0,4877.45454497,0,4580.21212075,0,42.0,42.0,?
2017-07-31 18:08:36.903279,4568.87878742,0,4206.21212079,0,3895.06060567,0,3931.63636324,0,4331.90909048,0,4451.42424198,0,4213.93939352,0,4413.81818138,0,5021.18181768,0,4249.48484806,0,4455.03030258,0,4227.84848443,0,4878.99999951,0,4589.99999954,0,42.0,42.0,?
2017-07-31 18:08:36.920778,4573.51515106,0,4205.18181776,0,3905.36363597,0,3945.03030264,0,4338.60606017,0,4459.15151471,0,4222.18181776,0,4424.12121168,0,5035.09090859,0,4257.7272723,0,4462.2424238,0,4232.48484806,0,4881.06060557,0,4601.84848439,0,42.0,42.0,?
2017-07-31 18:08:36.924406,4573.51515106,0,4205.18181776,0,3905.36363597,0,3945.03030264,0,4338.60606017,0,4459.15151471,0,4222.18181776,0,4424.12121168,0,5035.09090859,0,4257.7272723,0,4462.2424238,0,4232.48484806,0,4881.06060557,0,4601.84848439,0,42.0,42.0,?
2017-07-31 18:08:36.931680,4574.54545409,3717.33333296,4206.21212079,0,3902.27272688,0,3947.60606021,0,4324.18181775,0,4456.06060561,0,4220.1212117,0,4424.63636319,0,5025.81818132,0,4259.78787836,0,4464.81818137,0,4228.36363594,0,4883.12121163,0,4606.99999954,0,42.0,42.0,?
2017-07-31 18:08:36.937276,4574.54545409,3717.33333296,4206.21212079,0,3902.27272688,0,3947.60606021,0,4324.18181775,0,4456.06060561,0,4220.1212117,0,4424.63636319,0,5025.81818132,0,4259.78787836,0,4464.81818137,0,4228.36363594,0,4883.12121163,0,4606.99999954,0,42.0,42.0,?
2017-07-31 18:08:36.948800,4573.51515106,3717.33333296,4205.18181776,12.3636363624,3900.72727234,0,3939.87878748,0,4317.99999957,0,4452.45454501,0,4215.99999958,0,4419.48484804,0,5027.36363586,0,4250.51515109,0,4458.63636319,0,4225.78787837,0,4876.93939345,0,4606.48484802,0,42.0,42.0,?
2017-07-31 18:08:36.956710,4578.15151469,3717.33333296,4207.75757534,12.3636363624,3899.18181779,234.909090886,3943.99999961,0,4332.42424199,0,4459.66666622,0,4217.03030261,0,4424.12121168,0,5020.66666616,0,4246.39393897,0,4458.12121168,0,4229.90909049,0,4874.87878739,0,4603.90909045,3531.87878753,42.0,42.0,?
2017-07-31 18:08:36.958200,4578.15151469,3717.33333296,4207.75757534,12.3636363624,3899.18181779,234.909090886,3943.99999961,0,4332.42424199,0,4459.66666622,0,4217.03030261,0,4424.12121168,0,5020.66666616,0,4246.39393897,0,4458.12121168,0,4229.90909049,0,4874.87878739,0,4603.90909045,3531.87878753,42.0,42.0,?
2017-07-31 18:08:36.966258,4577.63636318,3717.33333296,4209.8181814,12.3636363624,3902.7878784,234.909090886,3936.78787839,350.303030268,4332.93939351,0,4461.72727228,0,4217.03030261,0,4416.39393895,0,5020.15151465,0,4252.57575715,0,4463.27272683,0,4231.45454503,0,4882.0909086,0,4605.45454499,3531.87878753,42.0,42.0,?
2017-07-31 18:08:36.974804,4577.63636318,3717.33333296,4211.36363594,12.3636363624,3901.24242385,234.909090886,3936.27272688,350.303030268,4332.93939351,193.696969678,4456.57575713,0,4217.54545412,0,4413.81818138,0,5030.45454495,0,4249.48484806,0,4458.63636319,0,4229.39393897,0,4877.96969648,0,4602.87878742,3531.87878753,42.0,42.0,?
2017-07-31 18:08:36.981015,4580.21212075,3717.33333296,4208.27272685,12.3636363624,3899.18181779,234.909090886,3944.51515112,350.303030268,4330.36363593,193.696969678,4454.51515107,2880.72727244,4217.54545412,0,4421.03030259,0,5039.72727222,0,4248.45454503,0,4459.66666622,0,4231.96969655,0,4880.03030254,0,4603.90909045,3531.87878753,42.0,42.0,?
2017-07-31 18:08:36.994218,4585.36363591,3717.33333296,4209.30302988,12.3636363624,3899.18181779,234.909090886,3951.21212082,350.303030268,4334.48484805,193.696969678,4458.63636319,2880.72727244,4214.45454503,3177.45454514,4422.06060562,0,5031.9999995,0,4253.09090867,0,4466.36363592,0,4237.1212117,0,4886.72727224,0,4608.54545408,3531.87878753,42.0,42.0,?
2017-07-31 18:08:36.997579,4582.27272681,3717.33333296,4210.33333291,12.3636363624,3900.21212082,234.909090886,3946.57575718,350.303030268,4335.51515108,193.696969678,4461.21212077,2880.72727244,4219.60606018,3177.45454514,4421.03030259,2687.03030276,5024.78787829,0,4256.69696927,0,4465.33333289,0,4233.51515109,0,4881.57575709,0,4608.03030257,3531.87878753,42.0,42.0,?
2017-07-31 18:08:37.005949,4579.69696924,3717.33333296,4210.84848443,12.3636363624,3898.66666628,234.909090886,3941.42424203,350.303030268,4330.87878745,193.696969678,4458.63636319,2880.72727244,4223.21212079,3177.45454514,4421.5454541,2687.03030276,5032.51515101,3012.6060603,4255.66666624,0,4462.75757531,0,4228.87878746,0,4881.06060557,0,4604.42424196,3531.87878753,42.0,42.0,?
2017-07-31 18:08:37.012653,4577.63636318,3717.33333296,4206.72727231,12.3636363624,3897.12121173,234.909090886,3946.57575718,350.303030268,4331.39393896,193.696969678,4460.69696925,2880.72727244,4220.1212117,3177.45454514,4423.09090865,2687.03030276,5042.81818131,3012.6060603,4256.69696927,61.818181812,4464.81818137,0,4228.36363594,0,4883.63636315,0,4603.39393893,3531.87878753,42.0,42.0,?
2017-07-31 18:08:37.021498,4572.48484803,3717.33333296,4205.69696928,12.3636363624,3896.0909087,234.909090886,3950.18181779,350.303030268,4337.06060563,193.696969678,4466.87878743,2880.72727244,4225.78787837,3177.45454514,4425.15151471,2687.03030276,5041.78787828,3012.6060603,4258.24242382,61.818181812,4467.90909046,3292.84848452,4228.87878746,0,4881.57575709,0,4601.84848439,3531.87878753,42.0,42.0,?
2017-07-31 18:08:37.028862,4567.33333288,3717.33333296,4209.8181814,12.3636363624,3890.93939355,234.909090886,3945.03030264,350.303030268,4337.57575714,193.696969678,4464.81818137,2880.72727244,4232.99999958,3177.45454514,4423.09090865,2687.03030276,5037.66666616,3012.6060603,4252.57575715,61.818181812,4460.18181774,3292.84848452,4227.33333291,605.818181758,4876.42424194,0,4593.60606015,3531.87878753,42.0,42.0,?
2017-07-31 18:08:37.037146,4568.87878742,3717.33333296,4207.75757534,12.3636363624,3888.87878749,234.909090886,3943.48484809,350.303030268,4332.93939351,193.696969678,4462.75757531,2880.72727244,4230.424242,3177.45454514,4423.60606016,2687.03030276,5038.18181768,3012.6060603,4254.63636321,61.818181812,4455.03030258,3292.84848452,4226.30302988,605.818181758,4871.7878783,1133.33333322,4586.39393894,3531.87878753,42.0,42.0,?
2017-07-31 18:08:37.044190,4572.99999954,3717.33333296,4207.24242382,12.3636363624,3892.4848481,234.909090886,3945.54545415,350.303030268,4332.93939351,193.696969678,4464.30302986,2880.72727244,4226.8181814,3177.45454514,4428.2424238,2687.03030276,5036.12121162,3012.6060603,4268.54545412,57.6969696912,4462.75757531,3292.84848452,4227.84848443,605.818181758,4878.484848,1133.33333322,4589.99999954,3531.87878753,42.0,42.0,?
2017-07-31 18:08:37.052215,4574.03030257,3717.33333296,4207.75757534,12.3636363624,3893.51515113,234.909090886,3946.06060567,350.303030268,4342.21212078,193.696969678,4464.30302986,2880.72727244,4227.33333291,3177.45454514,4429.27272683,2687.03030276,5035.09090859,3012.6060603,4278.84848442,57.6969696912,4467.39393895,3288.7272724,4227.33333291,605.818181758,4878.99999951,1133.33333322,4591.54545409,3531.87878753,42.0,42.0,?
2017-07-31 18:08:37.059791,4573.51515106,3717.33333296,4207.75757534,12.3636363624,3889.393939,234.909090886,3949.15151476,350.303030268,4345.81818138,193.696969678,4463.27272683,2880.72727244,4229.90909049,3177.45454514,4427.21212077,2687.03030276,5041.27272677,3012.6060603,4284.51515109,57.6969696912,4465.33333289,3288.7272724,4226.8181814,593.454545395,4875.90909042,1133.33333322,4584.84848439,3531.87878753,42.0,42.0,?
2017-07-31 18:08:37.069334,4572.99999954,3717.33333296,4209.8181814,12.3636363624,3888.36363597,234.909090886,3948.12121173,350.303030268,4338.60606017,193.696969678,4460.69696925,2880.72727244,4230.424242,3177.45454514,4426.69696925,2687.03030276,5039.72727222,3012.6060603,4294.81818139,57.6969696912,4465.8484844,3288.7272724,4229.39393897,593.454545395,4880.03030254,1133.33333322,4580.21212075,3531.87878753,42.0,42.0,?
2017-07-31 18:08:37.080051,4574.03030257,3717.33333296,4207.24242382,12.3636363624,3894.54545416,234.909090886,3943.48484809,350.303030268,4333.45454502,193.696969678,4458.12121168,2880.72727244,4227.33333291,3177.45454514,4428.2424238,2687.03030276,5029.93939344,3012.6060603,4307.69696927,57.6969696912,4470.48484804,3288.7272724,4232.48484806,593.454545395,4881.06060557,1133.33333322,4578.66666621,3531.87878753,42.0,42.0,?
2017-07-31 18:08:37.086777,4575.0606056,3717.33333296,4206.72727231,12.3636363624,3895.06060567,234.909090886,3939.36363597,350.303030268,4327.27272684,193.696969678,4456.06060561,2880.72727244,4221.66666624,3177.45454514,4427.72727228,2687.03030276,5025.3030298,3012.6060603,4312.84848442,57.6969696912,4476.66666622,3288.7272724,4232.48484806,593.454545395,4884.66666618,1133.33333322,4576.09090863,3531.87878753,42.0,42.0,?
2017-07-31 18:08:37.091169,4574.54545409,3717.33333296,4207.75757534,12.3636363624,3891.96969658,234.909090886,3936.27272688,350.303030268,4321.09090866,193.696969678,4458.63636319,2880.72727244,4219.09090867,3177.45454514,4426.18181774,2687.03030276,5027.87878738,3012.6060603,4315.42424199,57.6969696912,4477.18181773,3288.7272724,4228.36363594,593.454545395,4884.66666618,1133.33333322,4577.12121166,3531.87878753,42.0,42.0,?
2017-07-31 18:08:37.098646,4571.454545,3717.33333296,4207.75757534,12.3636363624,3891.45454507,234.909090886,3938.33333294,350.303030268,4317.99999957,193.696969678,4461.21212077,2880.72727244,4222.18181776,3177.45454514,4428.2424238,2687.03030276,5029.93939344,3012.6060603,4321.09090866,57.6969696912,4474.09090864,3288.7272724,4228.36363594,593.454545395,4883.63636315,1133.33333322,4588.96969651,3531.87878753,42.0,42.0,?
2017-07-31 18:08:37.108135,4568.36363591,3717.33333296,4209.30302988,12.3636363624,3893.51515113,234.909090886,3941.93939355,350.303030268,4321.60606017,193.696969678,4461.72727228,2880.72727244,4227.33333291,3177.45454514,4430.81818138,2687.03030276,5028.90909041,3012.6060603,4316.96969654,57.6969696912,4470.99999955,3288.7272724,4228.87878746,593.454545395,4883.63636315,1133.33333322,4599.78787833,3531.87878753,42.0,42.0,?
2017-07-31 18:08:37.114515,4571.454545,3717.33333296,4209.30302988,12.3636363624,3897.63636325,234.909090886,3939.87878748,350.303030268,4330.36363593,193.696969678,4464.81818137,2880.72727244,4230.93939352,3177.45454514,4432.87878744,2687.03030276,5030.45454495,3012.6060603,4309.24242381,57.6969696912,4474.60606016,3288.7272724,4225.78787837,593.454545395,4880.54545406,1133.33333322,4602.3636359,3531.87878753,42.0,42.0,?
2017-07-31 18:08:37.123390,4576.09090863,3717.33333296,4209.30302988,12.3636363624,3901.75757537,234.909090886,3939.87878748,350.303030268,4327.27272684,193.696969678,4468.42424198,2880.72727244,4229.90909049,3177.45454514,4430.81818138,2687.03030276,5028.90909041,3012.6060603,4303.06060563,57.6969696912,4480.27272682,3288.7272724,4226.30302988,593.454545395,4886.21212072,1133.33333322,4603.39393893,3531.87878753,42.0,42.0,?
2017-07-31 18:08:37.130410,4574.03030257,3717.33333296,4208.78787837,12.3636363624,3903.30302991,234.909090886,3943.48484809,350.303030268,4317.48484805,193.696969678,4466.87878743,2880.72727244,4224.24242382,3177.45454514,4426.18181774,2687.03030276,5024.78787829,3012.6060603,4291.21212078,57.6969696912,4475.63636319,3288.7272724,4227.33333291,593.454545395,4887.75757527,1133.33333322,4601.84848439,3531.87878753,42.0,42.0,?
2017-07-31 18:08:37.137869,4571.96969651,3717.33333296,4207.24242382,12.3636363624,3903.30302991,234.909090886,3934.21212082,350.303030268,4319.0303026,193.696969678,4464.30302986,2880.72727244,4223.21212079,3177.45454514,4425.66666622,2687.03030276,5026.33333283,3012.6060603,4281.93939351,57.6969696912,4472.5454541,3288.7272724,4227.84848443,593.454545395,4886.21212072,1133.33333322,4601.33333287,3531.87878753,42.0,42.0,?
2017-07-31 18:08:37.146871,4575.0606056,3717.33333296,4209.30302988,12.3636363624,3903.81818143,234.909090886,3927.51515112,350.303030268,4322.12121169,193.696969678,4465.33333289,2880.72727244,4227.84848443,3177.45454514,4428.2424238,2687.03030276,5031.48484798,3012.6060603,4286.06060563,57.6969696912,4477.69696925,3288.7272724,4227.84848443,593.454545395,4887.24242375,1133.33333322,4602.87878742,3531.87878753,42.0,42.0,?
2017-07-31 18:08:37.153717,4575.0606056,3717.33333296,4208.78787837,12.3636363624,3908.96969658,234.909090886,3942.45454506,350.303030268,4318.51515108,193.696969678,4465.33333289,2880.72727244,4231.96969655,3177.45454514,4430.30302986,2687.03030276,5030.45454495,3012.6060603,4288.63636321,57.6969696912,4476.66666622,3288.7272724,4228.36363594,593.454545395,4883.12121163,1133.33333322,4601.84848439,3531.87878753,42.0,42.0,?
2017-07-31 18:08:37.161467,4569.39393894,3717.33333296,4207.24242382,12.3636363624,3913.0909087,234.909090886,3950.6969693,350.303030268,4316.96969654,193.696969678,4462.2424238,2880.72727244,4228.87878746,3177.45454514,4428.75757531,2687.03030276,5022.21212071,3012.6060603,4279.87878745,57.6969696912,4469.45454501,3288.7272724,4229.39393897,593.454545395,4884.15151466,1133.33333322,4597.72727227,3531.87878753,42.0,42.0,?
2017-07-31 18:08:37.169164,4568.36363591,3717.33333296,4207.24242382,12.3636363624,3912.06060567,234.909090886,3940.393939,350.303030268,4317.99999957,193.696969678,4458.63636319,2880.72727244,4218.57575715,3177.45454514,4420.51515107,2687.03030276,5013.96969647,3012.6060603,4278.84848442,57.6969696912,4467.90909046,3288.7272724,4228.87878746,593.454545395,4884.15151466,1133.33333322,4598.24242378,3531.87878753,42.0,42.0,?
2017-07-31 18:08:37.178670,4572.99999954,3717.33333296,4208.78787837,12.3636363624,3909.99999961,234.909090886,3931.63636324,350.303030268,4314.39393896,193.696969678,4457.60606016,2880.72727244,4210.33333291,3177.45454514,4410.72727229,2687.03030276,5010.87878738,3012.6060603,4288.12121169,57.6969696912,4476.1515147,3288.7272724,4229.39393897,593.454545395,4885.18181769,1133.33333322,4602.87878742,3531.87878753,42.0,42.0,?
2017-07-31 18:08:37.184597,4575.0606056,3717.33333296,4209.8181814,12.3636363624,3911.03030264,234.909090886,3934.72727233,350.303030268,4309.75757533,193.696969678,4459.66666622,2880.72727244,4214.96969655,3177.45454514,4410.72727229,2687.03030276,5017.06060556,3012.6060603,4288.63636321,57.6969696912,4480.27272682,3288.7272724,4230.93939352,593.454545395,4890.33333284,1133.33333322,4606.48484802,3531.87878753,42.0,42.0,?
2017-07-31 18:08:37.193866,4572.48484803,3717.33333296,4207.24242382,12.3636363624,3911.03030264,234.909090886,3939.87878748,350.303030268,4310.27272684,193.696969678,4463.78787834,2880.72727244,4228.87878746,3177.45454514,4424.12121168,2687.03030276,5028.39393889,3012.6060603,4283.48484806,57.6969696912,4475.63636319,3288.7272724,4228.87878746,593.454545395,4887.75757527,1133.33333322,4604.42424196,3531.87878753,42.0,42.0,?
2017-07-31 18:08:37.202024,4567.33333288,3717.33333296,4206.72727231,12.3636363624,3905.36363597,234.909090886,3938.84848445,350.303030268,4315.42424199,193.696969678,4466.36363592,2880.72727244,4235.06060564,3177.45454514,4433.39393895,2687.03030276,5030.96969647,3012.6060603,4281.424242,57.6969696912,4465.8484844,3288.7272724,4227.33333291,593.454545395,4883.63636315,1133.33333322,4594.63636318,3531.87878753,42.0,42.0,?
2017-07-31 18:08:37.209438,4564.7575753,3717.33333296,4208.27272685,12.3636363624,3900.21212082,234.909090886,3935.24242385,350.303030268,4315.93939351,193.696969678,4464.81818137,2880.72727244,4236.60606018,3177.45454514,4435.96969653,2687.03030276,5032.51515101,3012.6060603,4279.87878745,57.6969696912,4460.69696925,3288.7272724,4228.87878746,593.454545395,4879.51515103,1133.33333322,4590.51515106,3531.87878753,42.0,42.0,?
2017-07-31 18:08:37.215660,4569.90909045,3717.33333296,4208.27272685,12.3636363624,3906.393939,234.909090886,3938.33333294,350.303030268,4316.45454502,193.696969678,4461.21212077,2880.72727244,4241.24242382,3177.45454514,4441.12121168,2687.03030276,5043.33333283,3012.6060603,4282.96969654,57.6969696912,4472.03030258,3288.7272724,4232.48484806,593.454545395,4883.63636315,1133.33333322,4601.84848439,3531.87878753,42.0,42.0,?
2017-07-31 18:08:37.225478,4575.57575712,3717.33333296,4209.30302988,12.3636363624,3912.57575718,234.909090886,3942.96969658,350.303030268,4318.51515108,193.696969678,4459.15151471,2880.72727244,4237.1212117,3177.45454514,4439.06060562,2687.03030276,5045.39393889,3012.6060603,4284.51515109,57.6969696912,4479.24242379,3288.7272724,4231.96969655,593.454545395,4892.3939389,1133.33333322,4610.09090863,3531.87878753,42.0,42.0,?
2017-07-31 18:08:37.231755,4571.96969651,3717.33333296,4207.24242382,12.3636363624,3907.93939355,234.909090886,3942.45454506,350.303030268,4312.3333329,193.696969678,4459.15151471,2880.72727244,4228.87878746,3177.45454514,4429.27272683,2687.03030276,5033.03030253,3012.6060603,4279.87878745,57.6969696912,4468.93939349,3288.7272724,4223.21212079,593.454545395,4885.18181769,1133.33333322,4603.90909045,3531.87878753,42.0,42.0,?
2017-07-31 18:08:37.240678,4569.90909045,3717.33333296,4207.24242382,12.3636363624,3905.36363597,234.909090886,3940.90909052,350.303030268,4305.63636321,193.696969678,4461.72727228,2880.72727244,4227.84848443,3177.45454514,4425.66666622,2687.03030276,5027.87878738,3012.6060603,4274.7272723,57.6969696912,4467.90909046,3288.7272724,4224.75757534,593.454545395,4881.06060557,1133.33333322,4605.45454499,3531.87878753,42.0,42.0,?
2017-07-31 18:08:37.247496,4570.42424197,3717.33333296,4209.8181814,12.3636363624,3913.60606021,234.909090886,3937.30302991,350.303030268,4310.78787836,193.696969678,4466.87878743,2880.72727244,4227.84848443,3177.45454514,4425.15151471,2687.03030276,5031.48484798,3012.6060603,4273.18181775,57.6969696912,4469.96969652,3288.7272724,4229.39393897,593.454545395,4880.03030254,1133.33333322,4611.63636318,3531.87878753,42.0,42.0,?
2017-07-31 18:08:37.255460,4566.30302985,3717.33333296,4208.78787837,12.3636363624,3916.69696931,234.909090886,3933.18181779,350.303030268,4317.99999957,193.696969678,4460.69696925,2880.72727244,4220.63636321,3177.45454514,4418.45454501,2687.03030276,5029.42424192,3012.6060603,4271.12121169,57.6969696912,4462.2424238,3288.7272724,4228.87878746,593.454545395,4877.45454497,1133.33333322,4605.45454499,3531.87878753,42.0,42.0,?
2017-07-31 18:08:37.264486,4566.30302985,3717.33333296,4207.75757534,12.3636363624,3908.96969658,234.909090886,3935.75757536,350.303030268,4314.39393896,193.696969678,4450.39393895,2880.72727244,4212.90909049,3177.45454514,4412.27272683,2687.03030276,5014.9999995,3012.6060603,4266.99999957,57.6969696912,4464.30302986,3288.7272724,4231.45454503,593.454545395,4882.0909086,1133.33333322,4602.87878742,3531.87878753,42.0,42.0,?
2017-07-31 18:08:37.271297,4569.90909045,3717.33333296,4206.21212079,12.3636363624,3903.81818143,234.909090886,3936.27272688,350.303030268,4307.18181775,193.696969678,4452.45454501,2880.72727244,4213.424242,3177.45454514,4408.66666623,2687.03030276,5005.72727223,3012.6060603,4263.39393897,57.6969696912,4465.8484844,3288.7272724,4228.87878746,593.454545395,4876.42424194,1133.33333322,4606.48484802,3531.87878753,42.0,42.0,?
2017-07-31 18:08:37.278626,4565.78787833,3717.33333296,4207.24242382,12.3636363624,3902.27272688,234.909090886,3931.63636324,350.303030268,4307.18181775,193.696969678,4457.09090865,2880.72727244,4216.51515109,3177.45454514,4407.6363632,2687.03030276,5009.84848435,3012.6060603,4262.87878745,57.6969696912,4456.06060561,3288.7272724,4226.8181814,593.454545395,4873.33333285,1133.33333322,4604.93939348,3531.87878753,42.0,42.0,?
2017-07-31 18:08:37.286422,4562.18181773,3717.33333296,4208.78787837,12.3636363624,3902.27272688,234.909090886,3933.6969693,350.303030268,4314.39393896,193.696969678,4455.5454541,2880.72727244,4218.57575715,3177.45454514,4413.30302986,2687.03030276,5019.63636313,3012.6060603,4265.45454503,57.6969696912,4456.06060561,3288.7272724,4228.87878746,593.454545395,4878.484848,1133.33333322,4603.90909045,3531.87878753,42.0,42.0,?
2017-07-31 18:08:37.294330,4564.24242379,3717.33333296,4207.24242382,12.3636363624,3901.75757537,234.909090886,3933.6969693,350.303030268,4319.54545411,193.696969678,4460.18181774,2880.72727244,4221.15151473,3177.45454514,4419.48484804,2687.03030276,5024.78787829,3012.6060603,4268.0303026,57.6969696912,4463.78787834,3288.7272724,4227.33333291,593.454545395,4874.87878739,1133.33333322,4603.39393893,3531.87878753,42.0,42.0,?
2017-07-31 18:08:37.301933,4563.72727227,3717.33333296,4206.72727231,12.3636363624,3900.21212082,234.909090886,3929.57575718,350.303030268,4318.51515108,193.696969678,4466.87878743,2880.72727244,4222.18181776,3177.45454514,4416.90909047,2687.03030276,5020.15151465,3012.6060603,4267.51515109,57.6969696912,4463.27272683,3288.7272724,4228.36363594,593.454545395,4874.87878739,1133.33333322,4599.78787833,3531.87878753,42.0,42.0,?
2017-07-31 18:08:37.310757,4564.24242379,3717.33333296,4205.18181776,12.3636363624,3904.33333294,234.909090886,3938.84848445,350.303030268,4316.96969654,193.696969678,4464.30302986,2880.72727244,4221.66666624,3177.45454514,4416.90909047,2687.03030276,5018.09090859,3012.6060603,4269.06060563,57.6969696912,4460.18181774,3288.7272724,4229.39393897,593.454545395,4876.42424194,1133.33333322,4601.33333287,3531.87878753,42.0,42.0,?
2017-07-31 18:08:37.322344,4571.454545,3717.33333296,4206.21212079,12.3636363624,3910.51515112,234.909090886,3945.54545415,350.303030268,4317.99999957,193.696969678,4463.27272683,2880.72727244,4227.33333291,3177.45454514,4426.69696925,2687.03030276,5027.36363586,3012.6060603,4274.21212078,57.6969696912,4468.42424198,3288.7272724,4229.90909049,593.454545395,4878.484848,1133.33333322,4609.0606056,3531.87878753,42.0,42.0,?
2017-07-31 18:08:37.326825,4575.0606056,3717.33333296,4208.27272685,12.3636363624,3908.45454506,234.909090886,3938.33333294,350.303030268,4321.60606017,193.696969678,4466.87878743,2880.72727244,4234.54545412,3177.45454514,4430.81818138,2687.03030276,5033.03030253,3012.6060603,4278.84848442,57.6969696912,4474.60606016,3288.7272724,4230.424242,593.454545395,4882.0909086,1133.33333322,4613.18181772,3531.87878753,42.0,42.0,?
2017-07-31 18:08:37.335191,4570.93939348,3717.33333296,4207.24242382,12.3636363624,3906.393939,234.909090886,3933.18181779,350.303030268,4322.12121169,193.696969678,4460.18181774,2880.72727244,4228.87878746,3177.45454514,4425.66666622,2687.03030276,5027.87878738,3012.6060603,4277.30302988,57.6969696912,4467.90909046,3288.7272724,4229.90909049,593.454545395,4879.51515103,1133.33333322,4611.12121166,3531.87878753,42.0,42.0,?
2017-07-31 18:08:37.343709,4566.30302985,3717.33333296,4208.78787837,12.3636363624,3907.42424203,234.909090886,3935.24242385,350.303030268,4316.96969654,193.696969678,4453.99999955,2880.72727244,4217.54545412,3177.45454514,4419.48484804,2687.03030276,5023.24242374,3012.6060603,4271.12121169,57.6969696912,4461.72727228,3288.7272724,4230.93939352,593.454545395,4878.484848,1133.33333322,4608.54545408,3531.87878753,42.0,42.0,?
2017-07-31 18:08:37.349186,4565.78787833,3717.33333296,4208.78787837,12.3636363624,3906.393939,234.909090886,3935.24242385,350.303030268,4320.06060563,193.696969678,4460.18181774,2880.72727244,4217.03030261,3177.45454514,4422.57575713,2687.03030276,5026.84848435,3012.6060603,4269.57575715,57.6969696912,4462.2424238,3288.7272724,4230.424242,593.454545395,4874.87878739,1133.33333322,4607.51515105,3531.87878753,42.0,42.0,?
2017-07-31 18:08:37.356688,4567.84848439,3717.33333296,4207.75757534,12.3636363624,3908.45454506,234.909090886,3935.75757536,350.303030268,4326.75757532,193.696969678,4463.27272683,2880.72727244,4221.15151473,3177.45454514,4425.15151471,2687.03030276,5031.48484798,3012.6060603,4272.15151472,57.6969696912,4463.27272683,3288.7272724,4228.87878746,593.454545395,4872.81818133,1133.33333322,4606.48484802,3531.87878753,42.0,42.0,?
2017-07-31 18:08:37.368308,4569.90909045,3717.33333296,4211.36363594,12.3636363624,3912.57575718,234.909090886,3936.78787839,350.303030268,4320.06060563,193.696969678,4459.66666622,2880.72727244,4219.60606018,3177.45454514,4420.51515107,2687.03030276,5030.96969647,3012.6060603,4271.12121169,57.6969696912,4462.75757531,3288.7272724,4230.424242,593.454545395,4880.54545406,1133.33333322,4607.51515105,3531.87878753,42.0,42.0,?
2017-07-31 18:08:37.374727,4567.33333288,3717.33333296,4208.27272685,12.3636363624,3907.93939355,234.909090886,3933.18181779,350.303030268,4313.36363593,193.696969678,4459.66666622,2880.72727244,4214.45454503,3177.45454514,4416.90909047,2687.03030276,5024.27272677,3012.6060603,4264.424242,57.6969696912,4459.15151471,3288.7272724,4230.93939352,593.454545395,4876.93939345,1133.33333322,4604.93939348,3531.87878753,42.0,42.0,?
2017-07-31 18:08:37.379668,4562.69696924,3717.33333296,4205.18181776,12.3636363624,3899.18181779,234.909090886,3931.12121173,350.303030268,4317.99999957,193.696969678,4460.69696925,2880.72727244,4212.39393897,3177.45454514,4417.9393935,2687.03030276,5022.21212071,3012.6060603,4259.27272685,57.6969696912,4456.06060561,3288.7272724,4229.39393897,593.454545395,4871.7878783,1133.33333322,4598.24242378,3531.87878753,42.0,42.0,?
2017-07-31 18:08:37.390049,4566.30302985,3717.33333296,4209.30302988,12.3636363624,3901.24242385,234.909090886,3931.63636324,350.303030268,4319.54545411,193.696969678,4459.15151471,2880.72727244,4215.99999958,3177.45454514,4421.5454541,2687.03030276,5026.33333283,3012.6060603,4262.36363594,57.6969696912,4460.69696925,3288.7272724,4229.90909049,593.454545395,4874.36363588,1133.33333322,4599.27272681,3531.87878753,42.0,42.0,?
2017-07-31 18:08:37.396685,4570.93939348,3717.33333296,4208.78787837,12.3636363624,3907.93939355,234.909090886,3929.06060567,350.303030268,4314.90909048,193.696969678,4461.72727228,2880.72727244,4221.66666624,3177.45454514,4424.63636319,2687.03030276,5023.24242374,3012.6060603,4268.0303026,57.6969696912,4465.8484844,3288.7272724,4229.90909049,593.454545395,4877.45454497,1133.33333322,4605.45454499,3531.87878753,42.0,42.0,?
2017-07-31 18:08:37.405976,4570.42424197,3717.33333296,4205.18181776,12.3636363624,3903.81818143,234.909090886,3930.0909087,350.303030268,4314.90909048,193.696969678,4463.78787834,2880.72727244,4223.7272723,3177.45454514,4424.63636319,2687.03030276,5017.57575707,3012.6060603,4269.06060563,57.6969696912,4468.93939349,3288.7272724,4230.424242,593.454545395,4883.12121163,1133.33333322,4606.48484802,3531.87878753,42.0,42.0,?
2017-07-31 18:08:37.412674,4566.30302985,3717.33333296,4206.21212079,12.3636363624,3897.12121173,234.909090886,3939.36363597,350.303030268,4323.66666623,193.696969678,4462.2424238,2880.72727244,4221.15151473,3177.45454514,4422.06060562,2687.03030276,5020.66666616,3012.6060603,4264.93939351,57.6969696912,4467.39393895,3288.7272724,4228.87878746,593.454545395,4881.06060557,1133.33333322,4602.3636359,3531.87878753,42.0,42.0,?
2017-07-31 18:08:37.419284,4564.24242379,3717.33333296,4210.33333291,12.3636363624,3896.60606022,234.909090886,3933.18181779,350.303030268,4327.78787836,193.696969678,4462.75757531,2880.72727244,4219.60606018,3177.45454514,4423.60606016,2687.03030276,5022.72727222,3012.6060603,4262.36363594,57.6969696912,4463.27272683,3288.7272724,4226.8181814,593.454545395,4876.42424194,1133.33333322,4600.30302984,3531.87878753,42.0,42.0,?
2017-07-31 18:08:37.426679,4564.24242379,3717.33333296,4210.84848443,12.3636363624,3898.66666628,234.909090886,3919.27272688,350.303030268,4319.0303026,193.696969678,4463.27272683,2880.72727244,4222.18181776,3177.45454514,4424.63636319,2687.03030276,5023.75757526,3012.6060603,4264.424242,57.6969696912,4462.75757531,3288.7272724,4229.39393897,593.454545395,4880.03030254,1133.33333322,4600.81818136,3531.87878753,42.0,42.0,?
2017-07-31 18:08:37.436032,4566.81818136,3717.33333296,4207.24242382,12.3636363624,3900.72727234,234.909090886,3928.03030264,350.303030268,4315.42424199,193.696969678,4464.81818137,2880.72727244,4227.33333291,3177.45454514,4422.06060562,2687.03030276,5029.42424192,3012.6060603,4264.93939351,57.6969696912,4466.36363592,3288.7272724,4229.90909049,593.454545395,4876.42424194,1133.33333322,4602.87878742,3531.87878753,42.0,42.0,?
2017-07-31 18:08:37.442725,4565.78787833,3717.33333296,4210.84848443,12.3636363624,3901.24242385,234.909090886,3940.393939,350.303030268,4317.48484805,193.696969678,4464.30302986,2880.72727244,4224.24242382,3177.45454514,4422.06060562,2687.03030276,5030.96969647,3012.6060603,4260.81818139,57.6969696912,4462.2424238,3288.7272724,4229.39393897,593.454545395,4873.33333285,1133.33333322,4602.87878742,3531.87878753,42.0,42.0,?
2017-07-31 18:08:37.451136,4557.54545409,3717.33333296,4211.87878746,4.1212121208,3897.12121173,234.909090886,3934.72727233,350.303030268,4313.87878745,193.696969678,4459.66666622,2880.72727244,4214.96969655,3177.45454514,4422.06060562,2687.03030276,5025.3030298,3012.6060603,4253.09090867,57.6969696912,4449.36363592,3288.7272724,4228.36363594,593.454545395,4871.27272679,1133.33333322,4595.66666621,3531.87878753,42.0,42.0,?
2017-07-31 18:08:37.458314,4554.454545,3717.33333296,4205.69696928,4.1212121208,3895.06060567,234.909090886,3934.21212082,350.303030268,4311.81818139,193.696969678,4460.69696925,2880.72727244,4215.99999958,3177.45454514,4420.51515107,2687.03030276,5023.24242374,3012.6060603,4251.03030261,57.6969696912,4449.36363592,3288.7272724,4228.36363594,593.454545395,4867.66666618,1133.33333322,4591.03030257,3507.1515148,42.0,42.0,?
2017-07-31 18:08:37.469114,4561.66666621,3717.33333296,4206.21212079,4.1212121208,3896.60606022,230.787878765,3939.87878748,350.303030268,4319.54545411,193.696969678,4465.33333289,2880.72727244,4223.21212079,3177.45454514,4419.48484804,2687.03030276,5024.27272677,3012.6060603,4252.57575715,57.6969696912,4456.06060561,3288.7272724,4228.36363594,593.454545395,4870.24242376,1133.33333322,4596.69696924,3507.1515148,42.0,42.0,?
2017-07-31 18:08:37.473680,4564.24242379,3717.33333296,4208.78787837,4.1212121208,3898.66666628,230.787878765,3937.81818142,350.303030268,4321.09090866,193.696969678,4463.78787834,2880.72727244,4225.27272685,3177.45454514,4423.60606016,2687.03030276,5025.81818132,3012.6060603,4253.60606018,57.6969696912,4451.93939349,3288.7272724,4227.84848443,593.454545395,4869.72727224,1133.33333322,4601.33333287,3507.1515148,42.0,42.0,?
2017-07-31 18:08:37.481641,4559.60606015,3717.33333296,4207.75757534,4.1212121208,3897.63636325,230.787878765,3936.27272688,350.303030268,4317.48484805,181.333333315,4465.33333289,2880.72727244,4230.424242,3177.45454514,4427.72727228,2687.03030276,5025.81818132,3012.6060603,4253.09090867,57.6969696912,4449.87878743,3288.7272724,4230.93939352,593.454545395,4871.7878783,1133.33333322,4600.81818136,3507.1515148,42.0,42.0,?
2017-07-31 18:08:37.493849,4553.93939348,3717.33333296,4204.15151473,4.1212121208,3894.03030264,230.787878765,3941.42424203,350.303030268,4325.21212078,181.333333315,4473.57575713,2868.36363608,4242.78787836,3177.45454514,4426.69696925,2687.03030276,5025.3030298,3012.6060603,4251.03030261,57.6969696912,4455.03030258,3288.7272724,4226.8181814,593.454545395,4873.84848436,1133.33333322,4599.78787833,3507.1515148,42.0,42.0,?
2017-07-31 18:08:37.497759,4553.93939348,3717.33333296,4204.15151473,4.1212121208,3890.42424204,230.787878765,3940.393939,350.303030268,4325.21212078,181.333333315,4474.09090864,2868.36363608,4243.81818139,3169.2121209,4425.66666622,2687.03030276,5025.3030298,3012.6060603,4246.39393897,57.6969696912,4454.51515107,3288.7272724,4226.8181814,593.454545395,4870.75757527,1133.33333322,4599.78787833,3507.1515148,42.0,42.0,?
2017-07-31 18:08:37.507722,4558.0606056,3717.33333296,4208.27272685,4.1212121208,3891.45454507,230.787878765,3933.18181779,350.303030268,4320.57575714,181.333333315,4473.57575713,2868.36363608,4232.99999958,3169.2121209,4425.15151471,2687.03030276,5022.72727222,3012.6060603,4245.36363594,57.6969696912,4452.96969652,3288.7272724,4228.87878746,593.454545395,4872.30302982,1133.33333322,4602.3636359,3507.1515148,42.0,42.0,?
2017-07-31 18:08:37.516930,4566.30302985,3717.33333296,4209.8181814,4.1212121208,3895.57575719,230.787878765,3935.75757536,350.303030268,4324.18181775,181.333333315,4477.69696925,2868.36363608,4230.93939352,3169.2121209,4427.21212077,2687.03030276,5024.27272677,3000.24242394,4254.63636321,57.6969696912,4457.60606016,3288.7272724,4230.93939352,593.454545395,4872.30302982,1133.33333322,4609.0606056,3507.1515148,42.0,42.0,?
2017-07-31 18:08:37.520652,4569.90909045,3717.33333296,4209.30302988,4.1212121208,3898.15151476,230.787878765,3940.393939,350.303030268,4327.27272684,181.333333315,4471.51515107,2868.36363608,4235.57575715,3169.2121209,4430.30302986,2687.03030276,5030.45454495,3000.24242394,4262.36363594,49.4545454496,4463.78787834,3288.7272724,4230.424242,593.454545395,4875.90909042,1133.33333322,4615.24242378,3507.1515148,42.0,42.0,?
2017-07-31 18:08:37.528682,4570.93939348,3717.33333296,4210.33333291,4.1212121208,3901.75757537,230.787878765,3937.81818142,350.303030268,4325.21212078,181.333333315,4460.69696925,2868.36363608,4233.51515109,3169.2121209,4429.27272683,2687.03030276,5033.03030253,3000.24242394,4263.90909048,49.4545454496,4467.90909046,3342.30302997,4228.36363594,593.454545395,4881.06060557,1133.33333322,4617.30302984,3507.1515148,42.0,42.0,?
2017-07-31 18:08:37.540777,4574.03030257,3717.33333296,4209.30302988,4.1212121208,3905.87878749,230.787878765,3936.27272688,350.303030268,4327.27272684,181.333333315,4464.30302986,2868.36363608,4229.39393897,3169.2121209,4424.63636319,2687.03030276,5028.90909041,3000.24242394,4267.51515109,49.4545454496,4471.51515107,3342.30302997,4228.36363594,601.696969637,4882.0909086,1133.33333322,4620.39393893,3507.1515148,42.0,42.0,?
2017-07-31 18:08:37.545273,4577.63636318,3717.33333296,4209.30302988,4.1212121208,3907.93939355,230.787878765,3938.84848445,350.303030268,4326.24242381,181.333333315,4468.93939349,2868.36363608,4229.90909049,3169.2121209,4421.03030259,2687.03030276,5026.33333283,3000.24242394,4270.09090866,49.4545454496,4476.1515147,3342.30302997,4230.93939352,601.696969637,4886.72727224,1182.78787867,4626.0606056,3507.1515148,42.0,42.0,?
2017-07-31 18:08:37.555851,4582.78787833,3717.33333296,4207.24242382,4.1212121208,3913.0909087,230.787878765,3940.393939,350.303030268,4315.93939351,181.333333315,4463.27272683,2868.36363608,4228.87878746,3169.2121209,4421.5454541,2687.03030276,5029.93939344,3000.24242394,4268.54545412,49.4545454496,4475.12121167,3342.30302997,4227.84848443,601.696969637,4886.21212072,1182.78787867,4629.15151469,3507.1515148,42.0,42.0,?
2017-07-31 18:08:37.559620,4586.39393894,3717.33333296,4208.27272685,4.1212121208,3915.15151476,230.787878765,3938.33333294,350.303030268,4311.30302987,181.333333315,4457.60606016,2868.36363608,4223.21212079,3169.2121209,4418.45454501,2687.03030276,5033.03030253,3000.24242394,4269.57575715,49.4545454496,4476.66666622,3334.06060573,4227.84848443,601.696969637,4887.24242375,1182.78787867,4630.69696923,3507.1515148,42.0,42.0,?
2017-07-31 18:08:37.570384,4585.36363591,3717.33333296,4210.33333291,4.1212121208,3911.03030264,230.787878765,3934.72727233,350.303030268,4313.36363593,181.333333315,4460.18181774,2868.36363608,4220.1212117,3169.2121209,4412.78787835,2687.03030276,5031.9999995,3000.24242394,4273.69696927,49.4545454496,4484.39393895,3334.06060573,4230.93939352,601.696969637,4893.93939345,1182.78787867,4631.21212075,3507.1515148,42.0,42.0,?
2017-07-31 18:08:37.578745,4582.78787833,3717.33333296,4207.75757534,4.1212121208,3905.87878749,230.787878765,3933.18181779,350.303030268,4313.87878745,181.333333315,4458.63636319,2868.36363608,4215.99999958,3169.2121209,4412.78787835,2687.03030276,5027.87878738,3000.24242394,4268.0303026,49.4545454496,4481.30302985,3334.06060573,4228.87878746,601.696969637,4890.33333284,1182.78787867,4625.54545408,3507.1515148,42.0,42.0,?
2017-07-31 18:08:37.583699,4576.60606015,3717.33333296,4207.75757534,4.1212121208,3899.69696931,230.787878765,3929.57575718,350.303030268,4312.84848442,181.333333315,4452.45454501,2868.36363608,4208.78787837,3169.2121209,4413.81818138,2687.03030276,5016.54545404,3000.24242394,4254.1212117,49.4545454496,4466.87878743,3334.06060573,4228.87878746,601.696969637,4881.57575709,1182.78787867,4619.3636359,3507.1515148,42.0,42.0,?
2017-07-31 18:08:37.592989,4571.96969651,3717.33333296,4208.78787837,4.1212121208,3898.15151476,230.787878765,3928.54545415,350.303030268,4309.75757533,181.333333315,4453.48484804,2868.36363608,4212.39393897,3169.2121209,4413.30302986,2687.03030276,5010.87878738,3000.24242394,4254.1212117,49.4545454496,4461.72727228,3334.06060573,4231.96969655,601.696969637,4875.90909042,1182.78787867,4620.39393893,3507.1515148,42.0,42.0,?
2017-07-31 18:08:37.599666,4575.57575712,3717.33333296,4206.72727231,4.1212121208,3903.81818143,230.787878765,3935.75757536,350.303030268,4307.69696927,181.333333315,4456.57575713,2868.36363608,4221.15151473,3169.2121209,4416.90909047,2687.03030276,5020.66666616,3000.24242394,4263.39393897,49.4545454496,4470.48484804,3334.06060573,4229.90909049,601.696969637,4877.96969648,1182.78787867,4625.03030257,3507.1515148,42.0,42.0,?
2017-07-31 18:08:37.606741,4576.60606015,3717.33333296,4207.24242382,4.1212121208,3898.15151476,230.787878765,3934.21212082,350.303030268,4312.3333329,181.333333315,4455.03030258,2868.36363608,4213.93939352,3169.2121209,4414.33333289,2687.03030276,5022.21212071,3000.24242394,4257.21212079,49.4545454496,4468.42424198,3334.06060573,4227.33333291,601.696969637,4880.54545406,1182.78787867,4623.48484802,3507.1515148,42.0,42.0,?
2017-07-31 18:08:37.616318,4568.36363591,3717.33333296,4206.21212079,4.1212121208,3889.90909052,230.787878765,3926.48484809,350.303030268,4313.36363593,181.333333315,4451.42424198,2868.36363608,4202.09090867,3169.2121209,4401.45454501,2687.03030276,5004.6969692,3000.24242394,4242.78787836,49.4545454496,4452.96969652,3334.06060573,4226.8181814,601.696969637,4870.75757527,1182.78787867,4613.69696924,3507.1515148,42.0,42.0,?
2017-07-31 18:08:37.624279,4565.27272682,3717.33333296,4205.69696928,4.1212121208,3894.03030264,230.787878765,3930.60606021,350.303030268,4308.21212078,181.333333315,4449.36363592,2868.36363608,4203.1212117,3169.2121209,4394.2424238,2687.03030276,4995.42424192,3000.24242394,4236.60606018,49.4545454496,4449.87878743,3334.06060573,4229.39393897,601.696969637,4868.1818177,1182.78787867,4609.0606056,3507.1515148,42.0,42.0,?
2017-07-31 18:08:37.631225,4564.7575753,3717.33333296,4209.30302988,4.1212121208,3895.57575719,230.787878765,3933.6969693,350.303030268,4308.21212078,181.333333315,4449.36363592,2868.36363608,4210.84848443,3169.2121209,4401.96969653,2687.03030276,5005.72727223,3000.24242394,4237.63636321,49.4545454496,4454.51515107,3334.06060573,4229.39393897,601.696969637,4868.1818177,1182.78787867,4613.69696924,3507.1515148,42.0,42.0,?
2017-07-31 18:08:37.637634,4566.81818136,3717.33333296,4209.8181814,4.1212121208,3891.45454507,230.787878765,3928.03030264,350.303030268,4310.78787836,181.333333315,4450.90909046,2868.36363608,4216.51515109,3169.2121209,4414.33333289,2687.03030276,5010.36363586,3000.24242394,4241.24242382,49.4545454496,4457.60606016,3334.06060573,4227.33333291,601.696969637,4866.12121163,1182.78787867,4617.30302984,3507.1515148,42.0,42.0,?
2017-07-31 18:08:37.645672,4578.15151469,3717.33333296,4207.75757534,4.1212121208,3892.4848481,230.787878765,3927.51515112,350.303030268,4306.15151472,181.333333315,4451.93939349,2868.36363608,4217.54545412,3169.2121209,4416.39393895,2687.03030276,5011.39393889,3000.24242394,4243.81818139,49.4545454496,4466.36363592,3334.06060573,4229.39393897,601.696969637,4878.99999951,1182.78787867,4622.45454499,3507.1515148,42.0,42.0,?
2017-07-31 18:08:37.654515,4580.72727227,3717.33333296,4205.18181776,4.1212121208,3896.0909087,230.787878765,3929.06060567,350.303030268,4299.96969654,181.333333315,4449.87878743,2868.36363608,4217.54545412,3169.2121209,4413.81818138,2687.03030276,5019.63636313,3000.24242394,4246.39393897,49.4545454496,4473.06060561,3334.06060573,4232.99999958,601.696969637,4882.60606012,1182.78787867,4629.15151469,3507.1515148,42.0,42.0,?
2017-07-31 18:08:37.665902,4570.42424197,3717.33333296,4207.75757534,4.1212121208,3894.03030264,230.787878765,3928.03030264,350.303030268,4302.0303026,181.333333315,4452.45454501,2868.36363608,4218.57575715,3169.2121209,4414.84848441,2687.03030276,5021.18181768,3000.24242394,4248.96969654,49.4545454496,4470.99999955,3334.06060573,4232.48484806,601.696969637,4878.484848,1182.78787867,4628.63636317,3507.1515148,42.0,42.0,?
2017-07-31 18:08:37.670973,4566.30302985,3717.33333296,4210.33333291,4.1212121208,3888.36363597,230.787878765,3929.57575718,350.303030268,4310.78787836,181.333333315,4458.63636319,2868.36363608,4220.1212117,3169.2121209,4415.36363592,2687.03030276,5017.57575707,3000.24242394,4248.96969654,49.4545454496,4465.33333289,3334.06060573,4228.87878746,601.696969637,4878.99999951,1182.78787867,4619.3636359,3507.1515148,42.0,42.0,?
2017-07-31 18:08:37.681359,4569.90909045,3717.33333296,4207.75757534,4.1212121208,3886.30302991,230.787878765,3931.12121173,350.303030268,4317.99999957,181.333333315,4459.15151471,2868.36363608,4220.1212117,3169.2121209,4413.81818138,2687.03030276,5021.18181768,3000.24242394,4244.33333291,49.4545454496,4462.75757531,3334.06060573,4228.36363594,601.696969637,4878.484848,1182.78787867,4616.27272681,3507.1515148,42.0,42.0,?
2017-07-31 18:08:37.684640,4570.93939348,3717.33333296,4206.21212079,4.1212121208,3888.36363597,230.787878765,3929.57575718,350.303030268,4312.3333329,181.333333315,4456.57575713,2868.36363608,4217.54545412,3169.2121209,4412.78787835,2687.03030276,5022.72727222,3000.24242394,4242.78787836,49.4545454496,4465.33333289,3334.06060573,4230.424242,601.696969637,4880.54545406,1182.78787867,4621.42424196,3507.1515148,42.0,42.0,?
2017-07-31 18:08:37.696060,4569.39393894,3717.33333296,4206.21212079,4.1212121208,3890.42424204,230.787878765,3930.0909087,350.303030268,4303.57575715,181.333333315,4457.09090865,2868.36363608,4215.99999958,3169.2121209,4410.72727229,2687.03030276,5017.57575707,3000.24242394,4243.30302988,49.4545454496,4463.27272683,3334.06060573,4227.84848443,601.696969637,4877.96969648,1182.78787867,4620.39393893,3507.1515148,42.0,42.0,?
2017-07-31 18:08:37.702859,4568.87878742,3717.33333296,4205.69696928,4.1212121208,3890.42424204,230.787878765,3926.48484809,350.303030268,4310.78787836,181.333333315,4456.06060561,2868.36363608,4217.03030261,3169.2121209,4410.72727229,2687.03030276,5020.66666616,3000.24242394,4242.78787836,49.4545454496,4460.18181774,3334.06060573,4227.84848443,601.696969637,4878.484848,1182.78787867,4616.27272681,3507.1515148,42.0,42.0,?
2017-07-31 18:08:37.709465,4568.87878742,3717.33333296,4207.24242382,4.1212121208,3892.99999961,230.787878765,3922.87878749,350.303030268,4320.06060563,181.333333315,4455.03030258,2868.36363608,4217.54545412,3169.2121209,4412.27272683,2687.03030276,5022.21212071,3000.24242394,4243.30302988,49.4545454496,4461.72727228,3334.06060573,4230.424242,601.696969637,4882.0909086,1182.78787867,4618.33333287,3507.1515148,42.0,42.0,?
2017-07-31 18:08:37.719941,4567.84848439,3717.33333296,4207.75757534,4.1212121208,3893.51515113,230.787878765,3932.15151476,350.303030268,4317.99999957,181.333333315,4461.72727228,2868.36363608,4216.51515109,3169.2121209,4409.18181774,2687.03030276,5010.36363586,3000.24242394,4241.75757533,49.4545454496,4459.66666622,3334.06060573,4229.39393897,601.696969637,4876.42424194,1182.78787867,4616.78787833,3507.1515148,42.0,42.0,?
2017-07-31 18:08:37.730899,4567.33333288,3717.33333296,4208.27272685,4.1212121208,3889.393939,230.787878765,3942.45454506,350.303030268,4314.90909048,181.333333315,4466.36363592,2868.36363608,4219.09090867,3169.2121209,4407.6363632,2687.03030276,5008.3030298,3000.24242394,4237.1212117,49.4545454496,4454.51515107,3334.06060573,4228.87878746,601.696969637,4874.36363588,1182.78787867,4610.60606014,3507.1515148,42.0,42.0,?
2017-07-31 18:08:37.736431,4569.39393894,3717.33333296,4206.72727231,4.1212121208,3891.45454507,230.787878765,3939.87878748,350.303030268,4317.99999957,181.333333315,4461.21212077,2868.36363608,4221.66666624,3169.2121209,4411.75757532,2687.03030276,5022.21212071,3000.24242394,4235.57575715,49.4545454496,4454.51515107,3334.06060573,4228.36363594,601.696969637,4874.36363588,1182.78787867,4611.63636318,3507.1515148,42.0,42.0,?
2017-07-31 18:08:37.740932,4574.54545409,3717.33333296,4207.75757534,4.1212121208,3895.06060567,230.787878765,3930.60606021,350.303030268,4315.93939351,181.333333315,4455.03030258,2868.36363608,4219.09090867,3169.2121209,4404.03030259,2687.03030276,5022.21212071,3000.24242394,4235.57575715,49.4545454496,4460.69696925,3334.06060573,4228.87878746,601.696969637,4873.84848436,1182.78787867,4617.81818136,3507.1515148,42.0,42.0,?
2017-07-31 18:08:37.750896,4578.15151469,3717.33333296,4209.30302988,4.1212121208,3889.90909052,230.787878765,3929.57575718,350.303030268,4307.18181775,181.333333315,4455.5454541,2868.36363608,4217.54545412,3169.2121209,4397.84848441,2687.03030276,5008.3030298,3000.24242394,4230.93939352,49.4545454496,4461.21212077,3334.06060573,4229.90909049,601.696969637,4874.36363588,1182.78787867,4619.3636359,3507.1515148,42.0,42.0,?
2017-07-31 18:08:37.757755,4576.60606015,3717.33333296,4207.24242382,4.1212121208,3883.72727234,230.787878765,3929.57575718,350.303030268,4305.12121169,181.333333315,4458.63636319,2868.36363608,4222.18181776,3169.2121209,4412.78787835,2687.03030276,5010.36363586,3000.24242394,4234.03030261,49.4545454496,4452.45454501,3334.06060573,4227.33333291,601.696969637,4873.33333285,1182.78787867,4617.81818136,3507.1515148,42.0,42.0,?
2017-07-31 18:08:37.763287,4571.454545,3717.33333296,4209.8181814,4.1212121208,3885.7878784,230.787878765,3928.03030264,350.303030268,4313.36363593,181.333333315,4460.18181774,2868.36363608,4224.75757534,3169.2121209,4419.99999956,2687.03030276,5020.66666616,3000.24242394,4244.33333291,49.4545454496,4451.42424198,3334.06060573,4225.78787837,601.696969637,4874.87878739,1182.78787867,4617.30302984,3507.1515148,42.0,42.0,?
2017-07-31 18:08:37.772335,4572.48484803,3717.33333296,4211.87878746,4.1212121208,3889.393939,230.787878765,3929.06060567,350.303030268,4320.57575714,181.333333315,4460.69696925,2868.36363608,4221.15151473,3169.2121209,4410.72727229,2687.03030276,5017.57575707,3000.24242394,4248.45454503,49.4545454496,4457.60606016,3334.06060573,4227.33333291,601.696969637,4873.84848436,1182.78787867,4615.24242378,3507.1515148,42.0,42.0,?
2017-07-31 18:08:37.778789,4579.69696924,3717.33333296,4208.27272685,4.1212121208,3887.84848446,230.787878765,3923.90909052,350.303030268,4315.42424199,181.333333315,4461.72727228,2868.36363608,4221.15151473,3169.2121209,4411.75757532,2687.03030276,5015.51515101,3000.24242394,4257.21212079,49.4545454496,4458.12121168,3334.06060573,4229.39393897,601.696969637,4875.90909042,1182.78787867,4615.7575753,3507.1515148,42.0,42.0,?
2017-07-31 18:08:37.786734,4581.24242378,3717.33333296,4206.72727231,4.1212121208,3883.21212082,230.787878765,3918.75757537,350.303030268,4308.21212078,181.333333315,4461.21212077,2868.36363608,4226.8181814,3169.2121209,4415.36363592,2687.03030276,5017.57575707,3000.24242394,4267.51515109,49.4545454496,4460.69696925,3334.06060573,4229.90909049,601.696969637,4885.18181769,1182.78787867,4614.21212075,3507.1515148,42.0,42.0,?
2017-07-31 18:08:37.796558,4574.54545409,3717.33333296,4208.27272685,4.1212121208,3881.15151476,230.787878765,3926.48484809,350.303030268,4311.30302987,181.333333315,4456.57575713,2868.36363608,4229.39393897,3169.2121209,4408.15151471,2687.03030276,5010.87878738,3000.24242394,4267.51515109,49.4545454496,4460.69696925,3334.06060573,4227.33333291,601.696969637,4880.03030254,1182.78787867,4602.3636359,3507.1515148,42.0,42.0,?
2017-07-31 18:08:37.804750,4569.90909045,3717.33333296,4211.36363594,4.1212121208,3880.12121173,230.787878765,3935.75757536,350.303030268,4314.39393896,181.333333315,4456.06060561,2868.36363608,4229.39393897,3169.2121209,4406.09090865,2687.03030276,5006.75757526,3000.24242394,4263.39393897,49.4545454496,4456.06060561,3334.06060573,4227.33333291,601.696969637,4874.87878739,1182.78787867,4589.48484803,3507.1515148,42.0,42.0,?
2017-07-31 18:08:37.810165,4568.36363591,3717.33333296,4208.78787837,4.1212121208,3879.0909087,230.787878765,3933.6969693,350.303030268,4309.75757533,181.333333315,4461.21212077,2868.36363608,4232.99999958,3169.2121209,4412.27272683,2687.03030276,5009.84848435,3000.24242394,4268.0303026,49.4545454496,4453.99999955,3334.06060573,4228.36363594,601.696969637,4877.96969648,1182.78787867,4578.66666621,3507.1515148,42.0,42.0,?
2017-07-31 18:08:37.818183,4565.27272682,3717.33333296,4204.66666625,4.1212121208,3878.06060567,230.787878765,3928.54545415,350.303030268,4302.54545412,181.333333315,4460.18181774,2868.36363608,4234.54545412,3169.2121209,4410.72727229,2687.03030276,5005.21212071,3000.24242394,4277.30302988,49.4545454496,4455.03030258,3334.06060573,4227.33333291,601.696969637,4878.484848,1182.78787867,4569.39393894,3507.1515148,42.0,42.0,?
2017-07-31 18:08:37.826530,4559.09090864,3717.33333296,4206.21212079,4.1212121208,3874.96969658,230.787878765,3927.51515112,350.303030268,4297.39393896,181.333333315,4452.45454501,2868.36363608,4226.8181814,3169.2121209,4401.45454501,2687.03030276,4993.36363586,3000.24242394,4282.45454503,49.4545454496,4451.93939349,3334.06060573,4228.87878746,601.696969637,4878.484848,1182.78787867,4562.18181773,3507.1515148,42.0,42.0,?
2017-07-31 18:08:37.836072,4553.42424197,3717.33333296,4207.75757534,4.1212121208,3872.90909052,230.787878765,3928.54545415,350.303030268,4297.39393896,181.333333315,4456.57575713,2868.36363608,4222.69696927,3169.2121209,4399.39393895,2687.03030276,4996.45454495,3000.24242394,4279.87878745,49.4545454496,4444.72727228,3334.06060573,4228.87878746,601.696969637,4869.72727224,1182.78787867,4549.81818136,3507.1515148,42.0,42.0,?
2017-07-31 18:08:37.845851,4548.27272682,3717.33333296,4208.78787837,4.1212121208,3872.39393901,230.787878765,3923.90909052,350.303030268,4297.90909048,181.333333315,4465.8484844,2868.36363608,4228.36363594,3169.2121209,4406.60606017,2687.03030276,5007.78787829,3000.24242394,4268.0303026,49.4545454496,4438.5454541,3334.06060573,4228.36363594,601.696969637,4861.99999951,1182.78787867,4535.39393894,3507.1515148,42.0,42.0,?
2017-07-31 18:08:37.851420,4543.12121167,3717.33333296,4209.8181814,4.1212121208,3877.54545416,230.787878765,3918.75757537,350.303030268,4300.99999957,181.333333315,4462.75757531,2868.36363608,4230.424242,3169.2121209,4408.66666623,2687.03030276,5009.33333283,3000.24242394,4265.45454503,49.4545454496,4436.48484804,3334.06060573,4228.36363594,601.696969637,4863.54545406,1182.78787867,4535.39393894,3507.1515148,42.0,42.0,?
2017-07-31 18:08:37.857767,4547.24242379,3717.33333296,4207.75757534,4.1212121208,3888.87878749,230.787878765,3927.51515112,350.303030268,4309.75757533,181.333333315,4462.2424238,2868.36363608,4229.39393897,3169.2121209,4406.60606017,2687.03030276,5009.84848435,3000.24242394,4272.66666624,49.4545454496,4440.09090865,3334.06060573,4228.36363594,601.696969637,4864.06060557,1182.78787867,4548.27272682,3507.1515148,42.0,42.0,?
2017-07-31 18:08:37.865636,4551.87878742,3717.33333296,4207.24242382,4.1212121208,3889.393939,230.787878765,3933.6969693,350.303030268,4305.63636321,181.333333315,4467.90909046,2868.36363608,4228.87878746,3169.2121209,4408.15151471,2687.03030276,5011.90909041,3000.24242394,4265.96969654,49.4545454496,4439.57575713,3334.06060573,4229.39393897,601.696969637,4863.54545406,1182.78787867,4548.78787833,3507.1515148,42.0,42.0,?
2017-07-31 18:08:37.873658,4547.24242379,3717.33333296,4207.75757534,4.1212121208,3882.69696931,230.787878765,3924.93939355,350.303030268,4292.75757533,181.333333315,4464.30302986,2868.36363608,4225.78787837,3169.2121209,4408.66666623,2687.03030276,5009.33333283,3000.24242394,4255.66666624,49.4545454496,4432.36363592,3334.06060573,4228.36363594,601.696969637,4859.42424194,1182.78787867,4531.78787833,3507.1515148,42.0,42.0,?
2017-07-31 18:08:37.881521,4544.66666621,3717.33333296,4207.24242382,4.1212121208,3887.84848446,230.787878765,3917.72727234,350.303030268,4291.21212078,181.333333315,4458.12121168,2868.36363608,4221.15151473,3169.2121209,4404.03030259,2687.03030276,5006.75757526,3000.24242394,4259.27272685,49.4545454496,4435.96969653,3334.06060573,4228.36363594,601.696969637,4860.96969648,1182.78787867,4532.30302985,3507.1515148,42.0,42.0,?
2017-07-31 18:08:37.890551,4550.84848439,3717.33333296,4208.78787837,4.1212121208,3897.63636325,230.787878765,3925.96969658,350.303030268,4296.36363593,181.333333315,4461.21212077,2868.36363608,4221.66666624,3169.2121209,4404.54545411,2687.03030276,5011.39393889,3000.24242394,4264.424242,49.4545454496,4443.18181774,3334.06060573,4229.90909049,601.696969637,4866.63636315,1182.78787867,4553.42424197,3507.1515148,42.0,42.0,?
2017-07-31 18:08:37.902664,4554.454545,3717.33333296,4209.8181814,4.1212121208,3898.15151476,230.787878765,3937.30302991,350.303030268,4301.51515109,181.333333315,4461.72727228,2868.36363608,4225.78787837,3169.2121209,4412.27272683,2687.03030276,5016.03030253,3000.24242394,4262.87878745,49.4545454496,4439.57575713,3334.06060573,4226.8181814,601.696969637,4864.06060557,1182.78787867,4562.69696924,3507.1515148,42.0,42.0,?
2017-07-31 18:08:37.908638,4550.33333288,3717.33333296,4209.8181814,4.1212121208,3896.0909087,230.787878765,3935.75757536,350.303030268,4301.51515109,181.333333315,4457.60606016,2868.36363608,4224.24242382,3169.2121209,4414.84848441,2687.03030276,5008.3030298,3000.24242394,4263.39393897,49.4545454496,4438.03030259,3334.06060573,4225.78787837,601.696969637,4864.06060557,1182.78787867,4557.54545409,3507.1515148,42.0,42.0,?
2017-07-31 18:08:37.912008,4547.24242379,3717.33333296,4208.78787837,4.1212121208,3897.63636325,230.787878765,3926.48484809,350.303030268,4289.66666624,181.333333315,4455.03030258,2868.36363608,4220.63636321,3169.2121209,4409.69696926,2687.03030276,4997.9999995,3000.24242394,4262.87878745,49.4545454496,4440.09090865,3334.06060573,4225.78787837,601.696969637,4864.06060557,1182.78787867,4557.54545409,3507.1515148,42.0,42.0,?
2017-07-31 18:08:37.919623,4548.78787833,3717.33333296,4206.72727231,4.1212121208,3896.60606022,230.787878765,3923.393939,350.303030268,4279.36363594,181.333333315,4451.42424198,2868.36363608,4219.60606018,3169.2121209,4404.54545411,2687.03030276,5002.63636314,3000.24242394,4257.21212079,49.4545454496,4435.96969653,3334.06060573,4223.7272723,601.696969637,4861.99999951,1182.78787867,4560.12121167,3507.1515148,42.0,42.0,?
2017-07-31 18:08:37.929517,4547.24242379,3717.33333296,4206.72727231,4.1212121208,3889.393939,230.787878765,3924.93939355,350.303030268,4285.0303026,181.333333315,4451.93939349,2868.36363608,4218.06060564,3169.2121209,4401.45454501,2687.03030276,5011.90909041,3000.24242394,4249.48484806,49.4545454496,4428.75757531,3334.06060573,4224.24242382,601.696969637,4862.51515103,1182.78787867,4551.87878742,3507.1515148,42.0,42.0,?
2017-07-31 18:08:37.934894,4542.60606015,3717.33333296,4205.18181776,4.1212121208,3885.27272688,230.787878765,3925.96969658,350.303030268,4292.75757533,181.333333315,4456.06060561,2868.36363608,4219.60606018,3169.2121209,4400.42424198,2687.03030276,5010.36363586,3000.24242394,4246.90909048,49.4545454496,4428.2424238,3334.06060573,4224.75757534,601.696969637,4858.90909042,1182.78787867,4543.12121167,3507.1515148,42.0,42.0,?
2017-07-31 18:08:37.942659,4545.18181773,3721.45454508,4207.75757534,4.1212121208,3887.84848446,230.787878765,3925.96969658,350.303030268,4288.12121169,181.333333315,4456.57575713,2868.36363608,4221.66666624,3169.2121209,4398.36363592,2687.03030276,5007.27272677,3000.24242394,4251.54545412,49.4545454496,4434.42424198,3334.06060573,4227.33333291,601.696969637,4860.96969648,1182.78787867,4551.87878742,3507.1515148,42.0,42.0,?
2017-07-31 18:08:37.951148,4553.42424197,3721.45454508,4210.84848443,12.3636363624,3891.96969658,230.787878765,3923.393939,350.303030268,4279.87878745,181.333333315,4456.57575713,2868.36363608,4214.96969655,3169.2121209,4393.72727229,2687.03030276,5007.78787829,3000.24242394,4250.51515109,49.4545454496,4434.42424198,3334.06060573,4227.84848443,601.696969637,4864.06060557,1182.78787867,4561.1515147,3507.1515148,42.0,42.0,?
2017-07-31 18:08:37.958755,4551.87878742,3721.45454508,4208.78787837,12.3636363624,3889.90909052,230.787878765,3921.84848446,350.303030268,4287.60606018,181.333333315,4459.15151471,2868.36363608,4205.69696928,3169.2121209,4389.09090865,2687.03030276,5001.60606011,3000.24242394,4239.69696927,49.4545454496,4427.21212077,3334.06060573,4226.30302988,601.696969637,4858.90909042,1182.78787867,4551.87878742,3494.78787844,42.0,42.0,?
2017-07-31 18:08:37.968641,4541.06060561,3721.45454508,4205.69696928,12.3636363624,3880.63636325,243.151515127,3920.81818143,350.303030268,4297.90909048,181.333333315,4458.63636319,2868.36363608,4205.18181776,3169.2121209,4388.06060562,2687.03030276,4997.48484799,3000.24242394,4234.03030261,49.4545454496,4423.09090865,3334.06060573,4227.84848443,601.696969637,4858.90909042,1182.78787867,4541.57575712,3494.78787844,42.0,42.0,?
2017-07-31 18:08:37.975238,4536.93939349,3721.45454508,4206.21212079,12.3636363624,3880.12121173,243.151515127,3922.36363597,358.54545451,4290.69696927,181.333333315,4458.63636319,2868.36363608,4207.75757534,3169.2121209,4390.12121168,2687.03030276,5002.12121162,3000.24242394,4238.66666624,49.4545454496,4423.60606016,3334.06060573,4229.90909049,601.696969637,4857.36363588,1182.78787867,4546.21212076,3494.78787844,42.0,42.0,?
2017-07-31 18:08:37.981671,4543.12121167,3721.45454508,4210.33333291,12.3636363624,3886.30302991,243.151515127,3925.45454506,358.54545451,4280.39393897,185.454545436,4459.66666622,2868.36363608,4208.27272685,3169.2121209,4392.18181774,2687.03030276,5001.09090859,3000.24242394,4239.18181776,49.4545454496,4427.21212077,3334.06060573,4229.90909049,601.696969637,4854.7878783,1182.78787867,4555.48484803,3494.78787844,42.0,42.0,?
2017-07-31 18:08:37.990127,4547.7575753,3721.45454508,4211.36363594,12.3636363624,3888.36363597,243.151515127,3925.45454506,358.54545451,4287.09090866,185.454545436,4461.21212077,2868.36363608,4213.424242,3169.2121209,4396.30302986,2687.03030276,5002.63636314,3000.24242394,4236.60606018,49.4545454496,4428.2424238,3334.06060573,4227.84848443,601.696969637,4854.27272679,1182.78787867,4557.03030257,3494.78787844,42.0,42.0,?
2017-07-31 18:08:37.998733,4543.12121167,3721.45454508,4206.72727231,12.3636363624,3887.84848446,243.151515127,3922.87878749,358.54545451,4297.90909048,185.454545436,4466.87878743,2868.36363608,4222.69696927,3177.45454514,4401.45454501,2687.03030276,5012.42424192,3000.24242394,4243.30302988,49.4545454496,4427.72727228,3334.06060573,4227.84848443,601.696969637,4854.27272679,1182.78787867,4554.96969651,3494.78787844,42.0,42.0,?
2017-07-31 18:08:38.006413,4537.96969652,3721.45454508,4206.21212079,12.3636363624,3889.393939,243.151515127,3918.75757537,358.54545451,4297.90909048,185.454545436,4469.96969652,2868.36363608,4225.27272685,3177.45454514,4400.9393935,2691.15151488,5011.39393889,3000.24242394,4249.99999958,49.4545454496,4430.81818138,3334.06060573,4231.45454503,601.696969637,4855.30302982,1182.78787867,4558.0606056,3494.78787844,42.0,42.0,?
2017-07-31 18:08:38.014836,4542.60606015,3721.45454508,4207.75757534,12.3636363624,3891.45454507,243.151515127,3922.36363597,358.54545451,4297.90909048,185.454545436,4469.45454501,2868.36363608,4223.21212079,3177.45454514,4402.48484804,2691.15151488,5008.3030298,3000.24242394,4252.06060564,49.4545454496,4432.87878744,3334.06060573,4231.45454503,601.696969637,4852.21212073,1182.78787867,4565.78787833,3494.78787844,42.0,42.0,?
2017-07-31 18:08:38.022934,4549.81818136,3721.45454508,4207.75757534,12.3636363624,3890.42424204,243.151515127,3931.63636324,358.54545451,4297.90909048,185.454545436,4465.8484844,2868.36363608,4221.66666624,3177.45454514,4405.06060562,2691.15151488,5012.42424192,3000.24242394,4247.93939351,53.5757575704,4432.87878744,3334.06060573,4229.39393897,601.696969637,4856.33333285,1182.78787867,4568.87878742,3494.78787844,42.0,42.0,?
2017-07-31 18:08:38.032389,4550.33333288,3721.45454508,4207.75757534,12.3636363624,3887.84848446,243.151515127,3931.63636324,358.54545451,4292.24242381,185.454545436,4460.18181774,2868.36363608,4220.1212117,3177.45454514,4397.33333289,2691.15151488,5011.39393889,3000.24242394,4243.81818139,53.5757575704,4432.87878744,3354.66666633,4229.39393897,601.696969637,4861.484848,1182.78787867,4565.78787833,3494.78787844,42.0,42.0,?
2017-07-31 18:08:38.036740,4551.87878742,3721.45454508,4208.27272685,12.3636363624,3894.54545416,243.151515127,3924.93939355,358.54545451,4291.21212078,185.454545436,4455.5454541,2868.36363608,4221.15151473,3177.45454514,4392.69696926,2691.15151488,5006.75757526,3000.24242394,4249.99999958,53.5757575704,4435.96969653,3354.66666633,4228.87878746,597.575757516,4858.90909042,1182.78787867,4570.93939348,3494.78787844,42.0,42.0,?
2017-07-31 18:08:38.044946,4558.57575712,3721.45454508,4211.36363594,12.3636363624,3905.36363597,243.151515127,3930.0909087,358.54545451,4293.78787836,185.454545436,4453.99999955,2868.36363608,4223.7272723,3177.45454514,4399.90909047,2691.15151488,5005.72727223,3000.24242394,4252.06060564,53.5757575704,4439.57575713,3354.66666633,4228.36363594,597.575757516,4863.54545406,1162.18181807,4582.78787833,3494.78787844,42.0,42.0,?
2017-07-31 18:08:38.055346,4555.48484803,3721.45454508,4209.30302988,12.3636363624,3899.18181779,243.151515127,3934.72727233,358.54545451,4291.7272723,185.454545436,4457.60606016,2868.36363608,4228.36363594,3177.45454514,4402.99999956,2691.15151488,5004.6969692,3000.24242394,4242.27272685,53.5757575704,4433.39393895,3354.66666633,4226.8181814,597.575757516,4860.96969648,1162.18181807,4577.12121166,3494.78787844,42.0,42.0,?
2017-07-31 18:08:38.061263,4547.24242379,3721.45454508,4205.18181776,12.3636363624,3884.75757537,243.151515127,3924.42424203,358.54545451,4290.18181775,185.454545436,4462.75757531,2868.36363608,4230.424242,3177.45454514,4399.39393895,2691.15151488,5006.75757526,3000.24242394,4239.69696927,53.5757575704,4427.72727228,3358.78787845,4226.8181814,597.575757516,4855.81818133,1162.18181807,4562.18181773,3494.78787844,42.0,42.0,?
2017-07-31 18:08:38.068076,4548.78787833,3721.45454508,4207.75757534,12.3636363624,3887.84848446,243.151515127,3921.33333294,358.54545451,4291.21212078,185.454545436,4465.33333289,2868.36363608,4227.84848443,3177.45454514,4400.9393935,2691.15151488,5010.87878738,3000.24242394,4243.81818139,53.5757575704,4432.36363592,3358.78787845,4227.33333291,593.454545395,4860.45454497,1162.18181807,4564.7575753,3494.78787844,42.0,42.0,?
2017-07-31 18:08:38.075668,4554.454545,3721.45454508,4208.78787837,12.3636363624,3895.57575719,243.151515127,3933.18181779,358.54545451,4288.12121169,185.454545436,4461.72727228,2868.36363608,4221.66666624,3177.45454514,4402.48484804,2691.15151488,5006.75757526,3000.24242394,4240.21212079,53.5757575704,4435.45454501,3358.78787845,4226.30302988,593.454545395,4861.99999951,1162.18181807,4571.96969651,3494.78787844,42.0,42.0,?
2017-07-31 18:08:38.083775,4552.90909045,3721.45454508,4207.75757534,12.3636363624,3886.30302991,243.151515127,3932.15151476,358.54545451,4288.63636321,185.454545436,4454.51515107,2868.36363608,4215.48484806,3177.45454514,4395.78787835,2691.15151488,5004.18181768,3000.24242394,4231.96969655,53.5757575704,4428.75757531,3358.78787845,4226.8181814,593.454545395,4860.45454497,1162.18181807,4565.27272682,3494.78787844,42.0,42.0,?
2017-07-31 18:08:38.099563,4548.78787833,3721.45454508,4208.27272685,12.3636363624,3879.0909087,243.151515127,3920.81818143,358.54545451,4294.81818139,185.454545436,4455.03030258,2868.36363608,4212.90909049,3177.45454514,4389.09090865,2691.15151488,5007.27272677,3000.24242394,4229.90909049,53.5757575704,4422.06060562,3358.78787845,4225.78787837,593.454545395,4855.30302982,1162.18181807,4557.03030257,3494.78787844,42.0,42.0,?
2017-07-31 18:08:38.101696,4544.1515147,3721.45454508,4206.72727231,12.3636363624,3885.7878784,243.151515127,3920.30302991,358.54545451,4294.30302987,185.454545436,4460.69696925,2868.36363608,4214.45454503,3177.45454514,4390.6363632,2691.15151488,5002.63636314,3000.24242394,4230.93939352,53.5757575704,4423.60606016,3358.78787845,4231.96969655,593.454545395,4851.1818177,1162.18181807,4560.63636318,3494.78787844,42.0,42.0,?
2017-07-31 18:08:38.109753,4541.57575712,3721.45454508,4208.78787837,12.3636363624,3886.81818143,243.151515127,3922.87878749,358.54545451,4286.57575715,185.454545436,4462.2424238,2868.36363608,4214.45454503,3177.45454514,4393.21212077,2691.15151488,4995.42424192,3000.24242394,4227.33333291,53.5757575704,4423.60606016,3358.78787845,4240.7272723,593.454545395,4851.69696921,1162.18181807,4564.7575753,3494.78787844,42.0,42.0,?
2017-07-31 18:08:38.115313,4544.66666621,3721.45454508,4208.78787837,12.3636363624,3884.24242385,243.151515127,3914.12121173,358.54545451,4284.51515109,185.454545436,4461.21212077,2868.36363608,4209.8181814,3177.45454514,4391.15151471,2691.15151488,4996.45454495,3000.24242394,4225.27272685,53.5757575704,4421.5454541,3358.78787845,4237.1212117,593.454545395,4851.1818177,1162.18181807,4563.21212076,3494.78787844,42.0,42.0,?
2017-07-31 18:08:38.123365,4550.33333288,3721.45454508,4205.69696928,12.3636363624,3885.7878784,243.151515127,3910.51515112,358.54545451,4288.12121169,185.454545436,4458.63636319,2868.36363608,4206.72727231,3177.45454514,4387.03030259,2691.15151488,5003.15151465,3000.24242394,4229.90909049,53.5757575704,4428.75757531,3358.78787845,4232.99999958,593.454545395,4857.87878739,1162.18181807,4568.36363591,3494.78787844,42.0,42.0,?
2017-07-31 18:08:38.130652,4552.90909045,3721.45454508,4205.18181776,12.3636363624,3887.84848446,243.151515127,3920.81818143,358.54545451,4288.63636321,185.454545436,4456.06060561,2868.36363608,4205.18181776,3177.45454514,4380.84848441,2691.15151488,5000.06060556,3000.24242394,4231.45454503,53.5757575704,4435.45454501,3358.78787845,4237.63636321,593.454545395,4859.42424194,1162.18181807,4574.03030257,3494.78787844,42.0,42.0,?
2017-07-31 18:08:38.140409,4551.36363591,3721.45454508,4206.72727231,12.3636363624,3887.84848446,243.151515127,3928.03030264,358.54545451,4285.54545412,185.454545436,4455.5454541,2868.36363608,4209.30302988,3177.45454514,4382.39393896,2691.15151488,4992.84848435,3000.24242394,4225.78787837,53.5757575704,4430.30302986,3358.78787845,4239.18181776,593.454545395,4856.33333285,1162.18181807,4571.454545,3494.78787844,42.0,42.0,?
2017-07-31 18:08:38.146681,4547.24242379,3721.45454508,4208.78787837,12.3636363624,3884.24242385,243.151515127,3922.87878749,358.54545451,4285.0303026,185.454545436,4454.51515107,2868.36363608,4216.51515109,3177.45454514,4394.75757532,2691.15151488,4995.93939344,3000.24242394,4219.60606018,53.5757575704,4426.69696925,3358.78787845,4236.60606018,593.454545395,4861.99999951,1162.18181807,4568.36363591,3494.78787844,42.0,42.0,?
2017-07-31 18:08:38.154071,4544.1515147,3721.45454508,4207.75757534,12.3636363624,3881.66666628,243.151515127,3917.21212082,358.54545451,4289.66666624,185.454545436,4449.87878743,2868.36363608,4217.54545412,3177.45454514,4399.90909047,2691.15151488,5004.6969692,3000.24242394,4219.09090867,53.5757575704,4427.72727228,3358.78787845,4234.54545412,593.454545395,4857.87878739,1162.18181807,4570.93939348,3494.78787844,42.0,42.0,?
2017-07-31 18:08:38.164267,4545.18181773,3721.45454508,4208.27272685,12.3636363624,3884.24242385,243.151515127,3917.72727234,358.54545451,4287.60606018,185.454545436,4450.39393895,2868.36363608,4214.96969655,3177.45454514,4393.21212077,2691.15151488,5001.09090859,3000.24242394,4221.15151473,53.5757575704,4426.69696925,3358.78787845,4235.06060564,593.454545395,4852.72727224,1162.18181807,4573.51515106,3494.78787844,42.0,42.0,?
2017-07-31 18:08:38.170787,4546.72727227,3721.45454508,4209.8181814,12.3636363624,3886.30302991,243.151515127,3921.33333294,358.54545451,4283.99999957,185.454545436,4457.09090865,2868.36363608,4217.03030261,3177.45454514,4392.18181774,2691.15151488,4996.45454495,3000.24242394,4218.06060564,53.5757575704,4424.63636319,3358.78787845,4230.424242,593.454545395,4855.81818133,1162.18181807,4572.99999954,3494.78787844,42.0,42.0,?
2017-07-31 18:08:38.177749,4549.81818136,3721.45454508,4209.30302988,12.3636363624,3886.81818143,243.151515127,3922.36363597,358.54545451,4289.15151472,185.454545436,4459.15151471,2868.36363608,4219.60606018,3177.45454514,4399.39393895,2691.15151488,5003.66666617,3000.24242394,4215.99999958,53.5757575704,4425.66666622,3358.78787845,4221.15151473,593.454545395,4857.36363588,1162.18181807,4575.0606056,3494.78787844,42.0,42.0,?
2017-07-31 18:08:38.185732,4552.90909045,3721.45454508,4209.30302988,12.3636363624,3888.36363597,243.151515127,3915.15151476,358.54545451,4291.7272723,185.454545436,4457.09090865,2868.36363608,4214.96969655,3177.45454514,4397.84848441,2691.15151488,5008.81818132,3000.24242394,4223.21212079,53.5757575704,4429.78787834,3358.78787845,4222.69696927,593.454545395,4861.99999951,1162.18181807,4581.24242378,3494.78787844,42.0,42.0,?
2017-07-31 18:08:38.193947,4553.42424197,3721.45454508,4209.30302988,12.3636363624,3894.54545416,243.151515127,3920.81818143,358.54545451,4290.18181775,185.454545436,4460.18181774,2868.36363608,4213.424242,3177.45454514,4395.78787835,2691.15151488,5010.87878738,3000.24242394,4232.99999958,53.5757575704,4430.30302986,3358.78787845,4229.90909049,593.454545395,4860.96969648,1162.18181807,4585.36363591,3494.78787844,42.0,42.0,?
2017-07-31 18:08:38.201202,4555.48484803,3721.45454508,4208.78787837,12.3636363624,3898.15151476,243.151515127,3935.75757536,358.54545451,4291.21212078,185.454545436,4461.72727228,2868.36363608,4218.06060564,3177.45454514,4399.39393895,2691.15151488,5010.36363586,3000.24242394,4231.45454503,53.5757575704,4431.84848441,3358.78787845,4229.39393897,593.454545395,4859.93939345,1162.18181807,4588.454545,3494.78787844,42.0,42.0,?
2017-07-31 18:08:38.210899,4557.54545409,3721.45454508,4208.27272685,12.3636363624,3894.03030264,243.151515127,3927.51515112,358.54545451,4293.78787836,185.454545436,4454.51515107,2868.36363608,4212.90909049,3177.45454514,4397.84848441,2691.15151488,4996.96969647,3000.24242394,4221.66666624,53.5757575704,4429.78787834,3358.78787845,4226.8181814,593.454545395,4859.93939345,1162.18181807,4585.36363591,3494.78787844,42.0,42.0,?
2017-07-31 18:08:38.217504,4552.90909045,3721.45454508,4205.69696928,12.3636363624,3890.42424204,243.151515127,3915.66666628,358.54545451,4296.36363593,185.454545436,4450.39393895,2868.36363608,4206.21212079,3177.45454514,4393.72727229,2691.15151488,4993.36363586,3000.24242394,4220.63636321,53.5757575704,4424.12121168,3358.78787845,4228.87878746,593.454545395,4854.7878783,1162.18181807,4577.12121166,3494.78787844,42.0,42.0,?
2017-07-31 18:08:38.227512,4548.27272682,3721.45454508,4207.24242382,12.3636363624,3891.45454507,243.151515127,3924.93939355,358.54545451,4295.84848442,185.454545436,4455.5454541,2868.36363608,4211.36363594,3177.45454514,4394.75757532,2691.15151488,5009.84848435,3000.24242394,4229.39393897,53.5757575704,4427.72727228,3358.78787845,4234.03030261,593.454545395,4856.33333285,1162.18181807,4576.09090863,3494.78787844,42.0,42.0,?
2017-07-31 18:08:38.233207,4547.7575753,3721.45454508,4209.30302988,12.3636363624,3892.4848481,243.151515127,3928.54545415,358.54545451,4290.69696927,185.454545436,4459.15151471,2868.36363608,4217.54545412,3177.45454514,4400.42424198,2691.15151488,5012.42424192,3000.24242394,4228.36363594,53.5757575704,4431.84848441,3358.78787845,4234.03030261,593.454545395,4856.84848436,1162.18181807,4580.21212075,3494.78787844,42.0,42.0,?
2017-07-31 18:08:38.242180,4553.42424197,3721.45454508,4208.27272685,12.3636363624,3890.93939355,243.151515127,3913.60606021,358.54545451,4284.51515109,185.454545436,4455.5454541,2868.36363608,4213.424242,3177.45454514,4399.90909047,2691.15151488,5004.18181768,3000.24242394,4222.18181776,53.5757575704,4431.84848441,3358.78787845,4231.45454503,593.454545395,4854.7878783,1162.18181807,4582.78787833,3494.78787844,42.0,42.0,?
2017-07-31 18:08:38.248826,4559.60606015,3721.45454508,4207.24242382,12.3636363624,3885.7878784,243.151515127,3907.93939355,358.54545451,4282.45454503,185.454545436,4449.36363592,2868.36363608,4202.09090867,3177.45454514,4384.96969653,2691.15151488,4998.51515102,3000.24242394,4221.66666624,53.5757575704,4431.33333289,3358.78787845,4231.96969655,593.454545395,4858.90909042,1162.18181807,4583.81818136,3494.78787844,42.0,42.0,?
2017-07-31 18:08:38.255879,4555.48484803,3721.45454508,4205.18181776,12.3636363624,3881.15151476,243.151515127,3915.66666628,358.54545451,4285.54545412,185.454545436,4450.39393895,2868.36363608,4198.48484806,3177.45454514,4373.12121168,2691.15151488,4987.18181768,3000.24242394,4220.63636321,53.5757575704,4425.66666622,3358.78787845,4230.93939352,593.454545395,4854.7878783,1162.18181807,4580.21212075,3494.78787844,42.0,42.0,?
2017-07-31 18:08:38.265459,4549.30302985,3721.45454508,4208.78787837,12.3636363624,3882.69696931,243.151515127,3914.63636324,358.54545451,4285.54545412,185.454545436,4452.45454501,2868.36363608,4208.27272685,3177.45454514,4377.75757532,2691.15151488,4984.09090859,3000.24242394,4218.06060564,53.5757575704,4423.60606016,3358.78787845,4230.93939352,593.454545395,4853.75757527,1162.18181807,4579.69696924,3494.78787844,42.0,42.0,?
2017-07-31 18:08:38.275090,4553.93939348,3721.45454508,4209.8181814,12.3636363624,3890.93939355,243.151515127,3914.12121173,358.54545451,4282.96969654,185.454545436,4451.93939349,2868.36363608,4213.424242,3177.45454514,4388.57575714,2691.15151488,5000.57575708,3000.24242394,4221.66666624,53.5757575704,4430.81818138,3358.78787845,4232.48484806,593.454545395,4861.484848,1162.18181807,4584.84848439,3494.78787844,42.0,42.0,?
2017-07-31 18:08:38.279648,4561.66666621,3721.45454508,4205.69696928,12.3636363624,3898.15151476,243.151515127,3923.393939,358.54545451,4291.7272723,185.454545436,4456.57575713,2868.36363608,4210.84848443,3177.45454514,4393.72727229,2691.15151488,5014.48484798,3000.24242394,4226.30302988,53.5757575704,4435.45454501,3358.78787845,4232.48484806,593.454545395,4862.51515103,1162.18181807,4581.7575753,3494.78787844,42.0,42.0,?
2017-07-31 18:08:38.291723,4559.09090864,3721.45454508,4207.75757534,12.3636363624,3895.06060567,243.151515127,3929.57575718,358.54545451,4297.39393896,185.454545436,4463.78787834,2868.36363608,4212.90909049,3177.45454514,4396.30302986,2691.15151488,5016.54545404,3000.24242394,4222.18181776,53.5757575704,4428.2424238,3358.78787845,4232.48484806,593.454545395,4860.96969648,1162.18181807,4570.93939348,3494.78787844,42.0,42.0,?
2017-07-31 18:08:38.294759,4553.93939348,3721.45454508,4209.8181814,12.3636363624,3889.393939,243.151515127,3924.42424203,358.54545451,4294.30302987,185.454545436,4461.21212077,2868.36363608,4219.60606018,3177.45454514,4397.33333289,2691.15151488,5013.96969647,3000.24242394,4221.66666624,53.5757575704,4422.57575713,3358.78787845,4230.93939352,593.454545395,4858.39393891,1162.18181807,4565.27272682,3494.78787844,42.0,42.0,?
2017-07-31 18:08:38.308022,4555.99999954,3721.45454508,4210.33333291,12.3636363624,3887.33333294,243.151515127,3919.27272688,358.54545451,4297.90909048,185.454545436,4454.51515107,2868.36363608,4219.60606018,3177.45454514,4397.84848441,2691.15151488,5005.72727223,3000.24242394,4226.30302988,53.5757575704,4429.78787834,3358.78787845,4232.48484806,593.454545395,4861.484848,1162.18181807,4566.30302985,3494.78787844,42.0,42.0,?
2017-07-31 18:08:38.312268,4557.03030257,3721.45454508,4210.84848443,12.3636363624,3885.27272688,243.151515127,3918.75757537,358.54545451,4297.39393896,185.454545436,4455.03030258,2868.36363608,4216.51515109,3177.45454514,4397.33333289,2691.15151488,5004.18181768,3000.24242394,4221.66666624,53.5757575704,4434.9393935,3358.78787845,4232.99999958,593.454545395,4863.03030254,1162.18181807,4567.33333288,3494.78787844,42.0,42.0,?
2017-07-31 18:08:38.322400,4552.39393894,3721.45454508,4208.27272685,12.3636363624,3883.72727234,243.151515127,3916.69696931,358.54545451,4288.12121169,185.454545436,4455.03030258,2868.36363608,4215.99999958,3177.45454514,4396.30302986,2691.15151488,5008.81818132,3000.24242394,4211.87878746,53.5757575704,4426.18181774,3358.78787845,4227.84848443,593.454545395,4854.27272679,1162.18181807,4561.66666621,3494.78787844,42.0,42.0,?
2017-07-31 18:08:38.326769,4550.84848439,3721.45454508,4206.21212079,12.3636363624,3878.06060567,243.151515127,3912.57575718,358.54545451,4288.63636321,185.454545436,4452.96969652,2868.36363608,4217.54545412,3177.45454514,4394.75757532,2691.15151488,5003.66666617,3000.24242394,4208.27272685,53.5757575704,4418.96969653,3358.78787845,4227.33333291,593.454545395,4852.72727224,1162.18181807,4556.51515106,3494.78787844,42.0,42.0,?
2017-07-31 18:08:38.336164,4549.81818136,3721.45454508,4206.72727231,12.3636363624,3874.45454507,243.151515127,3912.57575718,358.54545451,4292.75757533,185.454545436,4451.93939349,2868.36363608,4215.99999958,3177.45454514,4391.66666623,2691.15151488,5001.09090859,3000.24242394,4212.90909049,53.5757575704,4420.51515107,3358.78787845,4230.93939352,593.454545395,4852.72727224,1162.18181807,4558.57575712,3494.78787844,42.0,42.0,?
2017-07-31 18:08:38.343438,4547.24242379,3721.45454508,4207.75757534,12.3636363624,3877.54545416,243.151515127,3919.7878784,358.54545451,4292.24242381,185.454545436,4453.48484804,2868.36363608,4213.93939352,3177.45454514,4389.60606017,2691.15151488,5007.78787829,3000.24242394,4215.99999958,53.5757575704,4422.06060562,3358.78787845,4232.48484806,593.454545395,4853.75757527,1162.18181807,4563.21212076,3494.78787844,42.0,42.0,?
2017-07-31 18:08:38.349813,4550.33333288,3721.45454508,4208.78787837,12.3636363624,3883.21212082,243.151515127,3925.45454506,358.54545451,4293.27272684,185.454545436,4458.12121168,2868.36363608,4219.60606018,3177.45454514,4398.87878744,2691.15151488,5009.33333283,3000.24242394,4214.96969655,53.5757575704,4424.63636319,3358.78787845,4230.93939352,593.454545395,4857.36363588,1162.18181807,4565.78787833,3494.78787844,42.0,42.0,?
2017-07-31 18:08:38.359178,4555.48484803,3721.45454508,4207.24242382,12.3636363624,3886.81818143,243.151515127,3928.03030264,358.54545451,4295.3333329,185.454545436,4461.21212077,2868.36363608,4228.36363594,3177.45454514,4412.78787835,2691.15151488,5009.33333283,3000.24242394,4223.21212079,53.5757575704,4432.36363592,3358.78787845,4230.424242,593.454545395,4857.87878739,1162.18181807,4569.39393894,3494.78787844,42.0,42.0,?
2017-07-31 18:08:38.365676,4555.99999954,3721.45454508,4207.24242382,12.3636363624,3887.33333294,243.151515127,3925.96969658,358.54545451,4295.84848442,185.454545436,4459.66666622,2868.36363608,4224.75757534,3177.45454514,4412.27272683,2691.15151488,5015.51515101,3000.24242394,4235.57575715,53.5757575704,4438.03030259,3358.78787845,4232.48484806,593.454545395,4860.96969648,1162.18181807,4576.09090863,3494.78787844,42.0,42.0,?
2017-07-31 18:08:38.373497,4559.60606015,3721.45454508,4208.78787837,12.3636363624,3888.36363597,243.151515127,3922.87878749,358.54545451,4303.57575715,185.454545436,4459.66666622,2868.36363608,4217.54545412,3177.45454514,4401.45454501,2691.15151488,5016.03030253,3000.24242394,4231.45454503,53.5757575704,4434.42424198,3358.78787845,4232.48484806,593.454545395,4859.93939345,1162.18181807,4579.18181772,3494.78787844,42.0,42.0,?
2017-07-31 18:08:38.382376,4564.7575753,3721.45454508,4208.27272685,12.3636363624,3889.393939,243.151515127,3929.06060567,358.54545451,4308.21212078,185.454545436,4461.21212077,2868.36363608,4215.99999958,3177.45454514,4396.81818138,2691.15151488,5009.84848435,3000.24242394,4220.1212117,53.5757575704,4431.84848441,3358.78787845,4232.48484806,593.454545395,4858.39393891,1162.18181807,4576.60606015,3494.78787844,42.0,42.0,?
2017-07-31 18:08:38.389730,4558.57575712,3721.45454508,4208.27272685,12.3636363624,3884.75757537,243.151515127,3935.24242385,358.54545451,4300.48484805,185.454545436,4459.15151471,2868.36363608,4214.96969655,3177.45454514,4396.30302986,2691.15151488,5001.60606011,3000.24242394,4220.63636321,53.5757575704,4432.36363592,3358.78787845,4231.96969655,593.454545395,4858.90909042,1162.18181807,4571.96969651,3494.78787844,42.0,42.0,?
2017-07-31 18:08:38.397185,4548.78787833,3721.45454508,4209.30302988,12.3636363624,3878.57575719,243.151515127,3930.0909087,358.54545451,4297.90909048,185.454545436,4457.60606016,2868.36363608,4216.51515109,3177.45454514,4395.27272683,2691.15151488,4998.51515102,3000.24242394,4219.60606018,53.5757575704,4426.18181774,3358.78787845,4228.36363594,593.454545395,4852.21212073,1162.18181807,4568.36363591,3494.78787844,42.0,42.0,?
2017-07-31 18:08:38.409961,4547.7575753,3721.45454508,4209.8181814,12.3636363624,3878.57575719,243.151515127,3925.96969658,358.54545451,4300.48484805,185.454545436,4455.03030258,2868.36363608,4213.424242,3177.45454514,4385.99999956,2691.15151488,4995.93939344,3000.24242394,4202.09090867,53.5757575704,4418.45454501,3358.78787845,4229.39393897,593.454545395,4850.15151467,1162.18181807,4564.24242379,3494.78787844,42.0,42.0,?
2017-07-31 18:08:38.415828,4549.81818136,3721.45454508,4207.24242382,12.3636363624,3882.18181779,243.151515127,3928.03030264,358.54545451,4299.96969654,185.454545436,4456.57575713,2868.36363608,4207.24242382,3177.45454514,4383.9393935,2691.15151488,4991.81818132,3000.24242394,4198.99999958,53.5757575704,4415.87878744,3358.78787845,4231.45454503,593.454545395,4848.60606012,1162.18181807,4560.63636318,3494.78787844,42.0,42.0,?
2017-07-31 18:08:38.420713,4549.81818136,3721.45454508,4207.24242382,12.3636363624,3883.72727234,243.151515127,3919.27272688,358.54545451,4301.51515109,185.454545436,4460.18181774,2868.36363608,4213.424242,3177.45454514,4398.87878744,2691.15151488,4995.93939344,3000.24242394,4215.99999958,53.5757575704,4421.5454541,3358.78787845,4230.93939352,593.454545395,4850.15151467,1162.18181807,4565.27272682,3494.78787844,42.0,42.0,?
2017-07-31 18:08:38.429513,4553.93939348,3721.45454508,4210.33333291,12.3636363624,3884.24242385,243.151515127,3911.03030264,358.54545451,4298.93939351,185.454545436,4454.51515107,2868.36363608,4219.09090867,3177.45454514,4403.51515107,2691.15151488,5007.27272677,3000.24242394,4224.24242382,53.5757575704,4429.27272683,3358.78787845,4234.03030261,593.454545395,4862.51515103,1162.18181807,4572.48484803,3494.78787844,42.0,42.0,?
2017-07-31 18:08:38.446873,4561.66666621,3721.45454508,4207.24242382,12.3636363624,3888.36363597,243.151515127,3923.393939,358.54545451,4292.75757533,185.454545436,4448.33333289,2868.36363608,4215.48484806,3177.45454514,4391.15151471,2691.15151488,5016.03030253,3000.24242394,4227.84848443,53.5757575704,4431.84848441,3358.78787845,4235.06060564,593.454545395,4868.69696921,1162.18181807,4576.60606015,3494.78787844,42.0,42.0,?
2017-07-31 18:08:38.452592,4564.24242379,3721.45454508,4208.27272685,12.3636363624,3890.42424204,243.151515127,3932.66666627,358.54545451,4292.75757533,185.454545436,4452.96969652,2868.36363608,4213.424242,3177.45454514,4390.6363632,2691.15151488,5015.51515101,3000.24242394,4231.45454503,53.5757575704,4433.39393895,3358.78787845,4235.06060564,593.454545395,4869.21212073,1162.18181807,4577.12121166,3494.78787844,42.0,42.0,?
2017-07-31 18:08:38.460487,4557.54545409,3709.09090872,4211.36363594,12.3636363624,3883.21212082,243.151515127,3926.48484809,358.54545451,4299.45454502,185.454545436,4459.15151471,2868.36363608,4213.424242,3177.45454514,4396.30302986,2691.15151488,5011.90909041,3000.24242394,4223.21212079,53.5757575704,4429.27272683,3358.78787845,4234.54545412,593.454545395,4864.57575709,1162.18181807,4571.96969651,3494.78787844,42.0,42.0,?
2017-07-31 18:08:38.465900,4550.33333288,3709.09090872,4206.72727231,4.1212121208,3879.0909087,243.151515127,3924.93939355,358.54545451,4304.09090866,185.454545436,4457.60606016,2868.36363608,4208.78787837,3177.45454514,4392.18181774,2691.15151488,5012.93939344,3000.24242394,4213.424242,53.5757575704,4421.03030259,3358.78787845,4233.51515109,593.454545395,4854.7878783,1162.18181807,4565.78787833,3494.78787844,42.0,42.0,?
2017-07-31 18:08:38.469486,4558.0606056,3709.09090872,4206.72727231,4.1212121208,3884.24242385,243.151515127,3928.54545415,358.54545451,4294.81818139,185.454545436,4457.09090865,2868.36363608,4205.18181776,3177.45454514,4391.15151471,2691.15151488,5014.9999995,3000.24242394,4215.99999958,53.5757575704,4419.99999956,3358.78787845,4231.45454503,593.454545395,4856.33333285,1162.18181807,4569.90909045,3494.78787844,42.0,42.0,?
2017-07-31 18:08:38.479494,4558.0606056,3709.09090872,4208.27272685,4.1212121208,3889.393939,230.787878765,3925.45454506,358.54545451,4294.81818139,185.454545436,4459.15151471,2868.36363608,4208.27272685,3177.45454514,4396.81818138,2691.15151488,5013.45454495,3000.24242394,4217.03030261,53.5757575704,4421.5454541,3358.78787845,4231.45454503,593.454545395,4859.93939345,1162.18181807,4578.66666621,3494.78787844,42.0,42.0,?
2017-07-31 18:08:38.486478,4560.12121167,3709.09090872,4209.30302988,4.1212121208,3885.7878784,230.787878765,3925.96969658,346.181818147,4293.27272684,185.454545436,4457.09090865,2868.36363608,4213.424242,3177.45454514,4396.81818138,2691.15151488,5011.39393889,3000.24242394,4212.39393897,53.5757575704,4423.60606016,3358.78787845,4230.424242,593.454545395,4860.45454497,1162.18181807,4577.63636318,3494.78787844,42.0,42.0,?
2017-07-31 18:08:38.492819,4559.60606015,3709.09090872,4210.33333291,4.1212121208,3881.15151476,230.787878765,3929.06060567,346.181818147,4294.81818139,193.696969678,4452.45454501,2868.36363608,4212.39393897,3177.45454514,4393.21212077,2691.15151488,5012.93939344,3000.24242394,4213.93939352,53.5757575704,4424.63636319,3358.78787845,4230.424242,593.454545395,4859.42424194,1162.18181807,4570.42424197,3494.78787844,42.0,42.0,?
2017-07-31 18:08:38.502622,4557.54545409,3709.09090872,4207.24242382,4.1212121208,3884.75757537,230.787878765,3928.03030264,346.181818147,4295.3333329,193.696969678,4453.99999955,2876.60606032,4209.30302988,3177.45454514,4392.69696926,2691.15151488,5016.03030253,3000.24242394,4217.03030261,53.5757575704,4423.60606016,3358.78787845,4229.39393897,593.454545395,4857.36363588,1162.18181807,4570.93939348,3494.78787844,42.0,42.0,?
2017-07-31 18:08:38.511861,4554.454545,3709.09090872,4206.72727231,4.1212121208,3886.30302991,230.787878765,3928.03030264,346.181818147,4298.42424199,193.696969678,4461.72727228,2876.60606032,4215.48484806,3169.2121209,4395.78787835,2691.15151488,5013.96969647,3000.24242394,4212.39393897,53.5757575704,4422.57575713,3358.78787845,4230.93939352,593.454545395,4859.93939345,1162.18181807,4573.51515106,3494.78787844,42.0,42.0,?
2017-07-31 18:08:38.514455,4548.27272682,3709.09090872,4209.30302988,4.1212121208,3875.99999961,230.787878765,3927.51515112,346.181818147,4301.51515109,193.696969678,4462.2424238,2876.60606032,4221.15151473,3169.2121209,4399.90909047,2695.272727,5009.33333283,3000.24242394,4206.21212079,53.5757575704,4413.30302986,3358.78787845,4232.99999958,593.454545395,4853.24242376,1162.18181807,4564.24242379,3494.78787844,42.0,42.0,?
2017-07-31 18:08:38.538583,4546.72727227,3709.09090872,4209.8181814,4.1212121208,3871.87878749,230.787878765,3922.36363597,346.181818147,4295.84848442,193.696969678,4457.09090865,2876.60606032,4217.54545412,3169.2121209,4400.9393935,2695.272727,5007.78787829,3000.24242394,4209.8181814,53.5757575704,4409.18181774,3358.78787845,4234.54545412,593.454545395,4847.57575709,1162.18181807,4560.63636318,3494.78787844,42.0,42.0,?
2017-07-31 18:08:38.542814,4554.96969651,3709.09090872,4209.8181814,4.1212121208,3882.18181779,230.787878765,3925.45454506,346.181818147,4295.3333329,193.696969678,4455.5454541,2876.60606032,4214.45454503,3169.2121209,4398.36363592,2695.272727,5010.36363586,3000.24242394,4218.06060564,53.5757575704,4418.45454501,3358.78787845,4232.99999958,593.454545395,4856.33333285,1162.18181807,4572.48484803,3494.78787844,42.0,42.0,?
2017-07-31 18:08:38.548914,4559.09090864,3709.09090872,4209.30302988,4.1212121208,3881.15151476,230.787878765,3927.51515112,346.181818147,4298.93939351,193.696969678,4455.5454541,2876.60606032,4211.36363594,3169.2121209,4398.87878744,2695.272727,5012.42424192,3000.24242394,4217.54545412,53.5757575704,4419.48484804,3317.57575724,4232.99999958,593.454545395,4858.39393891,1162.18181807,4572.48484803,3494.78787844,42.0,42.0,?
2017-07-31 18:08:38.550913,4554.96969651,3709.09090872,4209.8181814,4.1212121208,3867.75757537,230.787878765,3918.75757537,346.181818147,4296.36363593,193.696969678,4452.45454501,2876.60606032,4203.63636322,3169.2121209,4396.30302986,2695.272727,5012.42424192,3000.24242394,4219.60606018,53.5757575704,4415.87878744,3317.57575724,4235.57575715,605.818181758,4856.84848436,1162.18181807,4560.12121167,3494.78787844,42.0,42.0,?
2017-07-31 18:08:38.553751,4552.90909045,3709.09090872,4209.30302988,4.1212121208,3867.75757537,230.787878765,3918.75757537,346.181818147,4294.30302987,193.696969678,4453.99999955,2876.60606032,4205.69696928,3169.2121209,4392.69696926,2695.272727,5013.45454495,3000.24242394,4235.06060564,53.5757575704,4418.96969653,3317.57575724,4234.03030261,605.818181758,4857.36363588,1178.66666655,4558.57575712,3494.78787844,42.0,42.0,?
2017-07-31 18:08:38.563098,4555.48484803,3709.09090872,4209.30302988,4.1212121208,3875.4848481,230.787878765,3926.48484809,346.181818147,4291.21212078,193.696969678,4459.66666622,2876.60606032,4209.30302988,3169.2121209,4393.72727229,2695.272727,5008.3030298,3000.24242394,4243.30302988,53.5757575704,4419.48484804,3317.57575724,4231.96969655,605.818181758,4858.39393891,1178.66666655,4561.1515147,3494.78787844,42.0,42.0,?
2017-07-31 18:08:38.569037,4552.39393894,3709.09090872,4209.30302988,4.1212121208,3871.36363598,230.787878765,3922.36363597,346.181818147,4287.60606018,193.696969678,4459.15151471,2876.60606032,4204.15151473,3169.2121209,4393.21212077,2695.272727,5000.06060556,3000.24242394,4238.15151473,53.5757575704,4411.2424238,3313.45454512,4233.51515109,605.818181758,4858.39393891,1178.66666655,4551.87878742,3494.78787844,42.0,42.0,?
2017-07-31 18:08:38.577085,4548.78787833,3709.09090872,4206.72727231,4.1212121208,3865.1818178,230.787878765,3913.0909087,346.181818147,4293.27272684,193.696969678,4452.45454501,2876.60606032,4204.66666625,3169.2121209,4392.18181774,2695.272727,5000.57575708,3000.24242394,4241.75757533,53.5757575704,4408.66666623,3313.45454512,4230.424242,605.818181758,4852.72727224,1178.66666655,4538.48484803,3494.78787844,42.0,42.0,?
2017-07-31 18:08:38.586750,4547.7575753,3709.09090872,4207.75757534,4.1212121208,3865.69696931,230.787878765,3912.06060567,346.181818147,4296.36363593,193.696969678,4448.8484844,2876.60606032,4206.72727231,3169.2121209,4390.6363632,2695.272727,5001.60606011,3000.24242394,4251.54545412,53.5757575704,4412.78787835,3313.45454512,4229.90909049,605.818181758,4855.30302982,1178.66666655,4531.27272682,3494.78787844,42.0,42.0,?
2017-07-31 18:08:38.592379,4543.12121167,3709.09090872,4208.78787837,4.1212121208,3869.81818143,230.787878765,3918.24242385,346.181818147,4286.57575715,193.696969678,4451.93939349,2876.60606032,4202.09090867,3169.2121209,4391.15151471,2695.272727,5000.06060556,3000.24242394,4254.63636321,53.5757575704,4411.2424238,3313.45454512,4235.06060564,605.818181758,4858.90909042,1178.66666655,4526.63636318,3494.78787844,42.0,42.0,?
2017-07-31 18:08:38.599713,4540.03030258,3709.09090872,4209.30302988,4.1212121208,3873.42424204,230.787878765,3926.99999961,346.181818147,4288.12121169,193.696969678,4458.63636319,2876.60606032,4206.72727231,3169.2121209,4397.33333289,2695.272727,5004.6969692,3000.24242394,4259.78787836,53.5757575704,4410.21212077,3313.45454512,4235.06060564,605.818181758,4858.90909042,1178.66666655,4520.454545,3494.78787844,42.0,42.0,?
2017-07-31 18:08:38.607702,4537.454545,3709.09090872,4211.87878746,4.1212121208,3871.36363598,230.787878765,3929.57575718,346.181818147,4294.30302987,193.696969678,4452.96969652,2876.60606032,4211.87878746,3169.2121209,4399.39393895,2695.272727,5004.6969692,3000.24242394,4260.30302988,53.5757575704,4408.66666623,3313.45454512,4231.96969655,605.818181758,4858.39393891,1178.66666655,4509.63636319,3494.78787844,42.0,42.0,?
2017-07-31 18:08:38.616432,4535.39393894,3709.09090872,4208.78787837,4.1212121208,3874.45454507,230.787878765,3925.96969658,346.181818147,4286.57575715,193.696969678,4447.30302986,2876.60606032,4203.63636322,3169.2121209,4391.66666623,2695.272727,5000.57575708,3000.24242394,4253.60606018,53.5757575704,4402.99999956,3313.45454512,4229.90909049,605.818181758,4849.63636315,1178.66666655,4508.60606016,3494.78787844,42.0,42.0,?
2017-07-31 18:08:38.624019,4536.42424197,3709.09090872,4207.24242382,4.1212121208,3886.30302991,230.787878765,3923.90909052,346.181818147,4281.93939351,193.696969678,4450.90909046,2876.60606032,4194.87878746,3169.2121209,4383.9393935,2695.272727,4997.48484799,3000.24242394,4247.424242,53.5757575704,4403.51515107,3313.45454512,4230.93939352,605.818181758,4849.63636315,1178.66666655,4519.42424197,3494.78787844,42.0,42.0,?
2017-07-31 18:08:38.633878,4537.454545,3709.09090872,4209.8181814,4.1212121208,3892.99999961,230.787878765,3925.45454506,346.181818147,4291.7272723,193.696969678,4448.8484844,2876.60606032,4193.84848443,3169.2121209,4384.96969653,2695.272727,4993.36363586,3000.24242394,4244.33333291,53.5757575704,4406.09090865,3313.45454512,4231.96969655,605.818181758,4853.75757527,1178.66666655,4521.99999955,3494.78787844,42.0,42.0,?
2017-07-31 18:08:38.639511,4536.42424197,3709.09090872,4207.24242382,4.1212121208,3889.90909052,230.787878765,3930.60606021,346.181818147,4294.81818139,193.696969678,4445.75757531,2876.60606032,4195.39393897,3169.2121209,4390.12121168,2695.272727,4996.96969647,3000.24242394,4243.30302988,53.5757575704,4405.57575714,3313.45454512,4231.45454503,605.818181758,4850.66666618,1178.66666655,4523.54545409,3494.78787844,42.0,42.0,?
2017-07-31 18:08:38.647592,4536.93939349,3709.09090872,4206.21212079,4.1212121208,3887.84848446,230.787878765,3933.18181779,346.181818147,4288.63636321,193.696969678,4451.93939349,2876.60606032,4200.03030261,3169.2121209,4391.66666623,2695.272727,5008.3030298,3000.24242394,4244.84848442,53.5757575704,4407.12121168,3313.45454512,4231.96969655,605.818181758,4852.72727224,1178.66666655,4535.39393894,3494.78787844,42.0,42.0,?
2017-07-31 18:08:38.657585,4537.96969652,3709.09090872,4208.78787837,4.1212121208,3892.99999961,230.787878765,3933.18181779,346.181818147,4290.69696927,193.696969678,4455.5454541,2876.60606032,4204.66666625,3169.2121209,4392.18181774,2695.272727,5010.87878738,3000.24242394,4241.75757533,53.5757575704,4407.12121168,3313.45454512,4231.96969655,605.818181758,4851.69696921,1178.66666655,4539.51515106,3494.78787844,42.0,42.0,?
2017-07-31 18:08:38.663915,4535.90909046,3709.09090872,4209.30302988,4.1212121208,3894.54545416,230.787878765,3934.21212082,346.181818147,4295.3333329,193.696969678,4450.90909046,2876.60606032,4205.18181776,3169.2121209,4394.75757532,2695.272727,5005.21212071,3000.24242394,4236.60606018,53.5757575704,4402.99999956,3313.45454512,4232.99999958,605.818181758,4850.15151467,1178.66666655,4531.78787833,3494.78787844,42.0,42.0,?
2017-07-31 18:08:38.670708,4535.39393894,3709.09090872,4209.30302988,4.1212121208,3887.84848446,230.787878765,3932.15151476,346.181818147,4288.12121169,193.696969678,4451.42424198,2876.60606032,4202.60606019,3169.2121209,4391.15151471,2695.272727,5002.63636314,3000.24242394,4238.66666624,53.5757575704,4401.96969653,3313.45454512,4233.51515109,605.818181758,4855.30302982,1178.66666655,4531.78787833,3494.78787844,42.0,42.0,?
2017-07-31 18:08:38.678132,4538.48484803,3709.09090872,4208.27272685,4.1212121208,3887.33333294,230.787878765,3926.48484809,346.181818147,4280.90909048,193.696969678,4456.06060561,2876.60606032,4202.09090867,3169.2121209,4384.96969653,2695.272727,5004.18181768,3000.24242394,4242.78787836,53.5757575704,4408.66666623,3313.45454512,4231.45454503,605.818181758,4854.27272679,1178.66666655,4537.96969652,3494.78787844,42.0,42.0,?
2017-07-31 18:08:38.690309,4542.60606015,3709.09090872,4209.8181814,4.1212121208,3894.03030264,230.787878765,3924.93939355,346.181818147,4285.54545412,193.696969678,4454.51515107,2876.60606032,4202.60606019,3169.2121209,4388.06060562,2695.272727,5007.78787829,3000.24242394,4240.21212079,53.5757575704,4413.81818138,3313.45454512,4234.54545412,605.818181758,4856.33333285,1178.66666655,4538.48484803,3494.78787844,42.0,42.0,?
2017-07-31 18:08:38.694784,4545.69696924,3709.09090872,4210.84848443,4.1212121208,3897.63636325,230.787878765,3929.57575718,346.181818147,4293.78787836,193.696969678,4448.8484844,2876.60606032,4200.54545413,3169.2121209,4396.30302986,2695.272727,5009.33333283,3000.24242394,4242.78787836,53.5757575704,4408.66666623,3313.45454512,4236.09090867,605.818181758,4858.90909042,1178.66666655,4537.454545,3494.78787844,42.0,42.0,?
2017-07-31 18:08:38.703588,4548.78787833,3709.09090872,4211.36363594,4.1212121208,3902.27272688,230.787878765,3932.15151476,346.181818147,4283.99999957,193.696969678,4449.87878743,2876.60606032,4199.5151511,3169.2121209,4399.90909047,2695.272727,5007.27272677,3000.24242394,4251.54545412,53.5757575704,4409.18181774,3313.45454512,4233.51515109,605.818181758,4861.99999951,1178.66666655,4541.57575712,3494.78787844,42.0,42.0,?
2017-07-31 18:08:38.711223,4552.39393894,3709.09090872,4210.33333291,4.1212121208,3904.33333294,230.787878765,3928.54545415,346.181818147,4256.18181776,193.696969678,4455.03030258,2876.60606032,4199.5151511,3169.2121209,4395.78787835,2695.272727,5008.81818132,3000.24242394,4253.60606018,53.5757575704,4418.96969653,3313.45454512,4232.99999958,605.818181758,4868.69696921,1178.66666655,4546.72727227,3494.78787844,42.0,42.0,?
2017-07-31 18:08:38.717730,4554.454545,3709.09090872,4205.69696928,4.1212121208,3900.21212082,230.787878765,3924.42424203,346.181818147,4243.30302988,193.696969678,4452.45454501,2876.60606032,4196.424242,3169.2121209,4390.12121168,2695.272727,5014.48484798,3000.24242394,4247.424242,53.5757575704,4415.36363592,3313.45454512,4231.45454503,605.818181758,4864.06060557,1178.66666655,4544.66666621,3494.78787844,42.0,42.0,?
2017-07-31 18:08:38.728034,4551.36363591,3709.09090872,4205.69696928,4.1212121208,3897.63636325,230.787878765,3928.03030264,346.181818147,4253.60606018,193.696969678,4449.87878743,2876.60606032,4196.424242,3169.2121209,4391.66666623,2695.272727,5012.42424192,3000.24242394,4241.75757533,53.5757575704,4408.66666623,3313.45454512,4231.96969655,605.818181758,4862.51515103,1178.66666655,4545.18181773,3494.78787844,42.0,42.0,?
2017-07-31 18:08:38.735450,4552.90909045,3709.09090872,4209.8181814,4.1212121208,3905.87878749,230.787878765,3936.27272688,346.181818147,4271.63636321,193.696969678,4453.99999955,2876.60606032,4202.60606019,3169.2121209,4397.33333289,2695.272727,5006.75757526,3000.24242394,4243.81818139,53.5757575704,4417.9393935,3313.45454512,4231.96969655,605.818181758,4867.66666618,1178.66666655,4550.84848439,3494.78787844,42.0,42.0,?
2017-07-31 18:08:38.743303,4564.7575753,3709.09090872,4211.36363594,4.1212121208,3915.15151476,230.787878765,3936.78787839,346.181818147,4286.57575715,193.696969678,4454.51515107,2876.60606032,4205.69696928,3169.2121209,4397.33333289,2695.272727,5010.36363586,3000.24242394,4249.48484806,53.5757575704,4426.18181774,3313.45454512,4233.51515109,605.818181758,4867.15151466,1178.66666655,4557.03030257,3494.78787844,42.0,42.0,?
2017-07-31 18:08:38.750097,4570.93939348,3709.09090872,4210.84848443,4.1212121208,3913.0909087,230.787878765,3933.18181779,346.181818147,4290.18181775,193.696969678,4445.2424238,2876.60606032,4205.69696928,3169.2121209,4398.87878744,2695.272727,5018.6060601,3000.24242394,4249.48484806,53.5757575704,4426.18181774,3313.45454512,4236.09090867,605.818181758,4869.21212073,1178.66666655,4565.78787833,3494.78787844,42.0,42.0,?
2017-07-31 18:08:38.757053,4565.78787833,3709.09090872,4208.27272685,4.1212121208,3908.45454506,230.787878765,3935.24242385,346.181818147,4286.06060563,193.696969678,4442.66666622,2876.60606032,4205.69696928,3169.2121209,4400.9393935,2695.272727,5021.69696919,3000.24242394,4247.424242,53.5757575704,4424.12121168,3313.45454512,4233.51515109,605.818181758,4868.69696921,1178.66666655,4566.81818136,3494.78787844,42.0,42.0,?
2017-07-31 18:08:38.767257,4562.69696924,3709.09090872,4209.30302988,4.1212121208,3908.96969658,230.787878765,3930.60606021,346.181818147,4285.0303026,193.696969678,4448.8484844,2876.60606032,4202.09090867,3169.2121209,4396.30302986,2695.272727,5014.9999995,3000.24242394,4244.84848442,53.5757575704,4424.63636319,3313.45454512,4232.48484806,605.818181758,4869.72727224,1178.66666655,4562.69696924,3494.78787844,42.0,42.0,?
2017-07-31 18:08:38.777112,4564.7575753,3709.09090872,4210.84848443,4.1212121208,3910.51515112,230.787878765,3924.93939355,346.181818147,4285.54545412,193.696969678,4450.39393895,2876.60606032,4200.03030261,3169.2121209,4395.27272683,2695.272727,5009.84848435,3000.24242394,4241.24242382,53.5757575704,4424.12121168,3313.45454512,4230.93939352,605.818181758,4869.72727224,1178.66666655,4565.27272682,3494.78787844,42.0,42.0,?
2017-07-31 18:08:38.780582,4562.18181773,3709.09090872,4207.75757534,4.1212121208,3908.96969658,230.787878765,3931.63636324,346.181818147,4293.27272684,193.696969678,4450.39393895,2876.60606032,4202.09090867,3169.2121209,4399.90909047,2695.272727,5015.51515101,3000.24242394,4239.18181776,53.5757575704,4422.06060562,3313.45454512,4228.36363594,605.818181758,4864.06060557,1178.66666655,4567.33333288,3494.78787844,42.0,42.0,?
2017-07-31 18:08:38.791929,4559.09090864,3709.09090872,4208.27272685,4.1212121208,3904.84848446,230.787878765,3934.72727233,346.181818147,4301.51515109,193.696969678,4453.48484804,2876.60606032,4200.54545413,3169.2121209,4397.84848441,2695.272727,5019.12121162,3000.24242394,4237.1212117,53.5757575704,4422.06060562,3313.45454512,4231.96969655,605.818181758,4865.60606012,1178.66666655,4563.21212076,3494.78787844,42.0,42.0,?
2017-07-31 18:08:38.795825,4562.18181773,3709.09090872,4209.8181814,4.1212121208,3904.84848446,230.787878765,3936.78787839,346.181818147,4294.30302987,193.696969678,4451.42424198,2876.60606032,4201.57575716,3169.2121209,4395.27272683,2695.272727,5011.90909041,3000.24242394,4235.06060564,53.5757575704,4422.57575713,3313.45454512,4235.06060564,605.818181758,4867.66666618,1178.66666655,4562.18181773,3494.78787844,42.0,42.0,?
2017-07-31 18:08:38.805100,4565.27272682,3709.09090872,4209.30302988,4.1212121208,3909.48484809,230.787878765,3940.90909052,346.181818147,4282.96969654,193.696969678,4448.8484844,2876.60606032,4204.15151473,3169.2121209,4400.42424198,2695.272727,5007.27272677,3000.24242394,4237.63636321,53.5757575704,4423.60606016,3313.45454512,4233.51515109,605.818181758,4868.69696921,1178.66666655,4565.27272682,3494.78787844,42.0,42.0,?
2017-07-31 18:08:38.811512,4559.60606015,3709.09090872,4210.84848443,4.1212121208,3908.45454506,230.787878765,3934.72727233,346.181818147,4282.96969654,193.696969678,4452.96969652,2876.60606032,4203.63636322,3169.2121209,4402.99999956,2695.272727,5012.93939344,3000.24242394,4236.09090867,53.5757575704,4419.48484804,3313.45454512,4232.48484806,605.818181758,4865.0909086,1178.66666655,4561.66666621,3494.78787844,42.0,42.0,?
2017-07-31 18:08:38.820161,4553.42424197,3709.09090872,4208.27272685,4.1212121208,3901.75757537,230.787878765,3928.03030264,346.181818147,4291.7272723,193.696969678,4456.57575713,2876.60606032,4207.75757534,3169.2121209,4400.42424198,2695.272727,5016.03030253,3000.24242394,4232.99999958,53.5757575704,4411.75757532,3313.45454512,4230.93939352,605.818181758,4859.93939345,1178.66666655,4555.99999954,3494.78787844,42.0,42.0,?
2017-07-31 18:08:38.827091,4560.12121167,3709.09090872,4207.75757534,4.1212121208,3900.21212082,230.787878765,3928.03030264,346.181818147,4291.7272723,193.696969678,4451.42424198,2876.60606032,4212.90909049,3169.2121209,4404.03030259,2695.272727,5010.36363586,3000.24242394,4239.69696927,53.5757575704,4414.84848441,3313.45454512,4230.93939352,605.818181758,4866.63636315,1178.66666655,4562.18181773,3494.78787844,42.0,42.0,?
2017-07-31 18:08:38.834709,4566.30302985,3709.09090872,4209.30302988,4.1212121208,3903.30302991,230.787878765,3926.48484809,346.181818147,4283.48484806,193.696969678,4446.78787834,2876.60606032,4213.424242,3169.2121209,4408.15151471,2695.272727,5008.81818132,3000.24242394,4240.21212079,53.5757575704,4418.45454501,3313.45454512,4231.96969655,605.818181758,4867.15151466,1178.66666655,4565.27272682,3494.78787844,42.0,42.0,?
2017-07-31 18:08:38.844567,4560.63636318,3709.09090872,4209.30302988,4.1212121208,3902.7878784,230.787878765,3928.03030264,346.181818147,4282.96969654,193.696969678,4445.75757531,2876.60606032,4212.39393897,3169.2121209,4405.57575714,2695.272727,5012.42424192,3000.24242394,4229.39393897,53.5757575704,4412.78787835,3313.45454512,4230.93939352,605.818181758,4862.51515103,1178.66666655,4559.09090864,3494.78787844,42.0,42.0,?
2017-07-31 18:08:38.849980,4554.454545,3709.09090872,4209.8181814,4.1212121208,3900.21212082,230.787878765,3928.54545415,346.181818147,4286.06060563,193.696969678,4447.30302986,2876.60606032,4209.30302988,3169.2121209,4400.9393935,2695.272727,5014.48484798,3000.24242394,4229.39393897,53.5757575704,4411.2424238,3313.45454512,4229.90909049,605.818181758,4862.51515103,1178.66666655,4558.0606056,3494.78787844,42.0,42.0,?
2017-07-31 18:08:38.857691,4554.454545,3709.09090872,4208.27272685,4.1212121208,3901.75757537,230.787878765,3922.36363597,346.181818147,4282.45454503,193.696969678,4447.81818137,2876.60606032,4204.66666625,3169.2121209,4399.39393895,2695.272727,5015.51515101,3000.24242394,4238.15151473,53.5757575704,4417.9393935,3313.45454512,4232.99999958,605.818181758,4859.42424194,1178.66666655,4564.7575753,3494.78787844,42.0,42.0,?
2017-07-31 18:08:38.867338,4558.0606056,3709.09090872,4207.75757534,4.1212121208,3903.30302991,230.787878765,3923.90909052,346.181818147,4277.81818139,193.696969678,4445.75757531,2876.60606032,4202.60606019,3169.2121209,4397.33333289,2695.272727,5016.03030253,3000.24242394,4238.15151473,53.5757575704,4420.51515107,3313.45454512,4236.60606018,605.818181758,4862.51515103,1178.66666655,4568.36363591,3494.78787844,42.0,42.0,?
2017-07-31 18:08:38.874064,4562.18181773,3709.09090872,4208.78787837,4.1212121208,3902.27272688,230.787878765,3931.12121173,346.181818147,4281.424242,193.696969678,4444.72727228,2876.60606032,4203.63636322,3169.2121209,4398.36363592,2695.272727,5017.06060556,3000.24242394,4237.63636321,53.5757575704,4415.87878744,3313.45454512,4234.54545412,605.818181758,4865.60606012,1178.66666655,4563.72727227,3494.78787844,42.0,42.0,?
2017-07-31 18:08:38.885606,4563.72727227,3709.09090872,4210.33333291,4.1212121208,3902.7878784,230.787878765,3931.63636324,346.181818147,4285.54545412,193.696969678,4447.81818137,2876.60606032,4205.69696928,3169.2121209,4403.51515107,2695.272727,5020.66666616,3000.24242394,4240.7272723,53.5757575704,4417.42424198,3313.45454512,4232.48484806,605.818181758,4865.0909086,1178.66666655,4563.21212076,3494.78787844,42.0,42.0,?
2017-07-31 18:08:38.891921,4563.21212076,3709.09090872,4212.39393897,4.1212121208,3905.36363597,230.787878765,3929.06060567,346.181818147,4288.12121169,193.696969678,4452.96969652,2876.60606032,4210.33333291,3169.2121209,4408.15151471,2695.272727,5024.27272677,3000.24242394,4242.78787836,53.5757575704,4423.09090865,3313.45454512,4236.60606018,605.818181758,4869.72727224,1178.66666655,4570.93939348,3494.78787844,42.0,42.0,?
2017-07-31 18:08:38.899975,4563.72727227,3709.09090872,4211.36363594,4.1212121208,3906.90909052,230.787878765,3928.54545415,346.181818147,4288.63636321,193.696969678,4455.03030258,2876.60606032,4218.06060564,3169.2121209,4414.33333289,2695.272727,5026.84848435,3000.24242394,4247.93939351,53.5757575704,4421.5454541,3313.45454512,4235.57575715,605.818181758,4868.1818177,1178.66666655,4573.51515106,3494.78787844,42.0,42.0,?
2017-07-31 18:08:38.908850,4564.24242379,3709.09090872,4212.90909049,4.1212121208,3900.72727234,230.787878765,3924.42424203,346.181818147,4289.15151472,193.696969678,4452.45454501,2876.60606032,4220.1212117,3169.2121209,4418.45454501,2695.272727,5028.90909041,3000.24242394,4245.87878745,53.5757575704,4418.45454501,3313.45454512,4234.03030261,605.818181758,4867.66666618,1178.66666655,4568.87878742,3494.78787844,42.0,42.0,?
2017-07-31 18:08:38.912646,4562.69696924,3709.09090872,4212.90909049,4.1212121208,3897.63636325,230.787878765,3926.99999961,346.181818147,4294.81818139,193.696969678,4455.5454541,2876.60606032,4213.93939352,3169.2121209,4413.81818138,2695.272727,5023.24242374,3000.24242394,4237.63636321,53.5757575704,4418.45454501,3313.45454512,4233.51515109,605.818181758,4868.69696921,1178.66666655,4566.30302985,3494.78787844,42.0,42.0,?
2017-07-31 18:08:38.920693,4565.78787833,3709.09090872,4209.8181814,4.1212121208,3902.7878784,230.787878765,3936.27272688,346.181818147,4292.75757533,193.696969678,4461.21212077,2876.60606032,4210.84848443,3169.2121209,4408.15151471,2695.272727,5017.06060556,3000.24242394,4240.21212079,53.5757575704,4424.63636319,3313.45454512,4232.99999958,605.818181758,4870.24242376,1178.66666655,4570.93939348,3494.78787844,42.0,42.0,?
2017-07-31 18:08:38.929444,4568.87878742,3709.09090872,4208.27272685,4.1212121208,3904.84848446,230.787878765,3934.72727233,346.181818147,4287.09090866,193.696969678,4462.75757531,2876.60606032,4215.99999958,3169.2121209,4411.75757532,2695.272727,5020.15151465,3000.24242394,4242.27272685,53.5757575704,4428.75757531,3313.45454512,4234.03030261,605.818181758,4871.7878783,1178.66666655,4574.03030257,3494.78787844,42.0,42.0,?
2017-07-31 18:08:38.935613,4560.63636318,3709.09090872,4208.27272685,4.1212121208,3899.69696931,230.787878765,3925.45454506,346.181818147,4291.21212078,193.696969678,4460.69696925,2876.60606032,4214.96969655,3169.2121209,4412.78787835,2695.272727,5023.24242374,3000.24242394,4229.39393897,53.5757575704,4417.42424198,3313.45454512,4233.51515109,605.818181758,4858.90909042,1178.66666655,4566.81818136,3494.78787844,42.0,42.0,?
2017-07-31 18:08:38.943665,4551.36363591,3709.09090872,4210.84848443,4.1212121208,3896.60606022,230.787878765,3921.84848446,346.181818147,4289.15151472,193.696969678,4455.5454541,2876.60606032,4203.1212117,3169.2121209,4398.36363592,2695.272727,5015.51515101,3000.24242394,4218.57575715,53.5757575704,4408.66666623,3313.45454512,4234.03030261,605.818181758,4856.33333285,1178.66666655,4561.66666621,3494.78787844,42.0,42.0,?
2017-07-31 18:08:38.953415,4559.09090864,3721.45454508,4211.87878746,4.1212121208,3899.18181779,230.787878765,3923.393939,346.181818147,4278.84848442,193.696969678,4452.45454501,2876.60606032,4198.99999958,3169.2121209,4389.09090865,2695.272727,5007.27272677,3000.24242394,4224.75757534,53.5757575704,4416.90909047,3313.45454512,4234.54545412,605.818181758,4867.66666618,1178.66666655,4566.81818136,3494.78787844,42.0,42.0,?
2017-07-31 18:08:38.962387,4568.36363591,3721.45454508,4206.21212079,8.2424242416,3898.66666628,230.787878765,3926.99999961,346.181818147,4279.36363594,193.696969678,4451.93939349,2876.60606032,4205.18181776,3169.2121209,4396.30302986,2695.272727,5009.33333283,3000.24242394,4225.27272685,53.5757575704,4421.03030259,3313.45454512,4232.99999958,605.818181758,4867.15151466,1178.66666655,4571.96969651,3494.78787844,42.0,42.0,?
2017-07-31 18:08:38.967868,4560.63636318,3721.45454508,4206.72727231,8.2424242416,3892.99999961,230.787878765,3927.51515112,346.181818147,4287.09090866,193.696969678,4449.36363592,2876.60606032,4202.09090867,3169.2121209,4397.33333289,2695.272727,5010.36363586,3000.24242394,4208.78787837,53.5757575704,4410.72727229,3313.45454512,4233.51515109,605.818181758,4860.96969648,1178.66666655,4568.36363591,3498.90909056,42.0,42.0,?
2017-07-31 18:08:38.975692,4551.87878742,3721.45454508,4211.36363594,8.2424242416,3889.90909052,230.787878765,3923.393939,346.181818147,4283.48484806,193.696969678,4444.72727228,2876.60606032,4196.424242,3169.2121209,4390.12121168,2695.272727,5006.75757526,3000.24242394,4203.1212117,53.5757575704,4402.99999956,3313.45454512,4232.48484806,605.818181758,4853.75757527,1178.66666655,4563.72727227,3498.90909056,42.0,42.0,?
2017-07-31 18:08:38.983588,4552.90909045,3721.45454508,4209.30302988,8.2424242416,3889.393939,230.787878765,3916.69696931,350.303030268,4274.7272723,193.696969678,4443.18181774,2876.60606032,4198.99999958,3169.2121209,4389.09090865,2695.272727,5006.75757526,3000.24242394,4213.424242,53.5757575704,4407.12121168,3313.45454512,4235.06060564,605.818181758,4852.72727224,1178.66666655,4565.27272682,3498.90909056,42.0,42.0,?
2017-07-31 18:08:38.990755,4552.39393894,3721.45454508,4207.24242382,8.2424242416,3889.393939,230.787878765,3918.24242385,350.303030268,4275.75757533,185.454545436,4443.18181774,2876.60606032,4200.54545413,3169.2121209,4391.15151471,2695.272727,5003.15151465,3000.24242394,4211.87878746,53.5757575704,4407.6363632,3313.45454512,4236.09090867,605.818181758,4855.30302982,1178.66666655,4565.78787833,3498.90909056,42.0,42.0,?
2017-07-31 18:08:39.000283,4552.90909045,3721.45454508,4208.27272685,8.2424242416,3892.4848481,230.787878765,3925.45454506,350.303030268,4280.90909048,185.454545436,4447.81818137,2876.60606032,4196.424242,3169.2121209,4391.15151471,2695.272727,4995.93939344,3000.24242394,4203.1212117,53.5757575704,4402.48484804,3313.45454512,4229.90909049,605.818181758,4854.27272679,1178.66666655,4565.78787833,3498.90909056,42.0,42.0,?
