Timestamp,F3 Value,F3 Quality,FC5 Value,FC5 Quality,F7 Value,F7 Quality,T7 Value,T7 Quality,P7 Value,P7 Quality,O1 Value,O1 Quality,O2 Value,O2 Quality,P8 Value,P8 Quality,T8 Value,T8 Quality,F8 Value,F8 Quality,AF4 Value,AF4 Quality,FC6 Value,FC6 Quality,F4 Value,F4 Quality,AF3 Value,AF3 Quality,X Value,Y Value,Z Value
2017-08-01 19:33:20.209447,4559.60606015,0,4166.03030261,0,3870.84848446,0,3895.57575719,0,4276.27272685,0,4459.66666622,0,4174.27272686,0,4318.51515108,0,4912.99999951,0,4235.57575715,0,4434.9393935,0,4162.93939352,1310.54545441,4820.27272679,0,4468.42424198,0,42.0,42.0,?
2017-08-01 19:33:20.211899,4559.60606015,0,4166.03030261,0,3870.84848446,0,3895.57575719,0,4276.27272685,0,4459.66666622,0,4174.27272686,0,4318.51515108,0,4912.99999951,0,4235.57575715,0,4434.9393935,0,4162.93939352,1310.54545441,4820.27272679,0,4468.42424198,0,42.0,42.0,?
2017-08-01 19:33:20.215027,4559.60606015,0,4166.03030261,0,3870.84848446,0,3895.57575719,0,4276.27272685,0,4459.66666622,0,4174.27272686,0,4318.51515108,0,4912.99999951,0,4235.57575715,0,4434.9393935,0,4162.93939352,1310.54545441,4820.27272679,0,4468.42424198,0,42.0,42.0,?
2017-08-01 19:33:20.218410,4553.42424197,0,4161.90909049,0,3877.03030264,0,3870.33333295,0,4274.21212078,0,4452.96969652,0,4169.63636322,0,4312.3333329,0,4894.96969648,0,4240.7272723,0,4432.36363592,0,4168.09090867,1310.54545441,4819.24242376,0,4465.8484844,0,42.0,42.0,?
2017-08-01 19:33:20.221547,4553.42424197,0,4161.90909049,0,3877.03030264,0,3870.33333295,0,4274.21212078,0,4452.96969652,0,4169.63636322,0,4312.3333329,0,4894.96969648,0,4240.7272723,0,4432.36363592,0,4168.09090867,1310.54545441,4819.24242376,0,4465.8484844,0,42.0,42.0,?
2017-08-01 19:33:20.224893,4563.72727227,0,4169.1212117,0,3872.39393901,0,3885.7878784,0,4276.78787836,0,4460.18181774,0,4170.15151473,0,4313.36363593,0,4903.72727224,0,4238.66666624,0,4434.9393935,0,4164.48484807,1310.54545441,4821.30302982,0,4469.45454501,0,42.0,42.0,?
2017-08-01 19:33:20.228351,4566.30302985,0,4168.60606019,0,3875.99999961,0,3872.90909052,0,4275.24242381,0,4455.5454541,0,4159.84848443,0,4308.7272723,0,4919.18181769,0,4241.75757533,0,4431.33333289,0,4161.39393898,1310.54545441,4821.81818134,0,4467.90909046,0,42.0,42.0,?
2017-08-01 19:33:20.232918,4559.60606015,0,4165.5151511,0,3875.4848481,0,3869.30302992,0,4272.66666624,0,4450.39393895,0,4157.27272686,0,4306.15151472,0,4904.75757527,0,4240.21212079,0,4430.81818138,0,4162.93939352,1310.54545441,4822.84848437,0,4466.87878743,0,42.0,42.0,?
2017-08-01 19:33:20.235756,4560.12121167,0,4168.60606019,0,3865.69696931,0,3913.0909087,0,4270.60606018,0,4450.39393895,0,4155.72727231,0,4305.63636321,0,4888.27272678,0,4237.63636321,0,4431.84848441,0,4164.99999958,1310.54545441,4820.27272679,0,4468.93939349,0,42.0,42.0,?
2017-08-01 19:33:20.245527,4556.51515106,0,4166.03030261,0,3867.24242386,0,3897.63636325,0,4268.0303026,0,4450.90909046,0,4153.66666625,0,4308.7272723,0,4901.15151466,0,4239.18181776,0,4425.66666622,0,4164.48484807,1310.54545441,4814.09090861,0,4466.36363592,0,42.0,42.0,?
2017-08-01 19:33:20.251161,4565.78787833,0,4168.60606019,0,3879.60606022,0,3852.81818143,0,4272.15151472,0,4456.57575713,0,4163.96969655,0,4319.0303026,0,4912.99999951,0,4234.03030261,0,4427.72727228,0,4163.96969655,1310.54545441,4822.84848437,0,4468.93939349,0,42.0,42.0,?
2017-08-01 19:33:20.254138,4563.72727227,0,4166.03030261,0,3884.24242385,0,3873.42424204,0,4278.84848442,0,4464.81818137,0,4176.84848443,0,4328.81818139,0,4912.48484799,0,4234.54545412,0,4431.33333289,0,4164.48484807,1310.54545441,4821.81818134,0,4468.93939349,0,42.0,42.0,?
2017-08-01 19:33:20.257113,4561.66666621,0,4165.5151511,0,3878.06060567,0,3900.21212082,0,4276.78787836,0,4461.21212077,0,4174.27272686,0,4328.81818139,0,4916.0909086,0,4248.45454503,0,4432.36363592,0,4166.54545413,1310.54545441,4821.30302982,0,4472.03030258,0,42.0,42.0,?
2017-08-01 19:33:20.260112,4570.93939348,0,4170.66666625,0,3869.30302992,0,3886.81818143,0,4272.15151472,0,4452.96969652,0,4169.63636322,0,4327.78787836,0,4923.81818133,0,4248.45454503,0,4439.57575713,0,4166.03030261,1310.54545441,4829.03030255,0,4479.75757531,0,42.0,42.0,?
2017-08-01 19:33:20.263972,4564.24242379,0,4163.45454504,0,3872.90909052,0,3863.12121173,0,4272.15151472,0,4455.5454541,0,4175.8181814,0,4329.3333329,0,4921.24242375,0,4235.57575715,0,4439.06060562,0,4162.93939352,1310.54545441,4820.27272679,0,4473.57575713,0,42.0,42.0,?
2017-08-01 19:33:20.268241,4566.30302985,0,4164.99999958,0,3876.51515113,0,3861.57575719,0,4269.57575715,0,4456.06060561,0,4167.57575716,0,4316.96969654,0,4899.60606012,0,4228.87878746,0,4434.42424198,0,4165.5151511,1310.54545441,4821.30302982,0,4470.48484804,0,42.0,42.0,?
2017-08-01 19:33:20.271969,4566.81818136,0,4167.57575716,0,3867.75757537,0,3899.69696931,0,4266.99999957,0,4452.96969652,0,4155.72727231,0,4309.24242381,0,4903.72727224,0,4239.69696927,0,4434.9393935,0,4168.09090867,1310.54545441,4823.36363588,0,4470.99999955,0,42.0,42.0,?
2017-08-01 19:33:20.278704,4561.66666621,0,4166.54545413,0,3867.75757537,0,3909.99999961,0,4271.63636321,0,4455.5454541,0,4166.03030261,0,4321.09090866,0,4932.57575708,0,4255.66666624,0,4441.63636319,0,4167.06060564,1310.54545441,4821.30302982,0,4473.57575713,0,42.0,42.0,?
2017-08-01 19:33:20.287335,4566.81818136,0,4169.1212117,0,3879.0909087,0,3854.36363598,0,4276.27272685,0,4458.12121168,0,4174.78787837,0,4326.75757532,0,4923.81818133,0,4252.06060564,0,4444.72727228,0,4167.57575716,1310.54545441,4826.45454497,0,4477.69696925,0,42.0,42.0,?
2017-08-01 19:33:20.294919,4560.63636318,0,4166.54545413,0,3880.63636325,0,3851.27272689,0,4275.24242381,0,4455.03030258,0,4168.09090867,0,4320.06060563,0,4900.63636315,0,4236.60606018,0,4434.42424198,0,4166.03030261,1310.54545441,4820.27272679,0,4470.48484804,0,42.0,42.0,?
2017-08-01 19:33:20.302087,4565.78787833,0,4167.57575716,0,3875.4848481,0,3904.33333294,0,4271.12121169,0,4451.93939349,0,4167.06060564,0,4320.57575714,0,4916.60606011,0,4235.57575715,0,4431.84848441,0,4164.99999958,1310.54545441,4823.8787874,0,4470.48484804,0,42.0,42.0,?
2017-08-01 19:33:20.314701,4561.1515147,0,4167.57575716,0,3870.33333295,0,3883.21212082,0,4275.24242381,0,4460.18181774,0,4173.75757534,0,4326.24242381,0,4922.7878783,0,4243.30302988,0,4435.45454501,0,4169.1212117,1310.54545441,4819.75757528,0,4475.12121167,0,42.0,42.0,?
2017-08-01 19:33:20.317309,4561.1515147,0,4167.57575716,0,3870.33333295,0,3883.21212082,0,4275.24242381,0,4460.18181774,0,4173.75757534,0,4326.24242381,0,4922.7878783,0,4243.30302988,0,4435.45454501,0,4169.1212117,1310.54545441,4819.75757528,0,4475.12121167,0,42.0,42.0,?
2017-08-01 19:33:20.327709,4565.78787833,0,4167.06060564,0,3868.7878784,0,3871.36363598,0,4273.69696927,0,4462.75757531,0,4173.24242383,0,4323.15151472,0,4907.33333284,0,4233.51515109,0,4437.51515107,0,4169.63636322,1310.54545441,4823.8787874,0,4477.69696925,0,42.0,42.0,?
2017-08-01 19:33:20.333921,4565.78787833,0,4161.90909049,0,3876.51515113,0,3851.7878784,0,4266.48484806,0,4456.06060561,0,4175.30302989,0,4323.66666623,0,4916.60606011,0,4236.60606018,0,4437.51515107,0,4165.5151511,1310.54545441,4824.90909043,0,4474.09090864,0,42.0,42.0,?
2017-08-01 19:33:20.348665,4565.78787833,0,4167.57575716,0,3878.06060567,0,3883.72727234,0,4261.84848442,0,4450.90909046,0,4166.03030261,0,4319.54545411,0,4922.7878783,0,4240.21212079,0,4438.5454541,0,4166.03030261,1310.54545441,4824.90909043,0,4476.66666622,0,42.0,42.0,?
2017-08-01 19:33:20.354546,4567.33333288,0,4170.15151473,0,3875.99999961,0,3920.81818143,0,4265.45454503,0,4448.8484844,0,4149.54545413,0,4308.21212078,0,4919.18181769,0,4235.57575715,0,4438.5454541,0,4167.57575716,1310.54545441,4824.90909043,0,4480.78787834,0,42.0,42.0,?
2017-08-01 19:33:20.359468,4563.72727227,0,4162.93939352,0,3881.15151476,0,3888.36363597,0,4269.06060563,0,4448.8484844,0,4146.45454504,0,4307.18181775,0,4918.15151466,0,4239.69696927,0,4434.9393935,0,4168.60606019,1310.54545441,4818.72727225,0,4473.57575713,0,42.0,42.0,?
2017-08-01 19:33:20.369840,4570.93939348,0,4169.1212117,0,3882.18181779,0,3863.63636325,0,4263.90909048,0,4448.8484844,0,4151.09090868,0,4309.75757533,0,4904.75757527,0,4248.45454503,0,4438.03030259,0,4169.63636322,1310.54545441,4822.84848437,0,4474.60606016,0,42.0,42.0,?
2017-08-01 19:33:20.374057,4565.78787833,0,4170.66666625,0,3878.57575719,0,3881.15151476,0,4261.33333291,0,4446.78787834,0,4153.15151474,0,4308.21212078,0,4894.45454497,0,4244.84848442,0,4439.06060562,0,4168.09090867,1310.54545441,4823.36363588,0,4477.69696925,0,42.0,42.0,?
2017-08-01 19:33:20.380627,4561.1515147,0,4167.06060564,0,3878.06060567,0,3876.51515113,0,4268.0303026,0,4446.27272683,0,4155.2121208,0,4310.78787836,0,4911.96969648,0,4234.54545412,0,4432.87878744,0,4164.99999958,1310.54545441,4822.84848437,0,4478.72727228,0,42.0,42.0,?
2017-08-01 19:33:20.389766,4564.24242379,0,4167.06060564,0,3875.99999961,0,3874.45454507,0,4270.09090866,0,4448.33333289,0,4158.30302989,0,4312.3333329,0,4925.87878739,0,4226.30302988,0,4426.69696925,0,4163.45454504,1310.54545441,4821.30302982,0,4475.63636319,0,42.0,42.0,?
2017-08-01 19:33:20.396965,4559.60606015,0,4164.48484807,0,3876.51515113,0,3885.27272688,0,4266.48484806,0,4452.96969652,0,4163.45454504,0,4315.93939351,0,4922.27272678,0,4229.90909049,0,4430.81818138,0,4166.54545413,1310.54545441,4817.1818177,0,4469.96969652,0,42.0,42.0,?
2017-08-01 19:33:20.403142,4570.42424197,0,4168.60606019,0,3878.57575719,0,3881.15151476,0,4268.0303026,0,4461.72727228,0,4170.66666625,0,4321.09090866,0,4911.45454496,0,4244.33333291,0,4443.69696925,0,4171.18181776,1310.54545441,4826.96969649,0,4477.18181773,0,42.0,42.0,?
2017-08-01 19:33:20.412946,4570.42424197,0,4169.1212117,0,3873.42424204,0,3879.60606022,0,4272.15151472,0,4467.39393895,0,4170.15151473,0,4320.57575714,0,4905.7878783,0,4245.87878745,0,4440.60606016,0,4167.57575716,1310.54545441,4823.36363588,0,4475.63636319,0,42.0,42.0,?
2017-08-01 19:33:20.419825,4560.63636318,0,4167.06060564,0,3866.21212083,0,3882.18181779,0,4273.18181775,0,4461.72727228,0,4164.99999958,0,4320.06060563,0,4914.54545405,0,4226.30302988,0,4426.69696925,0,4161.39393898,1310.54545441,4818.72727225,0,4469.45454501,0,42.0,42.0,?
2017-08-01 19:33:20.427670,4565.78787833,0,4169.1212117,0,3861.57575719,0,3890.93939355,0,4268.0303026,0,4452.96969652,0,4162.42424201,0,4320.06060563,0,4923.81818133,0,4212.39393897,0,4428.2424238,0,4163.45454504,1310.54545441,4826.45454497,0,4474.60606016,0,42.0,42.0,?
2017-08-01 19:33:20.438932,4563.72727227,0,4167.06060564,0,3867.75757537,0,3875.99999961,0,4263.39393897,0,4452.96969652,0,4163.45454504,0,4317.48484805,0,4923.30302981,0,4222.18181776,0,4434.42424198,0,4169.1212117,1310.54545441,4821.81818134,0,4475.63636319,0,42.0,42.0,?
2017-08-01 19:33:20.443944,4566.30302985,0,4169.1212117,0,3877.03030264,0,3840.96969659,0,4264.424242,0,4452.45454501,0,4160.36363595,0,4311.81818139,0,4913.51515102,0,4231.96969655,0,4435.45454501,0,4169.63636322,1310.54545441,4823.8787874,0,4477.69696925,0,42.0,42.0,?
2017-08-01 19:33:20.450991,4565.78787833,0,4169.63636322,0,3874.45454507,0,3868.27272689,0,4268.0303026,0,4448.33333289,0,4152.63636322,0,4309.24242381,0,4892.90909042,0,4228.87878746,0,4434.42424198,0,4167.06060564,1310.54545441,4822.33333285,0,4476.1515147,0,42.0,42.0,?
2017-08-01 19:33:20.458597,4557.54545409,0,4165.5151511,0,3871.87878749,0,3923.90909052,0,4269.57575715,0,4451.93939349,0,4156.24242383,0,4313.36363593,0,4895.99999951,0,4231.45454503,0,4433.39393895,0,4166.54545413,1310.54545441,4815.63636315,0,4472.5454541,0,42.0,42.0,?
2017-08-01 19:33:20.466279,4563.72727227,0,4169.63636322,0,3877.54545416,0,3909.99999961,0,4268.0303026,0,4458.63636319,0,4166.03030261,0,4319.0303026,0,4921.75757527,0,4236.60606018,0,4435.45454501,0,4168.60606019,1310.54545441,4825.42424194,0,4476.66666622,0,42.0,42.0,?
2017-08-01 19:33:20.477772,4568.36363591,0,4169.63636322,0,3880.63636325,0,3874.96969658,0,4270.60606018,0,4458.12121168,0,4174.27272686,0,4329.3333329,0,4926.3939389,0,4238.15151473,0,4436.99999956,0,4170.15151473,1310.54545441,4826.45454497,0,4478.72727228,0,42.0,42.0,?
2017-08-01 19:33:20.483570,4568.87878742,0,4164.99999958,0,3881.15151476,0,3858.99999961,0,4270.09090866,0,4457.60606016,0,4181.48484807,0,4337.06060563,0,4922.27272678,0,4241.24242382,0,4442.66666622,0,4171.18181776,1310.54545441,4823.36363588,0,4480.27272682,0,42.0,42.0,?
2017-08-01 19:33:20.496713,4569.39393894,0,4165.5151511,0,3881.66666628,0,3863.12121173,0,4267.51515109,0,4459.66666622,0,4180.45454504,0,4330.36363593,0,4928.45454496,0,4241.24242382,0,4444.21212077,0,4171.69696928,1310.54545441,4823.8787874,0,4479.24242379,0,42.0,42.0,?
2017-08-01 19:33:20.500155,4566.81818136,0,4169.1212117,0,3879.0909087,0,3903.81818143,0,4266.48484806,0,4460.69696925,0,4170.15151473,0,4319.54545411,0,4928.45454496,0,4238.15151473,0,4439.57575713,0,4172.72727231,1310.54545441,4822.84848437,0,4477.18181773,0,42.0,42.0,?
2017-08-01 19:33:20.505695,4567.84848439,0,4167.57575716,0,3877.54545416,0,3894.03030264,0,4266.48484806,0,4461.72727228,0,4166.54545413,0,4322.6363632,0,4925.36363587,0,4237.63636321,0,4443.18181774,0,4171.69696928,1310.54545441,4826.96969649,0,4481.81818137,0,42.0,42.0,?
2017-08-01 19:33:20.515687,4563.72727227,0,4161.90909049,0,3877.54545416,0,3841.99999962,0,4268.54545412,0,4466.87878743,0,4172.21212079,0,4326.75757532,0,4930.51515102,0,4236.60606018,0,4442.66666622,0,4170.15151473,1310.54545441,4826.45454497,0,4477.18181773,0,42.0,42.0,?
2017-08-01 19:33:20.521061,4565.78787833,0,4167.06060564,0,3872.39393901,0,3870.84848446,0,4270.09090866,0,4465.33333289,0,4163.45454504,0,4311.30302987,0,4913.51515102,0,4225.27272685,0,4434.42424198,0,4169.63636322,1310.54545441,4826.96969649,0,4469.45454501,0,42.0,42.0,?
2017-08-01 19:33:20.529191,4565.78787833,0,4167.06060564,0,3870.84848446,0,3919.7878784,0,4268.0303026,0,4455.03030258,0,4147.48484807,0,4299.96969654,0,4893.42424193,0,4219.60606018,0,4430.30302986,0,4166.54545413,1310.54545441,4824.90909043,0,4469.96969652,0,42.0,42.0,?
2017-08-01 19:33:20.536160,4560.12121167,2299.63636341,4161.90909049,0,3874.96969658,0,3902.7878784,0,4269.06060563,0,4449.87878743,0,4148.5151511,0,4309.24242381,0,4902.18181769,0,4230.424242,0,4432.87878744,0,4167.57575716,1310.54545441,4819.75757528,0,4474.09090864,0,42.0,42.0,?
2017-08-01 19:33:20.544883,4568.87878742,2299.63636341,4167.57575716,4.1212121208,3876.51515113,0,3878.57575719,0,4268.0303026,0,4451.42424198,0,4153.66666625,0,4313.87878745,0,4907.33333284,0,4230.424242,0,4438.5454541,0,4171.69696928,1310.54545441,4825.42424194,0,4480.27272682,0,42.0,42.0,?
2017-08-01 19:33:20.552592,4563.72727227,2299.63636341,4166.54545413,4.1212121208,3875.99999961,0,3867.24242386,0,4265.96969654,0,4450.39393895,0,4154.69696928,0,4313.87878745,0,4911.45454496,0,4223.21212079,0,4436.48484804,0,4170.66666625,1310.54545441,4823.8787874,0,4475.12121167,3737.93939357,42.0,42.0,?
2017-08-01 19:33:20.560067,4561.66666621,2299.63636341,4166.54545413,4.1212121208,3873.93939355,3449.45454511,3853.33333295,0,4265.96969654,0,4447.30302986,0,4158.8181814,0,4320.06060563,0,4927.93939345,0,4225.27272685,0,4435.96969653,0,4167.57575716,1310.54545441,4825.42424194,0,4474.60606016,3737.93939357,42.0,42.0,?
2017-08-01 19:33:20.568824,4568.36363591,2299.63636341,4167.57575716,4.1212121208,3868.7878784,3449.45454511,3864.15151477,65.9393939328,4263.39393897,0,4446.78787834,0,4163.45454504,0,4318.51515108,0,4931.54545405,0,4225.27272685,0,4439.06060562,0,4169.1212117,1310.54545441,4826.45454497,0,4480.78787834,3737.93939357,42.0,42.0,?
2017-08-01 19:33:20.577101,4559.09090864,2299.63636341,4162.93939352,4.1212121208,3868.7878784,3449.45454511,3872.90909052,65.9393939328,4261.84848442,4034.66666626,4450.39393895,0,4162.42424201,0,4312.3333329,0,4917.12121163,0,4222.18181776,0,4434.9393935,0,4169.63636322,1310.54545441,4816.66666619,0,4475.63636319,3737.93939357,42.0,42.0,?
2017-08-01 19:33:20.590304,4567.84848439,2299.63636341,4170.15151473,4.1212121208,3871.36363598,3449.45454511,3850.24242386,65.9393939328,4265.45454503,4034.66666626,4458.12121168,3684.363636,4161.90909049,0,4310.27272684,0,4902.18181769,0,4222.69696927,0,4438.03030259,0,4170.15151473,1310.54545441,4825.42424194,0,4479.75757531,3737.93939357,42.0,42.0,?
2017-08-01 19:33:20.595220,4568.87878742,2299.63636341,4169.63636322,4.1212121208,3871.87878749,3449.45454511,3853.84848446,65.9393939328,4266.99999957,4034.66666626,4462.2424238,3684.363636,4162.93939352,3090.9090906,4308.21212078,0,4897.03030254,0,4219.60606018,0,4440.09090865,0,4171.18181776,1310.54545441,4826.45454497,0,4480.27272682,3737.93939357,42.0,42.0,?
2017-08-01 19:33:20.600135,4561.66666621,2299.63636341,4165.5151511,4.1212121208,3871.87878749,3449.45454511,3882.18181779,65.9393939328,4262.36363594,4034.66666626,4457.09090865,3684.363636,4158.30302989,3090.9090906,4302.0303026,2654.0606058,4903.72727224,0,4208.78787837,0,4436.99999956,0,4170.66666625,1310.54545441,4821.30302982,0,4478.21212076,3737.93939357,42.0,42.0,?
2017-08-01 19:33:20.607203,4566.30302985,2299.63636341,4170.15151473,4.1212121208,3869.30302992,3449.45454511,3899.18181779,65.9393939328,4258.24242382,4034.66666626,4449.36363592,3684.363636,4149.54545413,3090.9090906,4302.0303026,2654.0606058,4912.99999951,2971.3939391,4206.21212079,0,4440.60606016,0,4171.18181776,1310.54545441,4823.36363588,0,4482.33333289,3737.93939357,42.0,42.0,?
2017-08-01 19:33:20.617348,4558.0606056,2299.63636341,4167.57575716,4.1212121208,3870.84848446,3449.45454511,3886.30302991,65.9393939328,4261.33333291,4034.66666626,4447.30302986,3684.363636,4148.5151511,3090.9090906,4306.66666624,2654.0606058,4910.93939345,2971.3939391,4205.69696928,37.0909090872,4436.48484804,0,4170.15151473,1310.54545441,4816.66666619,0,4474.09090864,3737.93939357,42.0,42.0,?
2017-08-01 19:33:20.622893,4562.69696924,2299.63636341,4169.63636322,4.1212121208,3877.54545416,3449.45454511,3849.72727234,65.9393939328,4268.0303026,4034.66666626,4449.87878743,3684.363636,4151.09090868,3090.9090906,4303.06060563,2654.0606058,4901.66666618,2971.3939391,4192.8181814,37.0909090872,4430.30302986,1772.12121194,4166.54545413,1310.54545441,4822.84848437,0,4470.48484804,3737.93939357,42.0,42.0,?
2017-08-01 19:33:20.630137,4567.84848439,2299.63636341,4168.60606019,4.1212121208,3882.69696931,3449.45454511,3857.45454507,65.9393939328,4271.63636321,4034.66666626,4450.90909046,3684.363636,4151.60606019,3090.9090906,4302.0303026,2654.0606058,4897.54545406,2971.3939391,4191.78787837,37.0909090872,4433.39393895,1772.12121194,4167.06060564,1302.30303017,4825.93939346,0,4474.09090864,3737.93939357,42.0,42.0,?
2017-08-01 19:33:20.640710,4560.63636318,2299.63636341,4164.99999958,4.1212121208,3883.72727234,3449.45454511,3897.63636325,65.9393939328,4271.12121169,4034.66666626,4448.33333289,3684.363636,4150.57575716,3090.9090906,4310.27272684,2654.0606058,4908.36363587,2971.3939391,4205.18181776,37.0909090872,4436.48484804,1772.12121194,4170.15151473,1302.30303017,4821.30302982,1710.30303013,4475.63636319,3737.93939357,42.0,42.0,?
2017-08-01 19:33:20.647387,4564.24242379,2299.63636341,4169.63636322,4.1212121208,3880.12121173,3449.45454511,3906.90909052,65.9393939328,4268.0303026,4034.66666626,4445.2424238,3684.363636,4144.90909049,3090.9090906,4305.63636321,2654.0606058,4915.57575708,2971.3939391,4202.60606019,37.0909090872,4434.42424198,1772.12121194,4168.09090867,1302.30303017,4824.90909043,1710.30303013,4476.1515147,3737.93939357,42.0,42.0,?
2017-08-01 19:33:20.655084,4561.66666621,2299.63636341,4165.5151511,4.1212121208,3879.60606022,3449.45454511,3881.15151476,65.9393939328,4266.99999957,4034.66666626,4447.30302986,3684.363636,4144.90909049,3090.9090906,4301.51515109,2654.0606058,4912.99999951,2971.3939391,4194.36363594,37.0909090872,4429.27272683,1767.99999982,4166.03030261,1302.30303017,4819.24242376,1710.30303013,4470.99999955,3737.93939357,42.0,42.0,?
2017-08-01 19:33:20.663863,4565.78787833,2299.63636341,4168.09090867,4.1212121208,3882.69696931,3449.45454511,3875.4848481,65.9393939328,4266.99999957,4034.66666626,4451.42424198,3684.363636,4155.2121208,3090.9090906,4311.30302987,2654.0606058,4913.51515102,2971.3939391,4199.5151511,37.0909090872,4433.90909047,1767.99999982,4171.18181776,1302.30303017,4823.36363588,1710.30303013,4477.18181773,3737.93939357,42.0,42.0,?
2017-08-01 19:33:20.669157,4567.84848439,2299.63636341,4171.69696928,4.1212121208,3882.69696931,3449.45454511,3893.51515113,65.9393939328,4269.57575715,4034.66666626,4453.48484804,3684.363636,4160.36363595,3090.9090906,4315.42424199,2654.0606058,4903.72727224,2971.3939391,4201.06060564,37.0909090872,4435.96969653,1767.99999982,4171.18181776,1302.30303017,4829.54545406,1710.30303013,4479.75757531,3737.93939357,42.0,42.0,?
2017-08-01 19:33:20.678129,4559.60606015,2299.63636341,4166.54545413,4.1212121208,3881.15151476,3449.45454511,3879.60606022,65.9393939328,4271.12121169,4034.66666626,4453.99999955,3684.363636,4162.93939352,3090.9090906,4312.3333329,2654.0606058,4894.45454497,2971.3939391,4196.93939352,37.0909090872,4432.87878744,1767.99999982,4168.60606019,1302.30303017,4821.81818134,1710.30303013,4472.5454541,3737.93939357,42.0,42.0,?
2017-08-01 19:33:20.685708,4567.84848439,2299.63636341,4167.57575716,4.1212121208,3880.12121173,3449.45454511,3853.33333295,65.9393939328,4268.54545412,4034.66666626,4453.99999955,3684.363636,4167.06060564,3090.9090906,4312.84848442,2654.0606058,4906.81818133,2971.3939391,4194.87878746,37.0909090872,4438.03030259,1767.99999982,4171.69696928,1302.30303017,4825.42424194,1710.30303013,4478.21212076,3737.93939357,42.0,42.0,?
2017-08-01 19:33:20.693185,4569.39393894,2299.63636341,4167.57575716,4.1212121208,3879.60606022,3449.45454511,3868.7878784,65.9393939328,4266.99999957,4034.66666626,4455.5454541,3684.363636,4166.54545413,3090.9090906,4315.42424199,2654.0606058,4925.87878739,2971.3939391,4190.24242382,37.0909090872,4436.48484804,1767.99999982,4168.60606019,1302.30303017,4828.51515103,1710.30303013,4477.69696925,3737.93939357,42.0,42.0,?
2017-08-01 19:33:20.701701,4566.30302985,2299.63636341,4168.60606019,4.1212121208,3881.15151476,3449.45454511,3883.21212082,65.9393939328,4264.93939351,4034.66666626,4455.5454541,3684.363636,4164.48484807,3090.9090906,4309.24242381,2654.0606058,4909.90909042,2971.3939391,4191.78787837,37.0909090872,4436.48484804,1767.99999982,4170.15151473,1302.30303017,4832.12121164,1710.30303013,4475.63636319,3737.93939357,42.0,42.0,?
2017-08-01 19:33:20.708123,4568.87878742,2299.63636341,4169.1212117,4.1212121208,3882.18181779,3449.45454511,3856.42424204,65.9393939328,4262.87878745,4034.66666626,4455.5454541,3684.363636,4162.93939352,3090.9090906,4305.63636321,2654.0606058,4882.0909086,2971.3939391,4206.21212079,37.0909090872,4443.18181774,1767.99999982,4177.36363595,1302.30303017,4833.15151467,1710.30303013,4483.87878743,3737.93939357,42.0,42.0,?
2017-08-01 19:33:20.716094,4565.78787833,2299.63636341,4166.03030261,4.1212121208,3878.57575719,3449.45454511,3863.63636325,65.9393939328,4263.39393897,4034.66666626,4458.63636319,3684.363636,4166.54545413,3090.9090906,4313.87878745,2654.0606058,4905.7878783,2971.3939391,4208.78787837,37.0909090872,4440.60606016,1767.99999982,4175.30302989,1302.30303017,4822.33333285,1710.30303013,4482.8484844,3737.93939357,42.0,42.0,?
2017-08-01 19:33:20.724538,4568.87878742,2299.63636341,4168.09090867,4.1212121208,3878.57575719,3449.45454511,3902.7878784,65.9393939328,4263.90909048,4034.66666626,4454.51515107,3684.363636,4167.57575716,3090.9090906,4315.42424199,2654.0606058,4940.30302981,2971.3939391,4193.33333291,37.0909090872,4434.9393935,1767.99999982,4169.1212117,1302.30303017,4823.36363588,1710.30303013,4477.69696925,3737.93939357,42.0,42.0,?
2017-08-01 19:33:20.732846,4564.24242379,2299.63636341,4166.54545413,4.1212121208,3884.75757537,3449.45454511,3889.90909052,65.9393939328,4264.93939351,4034.66666626,4445.75757531,3684.363636,4156.75757534,3090.9090906,4306.15151472,2654.0606058,4937.72727223,2971.3939391,4200.03030261,37.0909090872,4435.45454501,1767.99999982,4168.60606019,1302.30303017,4826.45454497,1710.30303013,4477.69696925,3737.93939357,42.0,42.0,?
2017-08-01 19:33:20.740577,4565.27272682,2299.63636341,4167.57575716,4.1212121208,3885.27272688,3449.45454511,3864.66666628,65.9393939328,4269.06060563,4034.66666626,4446.78787834,3684.363636,4154.69696928,3090.9090906,4306.66666624,2654.0606058,4914.03030254,2971.3939391,4214.96969655,37.0909090872,4441.12121168,1767.99999982,4171.18181776,1302.30303017,4829.54545406,1710.30303013,4482.8484844,3737.93939357,42.0,42.0,?
2017-08-01 19:33:20.748808,4569.39393894,2299.63636341,4167.06060564,4.1212121208,3878.06060567,3449.45454511,3880.12121173,65.9393939328,4272.66666624,4034.66666626,4452.96969652,3684.363636,4168.60606019,3090.9090906,4314.39393896,2654.0606058,4900.12121163,2971.3939391,4203.1212117,37.0909090872,4442.15151471,1767.99999982,4172.21212079,1302.30303017,4827.484848,1710.30303013,4481.30302985,3737.93939357,42.0,42.0,?
2017-08-01 19:33:20.755643,4560.12121167,2299.63636341,4160.36363595,4.1212121208,3878.06060567,3449.45454511,3896.60606022,65.9393939328,4274.7272723,4034.66666626,4455.03030258,3684.363636,4168.60606019,3090.9090906,4312.84848442,2654.0606058,4909.3939389,2971.3939391,4195.39393897,37.0909090872,4435.96969653,1767.99999982,4169.63636322,1302.30303017,4816.66666619,1710.30303013,4473.57575713,3737.93939357,42.0,42.0,?
2017-08-01 19:33:20.763154,4566.81818136,2299.63636341,4167.57575716,4.1212121208,3886.81818143,3449.45454511,3878.06060567,65.9393939328,4272.66666624,4034.66666626,4452.45454501,3684.363636,4153.66666625,3090.9090906,4311.81818139,2654.0606058,4931.54545405,2971.3939391,4209.8181814,37.0909090872,4439.06060562,1767.99999982,4168.60606019,1302.30303017,4825.42424194,1710.30303013,4482.33333289,3737.93939357,42.0,42.0,?
2017-08-01 19:33:20.771748,4568.36363591,2299.63636341,4168.60606019,4.1212121208,3891.45454507,3449.45454511,3870.33333295,65.9393939328,4271.12121169,4034.66666626,4454.51515107,3684.363636,4163.45454504,3090.9090906,4320.57575714,2654.0606058,4943.3939389,2971.3939391,4215.99999958,37.0909090872,4444.21212077,1767.99999982,4172.21212079,1302.30303017,4828.51515103,1710.30303013,4484.90909046,3737.93939357,42.0,42.0,?
2017-08-01 19:33:20.779073,4564.24242379,2299.63636341,4167.06060564,4.1212121208,3887.33333294,3449.45454511,3894.03030264,65.9393939328,4268.0303026,4034.66666626,4458.63636319,3684.363636,4177.36363595,3090.9090906,4321.60606017,2654.0606058,4927.42424193,2971.3939391,4202.09090867,37.0909090872,4442.66666622,1767.99999982,4174.27272686,1302.30303017,4822.33333285,1710.30303013,4479.24242379,3737.93939357,42.0,42.0,?
2017-08-01 19:33:20.788976,4566.81818136,2299.63636341,4172.21212079,4.1212121208,3881.66666628,3449.45454511,3891.96969658,65.9393939328,4261.84848442,4034.66666626,4457.60606016,3684.363636,4167.57575716,3090.9090906,4310.78787836,2654.0606058,4908.87878739,2971.3939391,4185.09090867,37.0909090872,4436.99999956,1767.99999982,4171.18181776,1302.30303017,4822.84848437,1710.30303013,4480.78787834,3737.93939357,42.0,42.0,?
2017-08-01 19:33:20.795104,4558.57575712,2299.63636341,4167.06060564,4.1212121208,3879.60606022,3449.45454511,3870.33333295,65.9393939328,4263.90909048,4034.66666626,4457.09090865,3684.363636,4164.99999958,3090.9090906,4307.69696927,2654.0606058,4910.42424193,2971.3939391,4181.48484807,37.0909090872,4430.81818138,1767.99999982,4167.57575716,1302.30303017,4817.69696922,1710.30303013,4477.18181773,3737.93939357,42.0,42.0,?
2017-08-01 19:33:20.803620,4565.27272682,2299.63636341,4168.09090867,4.1212121208,3878.57575719,3449.45454511,3861.57575719,65.9393939328,4268.0303026,4034.66666626,4462.75757531,3684.363636,4170.66666625,3090.9090906,4309.24242381,2654.0606058,4913.51515102,2971.3939391,4184.57575716,37.0909090872,4434.42424198,1767.99999982,4167.57575716,1302.30303017,4822.84848437,1710.30303013,4478.21212076,3737.93939357,42.0,42.0,?
2017-08-01 19:33:20.811059,4566.81818136,2299.63636341,4169.1212117,4.1212121208,3878.06060567,3449.45454511,3840.96969659,65.9393939328,4267.51515109,4034.66666626,4465.8484844,3684.363636,4171.18181776,3090.9090906,4309.75757533,2654.0606058,4907.84848436,2971.3939391,4189.72727231,37.0909090872,4438.03030259,1767.99999982,4168.60606019,1302.30303017,4821.30302982,1710.30303013,4478.72727228,3737.93939357,42.0,42.0,?
2017-08-01 19:33:20.819915,4560.12121167,2299.63636341,4168.09090867,4.1212121208,3875.99999961,3449.45454511,3855.90909052,65.9393939328,4266.48484806,4034.66666626,4461.21212077,3684.363636,4168.60606019,3090.9090906,4312.3333329,2654.0606058,4906.30302981,2971.3939391,4190.24242382,37.0909090872,4434.9393935,1767.99999982,4167.06060564,1302.30303017,4817.1818177,1710.30303013,4478.21212076,3737.93939357,42.0,42.0,?
2017-08-01 19:33:20.826117,4567.33333288,2299.63636341,4171.18181776,4.1212121208,3875.99999961,3449.45454511,3897.63636325,65.9393939328,4262.36363594,4034.66666626,4455.5454541,3684.363636,4159.84848443,3090.9090906,4306.15151472,2654.0606058,4911.96969648,2971.3939391,4185.09090867,37.0909090872,4432.87878744,1767.99999982,4166.54545413,1302.30303017,4825.93939346,1710.30303013,4482.8484844,3737.93939357,42.0,42.0,?
2017-08-01 19:33:20.840390,4564.24242379,2299.63636341,4168.09090867,4.1212121208,3889.90909052,3449.45454511,3873.93939355,65.9393939328,4259.78787836,4034.66666626,4451.93939349,3684.363636,4158.30302989,3090.9090906,4308.21212078,2654.0606058,4922.27272678,2971.3939391,4200.03030261,37.0909090872,4435.96969653,1767.99999982,4171.69696928,1302.30303017,4823.36363588,1710.30303013,4482.33333289,3737.93939357,42.0,42.0,?
2017-08-01 19:33:20.845316,4566.30302985,2299.63636341,4169.1212117,4.1212121208,3897.63636325,3449.45454511,3854.36363598,65.9393939328,4262.87878745,4034.66666626,4451.93939349,3684.363636,4167.06060564,3090.9090906,4322.12121169,2654.0606058,4934.12121163,2971.3939391,4220.63636321,37.0909090872,4445.2424238,1767.99999982,4175.30302989,1302.30303017,4827.484848,1710.30303013,4484.39393895,3737.93939357,42.0,42.0,?
2017-08-01 19:33:20.849597,4566.30302985,2299.63636341,4169.1212117,4.1212121208,3883.21212082,3449.45454511,3909.99999961,65.9393939328,4265.45454503,4034.66666626,4451.93939349,3684.363636,4164.99999958,3090.9090906,4323.15151472,2654.0606058,4938.24242375,2971.3939391,4208.78787837,37.0909090872,4436.48484804,1767.99999982,4170.15151473,1302.30303017,4827.484848,1710.30303013,4478.21212076,3737.93939357,42.0,42.0,?
2017-08-01 19:33:20.857092,4557.54545409,2299.63636341,4166.54545413,4.1212121208,3869.81818143,3449.45454511,3921.33333294,65.9393939328,4263.90909048,4034.66666626,4448.33333289,3684.363636,4156.75757534,3090.9090906,4311.81818139,2654.0606058,4932.06060557,2971.3939391,4185.60606019,37.0909090872,4415.36363592,1767.99999982,4164.48484807,1302.30303017,4816.66666619,1710.30303013,4468.42424198,3737.93939357,42.0,42.0,?
2017-08-01 19:33:20.866949,4565.78787833,2299.63636341,4170.15151473,4.1212121208,3876.51515113,3449.45454511,3875.4848481,65.9393939328,4264.424242,4034.66666626,4446.78787834,3684.363636,4160.36363595,3090.9090906,4308.21212078,2654.0606058,4931.03030254,2971.3939391,4186.1212117,37.0909090872,4423.60606016,1767.99999982,4168.09090867,1302.30303017,4824.90909043,1710.30303013,4475.63636319,3737.93939357,42.0,42.0,?
2017-08-01 19:33:20.873709,4565.27272682,2299.63636341,4166.54545413,4.1212121208,3889.90909052,3449.45454511,3858.99999961,65.9393939328,4268.0303026,4034.66666626,4450.39393895,3684.363636,4174.27272686,3090.9090906,4316.45454502,2654.0606058,4927.42424193,2971.3939391,4202.60606019,37.0909090872,4440.60606016,1767.99999982,4171.18181776,1302.30303017,4828.51515103,1710.30303013,4479.75757531,3737.93939357,42.0,42.0,?
2017-08-01 19:33:20.881165,4565.78787833,2299.63636341,4167.06060564,4.1212121208,3889.393939,3449.45454511,3862.60606022,65.9393939328,4269.06060563,4034.66666626,4454.51515107,3684.363636,4175.30302989,3090.9090906,4316.45454502,2654.0606058,4906.30302981,2971.3939391,4203.63636322,37.0909090872,4440.09090865,1767.99999982,4170.15151473,1302.30303017,4827.484848,1710.30303013,4483.36363592,3737.93939357,42.0,42.0,?
2017-08-01 19:33:20.888662,4568.36363591,2299.63636341,4167.57575716,4.1212121208,3879.60606022,3449.45454511,3896.0909087,65.9393939328,4270.09090866,4034.66666626,4454.51515107,3684.363636,4157.78787837,3090.9090906,4304.09090866,2654.0606058,4895.484848,2971.3939391,4189.72727231,37.0909090872,4431.33333289,1767.99999982,4166.54545413,1302.30303017,4826.45454497,1710.30303013,4482.8484844,3737.93939357,42.0,42.0,?
2017-08-01 19:33:20.896149,4558.57575712,2299.63636341,4164.48484807,4.1212121208,3878.57575719,3449.45454511,3918.24242385,65.9393939328,4271.63636321,4034.66666626,4456.57575713,3684.363636,4151.60606019,3090.9090906,4300.48484805,2654.0606058,4910.93939345,2971.3939391,4180.96969655,37.0909090872,4428.2424238,1767.99999982,4164.48484807,1302.30303017,4820.78787831,1710.30303013,4474.60606016,3737.93939357,42.0,42.0,?
2017-08-01 19:33:20.905970,4565.78787833,2299.63636341,4169.1212117,4.1212121208,3883.72727234,3449.45454511,3864.66666628,65.9393939328,4269.57575715,4034.66666626,4461.21212077,3684.363636,4163.45454504,3090.9090906,4310.27272684,2654.0606058,4919.6969692,2971.3939391,4185.60606019,37.0909090872,4434.42424198,1767.99999982,4166.03030261,1302.30303017,4829.03030255,1710.30303013,4480.27272682,3737.93939357,42.0,42.0,?
2017-08-01 19:33:20.915470,4567.33333288,2299.63636341,4166.03030261,4.1212121208,3882.69696931,3449.45454511,3846.63636325,65.9393939328,4266.48484806,4034.66666626,4464.81818137,3684.363636,4169.1212117,3090.9090906,4313.36363593,2654.0606058,4915.57575708,2971.3939391,4191.27272685,37.0909090872,4434.42424198,1767.99999982,4164.99999958,1302.30303017,4828.51515103,1710.30303013,4480.27272682,3737.93939357,42.0,42.0,?
2017-08-01 19:33:20.921104,4561.1515147,2299.63636341,4161.90909049,4.1212121208,3880.12121173,3449.45454511,3895.57575719,65.9393939328,4267.51515109,4034.66666626,4466.87878743,3684.363636,4166.03030261,3090.9090906,4305.63636321,2654.0606058,4915.57575708,2971.3939391,4183.03030261,37.0909090872,4430.81818138,1767.99999982,4163.96969655,1302.30303017,4825.42424194,1710.30303013,4473.06060561,3737.93939357,42.0,42.0,?
2017-08-01 19:33:20.927815,4560.12121167,2299.63636341,4164.99999958,4.1212121208,3878.57575719,3449.45454511,3907.93939355,65.9393939328,4268.54545412,4034.66666626,4462.75757531,3684.363636,4166.03030261,3090.9090906,4302.0303026,2654.0606058,4908.87878739,2971.3939391,4174.78787837,37.0909090872,4433.39393895,1767.99999982,4168.09090867,1302.30303017,4829.54545406,1710.30303013,4475.63636319,3737.93939357,42.0,42.0,?
2017-08-01 19:33:20.935198,4554.96969651,2299.63636341,4166.03030261,4.1212121208,3880.63636325,3449.45454511,3892.99999961,65.9393939328,4271.63636321,4034.66666626,4459.66666622,3684.363636,4168.60606019,3090.9090906,4307.18181775,2654.0606058,4903.21212072,2971.3939391,4187.66666625,37.0909090872,4436.48484804,1767.99999982,4171.69696928,1302.30303017,4823.36363588,1710.30303013,4477.69696925,3737.93939357,42.0,42.0,?
2017-08-01 19:33:20.943470,4567.33333288,2299.63636341,4172.21212079,4.1212121208,3890.93939355,3449.45454511,3878.06060567,65.9393939328,4271.12121169,4034.66666626,4460.18181774,3684.363636,4167.06060564,3090.9090906,4310.27272684,2654.0606058,4918.66666617,2971.3939391,4207.75757534,37.0909090872,4443.18181774,1767.99999982,4174.27272686,1302.30303017,4824.90909043,1710.30303013,4483.87878743,3737.93939357,42.0,42.0,?
2017-08-01 19:33:20.954767,4569.39393894,2299.63636341,4170.15151473,4.1212121208,3899.69696931,3449.45454511,3859.51515113,65.9393939328,4270.09090866,4034.66666626,4459.15151471,3684.363636,4170.15151473,3090.9090906,4315.93939351,2654.0606058,4934.12121163,2971.3939391,4214.45454503,37.0909090872,4443.18181774,1767.99999982,4175.30302989,1302.30303017,4826.45454497,1710.30303013,4482.33333289,3737.93939357,42.0,42.0,?
2017-08-01 19:33:20.960124,4562.18181773,2299.63636341,4165.5151511,4.1212121208,3897.12121173,3449.45454511,3881.15151476,65.9393939328,4274.21212078,4034.66666626,4462.75757531,3684.363636,4177.36363595,3090.9090906,4322.6363632,2654.0606058,4925.36363587,2971.3939391,4214.96969655,37.0909090872,4438.03030259,1767.99999982,4175.30302989,1302.30303017,4824.90909043,1710.30303013,4477.18181773,3737.93939357,42.0,42.0,?
2017-08-01 19:33:20.968263,4565.27272682,2299.63636341,4168.60606019,4.1212121208,3888.87878749,3449.45454511,3916.69696931,65.9393939328,4272.66666624,4034.66666626,4466.36363592,3684.363636,4175.8181814,3090.9090906,4321.60606017,2654.0606058,4925.87878739,2971.3939391,4215.48484806,37.0909090872,4439.57575713,1767.99999982,4173.75757534,1302.30303017,4824.90909043,1710.30303013,4480.78787834,3737.93939357,42.0,42.0,?
2017-08-01 19:33:20.974163,4559.09090864,2299.63636341,4167.57575716,4.1212121208,3884.75757537,3449.45454511,3897.63636325,65.9393939328,4271.12121169,4034.66666626,4469.96969652,3684.363636,4177.87878746,3090.9090906,4327.78787836,2654.0606058,4956.78787829,2971.3939391,4220.63636321,37.0909090872,4440.09090865,1767.99999982,4168.60606019,1302.30303017,4820.27272679,1710.30303013,4478.72727228,3737.93939357,42.0,42.0,?
2017-08-01 19:33:20.982225,4564.7575753,2299.63636341,4171.69696928,4.1212121208,3879.60606022,3449.45454511,3874.45454507,65.9393939328,4272.66666624,4034.66666626,4476.1515147,3684.363636,4181.48484807,3090.9090906,4334.99999957,2654.0606058,4967.60606011,2971.3939391,4219.09090867,37.0909090872,4434.42424198,1767.99999982,4166.03030261,1302.30303017,4826.45454497,1710.30303013,4476.66666622,3737.93939357,42.0,42.0,?
2017-08-01 19:33:20.992253,4563.72727227,2299.63636341,4169.63636322,4.1212121208,3870.33333295,3449.45454511,3887.84848446,65.9393939328,4273.18181775,4034.66666626,4480.27272682,3684.363636,4177.36363595,3090.9090906,4323.15151472,2654.0606058,4946.99999951,2971.3939391,4206.72727231,37.0909090872,4425.15151471,1767.99999982,4166.03030261,1302.30303017,4824.39393891,1710.30303013,4471.51515107,3737.93939357,42.0,42.0,?
2017-08-01 19:33:20.998992,4555.99999954,2299.63636341,4165.5151511,4.1212121208,3867.24242386,3449.45454511,3881.15151476,65.9393939328,4270.09090866,4034.66666626,4474.09090864,3684.363636,4174.78787837,3090.9090906,4310.78787836,2654.0606058,4930.51515102,2971.3939391,4201.06060564,37.0909090872,4424.63636319,1767.99999982,4166.54545413,1302.30303017,4819.24242376,1710.30303013,4471.51515107,3737.93939357,42.0,42.0,?
2017-08-01 19:33:21.008558,4563.72727227,2299.63636341,4170.66666625,4.1212121208,3867.75757537,3449.45454511,3853.84848446,65.9393939328,4264.424242,4034.66666626,4463.78787834,3684.363636,4172.72727231,3090.9090906,4313.36363593,2654.0606058,4920.21212072,2971.3939391,4198.48484806,37.0909090872,4430.81818138,1767.99999982,4167.06060564,1302.30303017,4826.96969649,1710.30303013,4480.27272682,3737.93939357,42.0,42.0,?
2017-08-01 19:33:21.013356,4559.09090864,2299.63636341,4168.09090867,4.1212121208,3865.69696931,3449.45454511,3864.66666628,65.9393939328,4264.424242,4034.66666626,4461.21212077,3684.363636,4168.09090867,3090.9090906,4313.87878745,2654.0606058,4916.0909086,2971.3939391,4185.09090867,37.0909090872,4425.66666622,1767.99999982,4163.96969655,1302.30303017,4820.27272679,1710.30303013,4475.12121167,3737.93939357,42.0,42.0,?
2017-08-01 19:33:21.021064,4559.60606015,2299.63636341,4168.60606019,4.1212121208,3867.24242386,3449.45454511,3893.51515113,65.9393939328,4269.06060563,4034.66666626,4466.36363592,3684.363636,4170.15151473,3090.9090906,4307.69696927,2654.0606058,4920.21212072,2971.3939391,4177.36363595,37.0909090872,4422.06060562,1767.99999982,4166.03030261,1302.30303017,4822.84848437,1710.30303013,4471.51515107,3737.93939357,42.0,42.0,?
2017-08-01 19:33:21.030475,4564.7575753,2299.63636341,4170.66666625,4.1212121208,3871.36363598,3449.45454511,3899.69696931,65.9393939328,4269.57575715,4034.66666626,4465.8484844,3684.363636,4173.24242383,3090.9090906,4308.7272723,2654.0606058,4914.03030254,2971.3939391,4187.66666625,37.0909090872,4427.72727228,1767.99999982,4169.1212117,1302.30303017,4827.99999952,1710.30303013,4473.06060561,3737.93939357,42.0,42.0,?
2017-08-01 19:33:21.038102,4557.03030257,2283.15151492,4169.1212117,4.1212121208,3874.45454507,3449.45454511,3904.33333294,65.9393939328,4265.45454503,4034.66666626,4462.2424238,3684.363636,4162.93939352,3090.9090906,4309.24242381,2654.0606058,4904.24242375,2971.3939391,4196.93939352,37.0909090872,4428.75757531,1767.99999982,4167.06060564,1302.30303017,4821.30302982,1710.30303013,4470.99999955,3737.93939357,42.0,42.0,?
2017-08-01 19:33:21.045912,4561.1515147,2283.15151492,4168.09090867,4.1212121208,3877.54545416,3449.45454511,3891.45454507,65.9393939328,4261.84848442,4034.66666626,4463.78787834,3684.363636,4151.60606019,3090.9090906,4300.48484805,2654.0606058,4907.84848436,2971.3939391,4188.69696928,37.0909090872,4431.33333289,1767.99999982,4164.99999958,1302.30303017,4825.42424194,1710.30303013,4475.12121167,3737.93939357,42.0,42.0,?
2017-08-01 19:33:21.054528,4562.69696924,2283.15151492,4161.39393898,4.1212121208,3881.66666628,3449.45454511,3845.09090871,65.9393939328,4264.93939351,4034.66666626,4469.96969652,3684.363636,4161.90909049,3090.9090906,4305.12121169,2654.0606058,4929.48484799,2971.3939391,4190.75757534,37.0909090872,4432.87878744,1767.99999982,4168.09090867,1302.30303017,4825.42424194,1710.30303013,4478.21212076,3746.18181781,42.0,42.0,?
2017-08-01 19:33:21.060188,4565.27272682,2283.15151492,4165.5151511,4.1212121208,3881.15151476,3449.45454511,3851.7878784,65.9393939328,4267.51515109,4034.66666626,4472.03030258,3684.363636,4173.75757534,3090.9090906,4319.0303026,2654.0606058,4946.48484799,2971.3939391,4206.72727231,37.0909090872,4433.90909047,1767.99999982,4168.60606019,1302.30303017,4826.45454497,1710.30303013,4480.78787834,3746.18181781,42.0,42.0,?
2017-08-01 19:33:21.070028,4564.7575753,2283.15151492,4171.69696928,4.1212121208,3878.57575719,3449.45454511,3914.63636324,168.969696953,4265.45454503,4034.66666626,4467.90909046,3684.363636,4167.57575716,3090.9090906,4313.87878745,2654.0606058,4936.18181769,2971.3939391,4210.84848443,37.0909090872,4435.45454501,1767.99999982,4166.54545413,1302.30303017,4830.06060558,1710.30303013,4479.24242379,3746.18181781,42.0,42.0,?
2017-08-01 19:33:21.076731,4557.03030257,2283.15151492,4164.99999958,4.1212121208,3878.57575719,3449.45454511,3906.90909052,168.969696953,4265.45454503,4030.54545414,4466.36363592,3684.363636,4162.42424201,3090.9090906,4303.57575715,2654.0606058,4922.27272678,2971.3939391,4202.09090867,37.0909090872,4432.87878744,1767.99999982,4167.06060564,1302.30303017,4823.36363588,1710.30303013,4473.57575713,3746.18181781,42.0,42.0,?
2017-08-01 19:33:21.084132,4565.78787833,2283.15151492,4169.1212117,4.1212121208,3876.51515113,3449.45454511,3849.72727234,168.969696953,4266.99999957,4030.54545414,4464.81818137,3688.48484812,4168.60606019,3090.9090906,4308.21212078,2654.0606058,4922.7878783,2971.3939391,4192.30302988,37.0909090872,4432.87878744,1767.99999982,4166.54545413,1302.30303017,4825.93939346,1710.30303013,4476.1515147,3746.18181781,42.0,42.0,?
2017-08-01 19:33:21.093798,4565.78787833,2283.15151492,4172.21212079,4.1212121208,3872.90909052,3449.45454511,3857.96969658,168.969696953,4267.51515109,4030.54545414,4465.8484844,3688.48484812,4176.84848443,3086.78787848,4317.48484805,2654.0606058,4922.7878783,2971.3939391,4192.30302988,37.0909090872,4430.30302986,1767.99999982,4167.06060564,1302.30303017,4827.484848,1710.30303013,4474.60606016,3746.18181781,42.0,42.0,?
2017-08-01 19:33:21.099860,4560.63636318,2283.15151492,4169.1212117,4.1212121208,3868.27272689,3449.45454511,3885.7878784,168.969696953,4266.99999957,4030.54545414,4469.96969652,3688.48484812,4174.78787837,3086.78787848,4314.90909048,2658.18181792,4906.81818133,2971.3939391,4191.78787837,37.0909090872,4427.21212077,1767.99999982,4168.60606019,1302.30303017,4825.42424194,1710.30303013,4472.03030258,3746.18181781,42.0,42.0,?
2017-08-01 19:33:21.107091,4562.18181773,2283.15151492,4166.54545413,4.1212121208,3862.60606022,3449.45454511,3875.99999961,168.969696953,4265.96969654,4030.54545414,4467.90909046,3688.48484812,4167.06060564,3086.78787848,4299.96969654,2658.18181792,4890.33333284,2971.3939391,4176.84848443,37.0909090872,4425.15151471,1767.99999982,4164.99999958,1302.30303017,4823.36363588,1710.30303013,4473.06060561,3746.18181781,42.0,42.0,?
2017-08-01 19:33:21.115877,4555.99999954,2283.15151492,4162.93939352,4.1212121208,3866.21212083,3449.45454511,3887.84848446,168.969696953,4267.51515109,4030.54545414,4465.33333289,3688.48484812,4168.09090867,3086.78787848,4296.36363593,2658.18181792,4903.21212072,2971.3939391,4172.21212079,32.9696969664,4423.09090865,1767.99999982,4161.90909049,1302.30303017,4818.21212073,1710.30303013,4470.99999955,3746.18181781,42.0,42.0,?
2017-08-01 19:33:21.123077,4561.1515147,2283.15151492,4167.06060564,4.1212121208,3870.84848446,3449.45454511,3918.24242385,168.969696953,4268.0303026,4030.54545414,4464.30302986,3688.48484812,4168.09090867,3086.78787848,4302.0303026,2658.18181792,4933.0909086,2971.3939391,4185.09090867,32.9696969664,4428.2424238,1805.09090891,4167.06060564,1302.30303017,4825.42424194,1710.30303013,4475.12121167,3746.18181781,42.0,42.0,?
2017-08-01 19:33:21.132385,4560.63636318,2283.15151492,4163.96969655,4.1212121208,3869.81818143,3449.45454511,3892.4848481,168.969696953,4265.96969654,4030.54545414,4461.21212077,3688.48484812,4155.72727231,3086.78787848,4302.54545412,2658.18181792,4938.75757526,2971.3939391,4194.36363594,32.9696969664,4430.81818138,1805.09090891,4168.60606019,1302.30303017,4826.45454497,1710.30303013,4473.57575713,3746.18181781,42.0,42.0,?
2017-08-01 19:33:21.140039,4555.48484803,2283.15151492,4164.99999958,4.1212121208,3873.93939355,3449.45454511,3849.72727234,168.969696953,4263.39393897,4030.54545414,4456.57575713,3688.48484812,4150.06060565,3086.78787848,4298.42424199,2658.18181792,4907.84848436,2971.3939391,4188.69696928,32.9696969664,4428.2424238,1805.09090891,4166.03030261,1302.30303017,4823.36363588,1726.78787862,4473.06060561,3746.18181781,42.0,42.0,?
2017-08-01 19:33:21.146663,4562.18181773,2283.15151492,4173.24242383,4.1212121208,3876.51515113,3449.45454511,3861.06060567,168.969696953,4260.30302988,4030.54545414,4453.48484804,3688.48484812,4154.69696928,3086.78787848,4296.36363593,2658.18181792,4891.87878739,2971.3939391,4185.09090867,37.0909090872,4428.2424238,1805.09090891,4168.09090867,1302.30303017,4827.484848,1726.78787862,4481.30302985,3746.18181781,42.0,42.0,?
2017-08-01 19:33:21.154074,4557.54545409,2283.15151492,4168.09090867,4.1212121208,3870.33333295,3449.45454511,3883.21212082,168.969696953,4259.78787836,4030.54545414,4453.48484804,3688.48484812,4158.30302989,3086.78787848,4298.93939351,2658.18181792,4919.18181769,2971.3939391,4189.72727231,37.0909090872,4427.21212077,1800.96969679,4167.57575716,1302.30303017,4821.81818134,1726.78787862,4475.63636319,3746.18181781,42.0,42.0,?
2017-08-01 19:33:21.162824,4561.66666621,2283.15151492,4166.54545413,4.1212121208,3868.7878784,3449.45454511,3877.54545416,168.969696953,4260.81818139,4030.54545414,4458.63636319,3688.48484812,4161.39393898,3086.78787848,4299.96969654,2658.18181792,4934.63636314,2971.3939391,4191.27272685,37.0909090872,4429.27272683,1800.96969679,4166.03030261,1314.66666654,4826.45454497,1726.78787862,4473.06060561,3746.18181781,42.0,42.0,?
2017-08-01 19:33:21.171061,4566.30302985,2283.15151492,4168.09090867,4.1212121208,3878.06060567,3449.45454511,3869.30302992,168.969696953,4263.39393897,4030.54545414,4463.78787834,3688.48484812,4169.1212117,3086.78787848,4305.63636321,2658.18181792,4923.30302981,2971.3939391,4192.8181814,37.0909090872,4433.90909047,1800.96969679,4168.09090867,1314.66666654,4830.06060558,1726.78787862,4478.72727228,3746.18181781,42.0,42.0,?
2017-08-01 19:33:21.182004,4562.69696924,2283.15151492,4167.57575716,4.1212121208,3879.0909087,3449.45454511,3881.66666628,168.969696953,4266.99999957,4030.54545414,4466.36363592,3688.48484812,4174.27272686,3086.78787848,4314.39393896,2658.18181792,4927.93939345,2971.3939391,4193.84848443,37.0909090872,4435.96969653,1800.96969679,4168.60606019,1314.66666654,4825.42424194,1726.78787862,4479.75757531,3746.18181781,42.0,42.0,?
2017-08-01 19:33:21.185477,4566.30302985,2283.15151492,4169.63636322,4.1212121208,3867.75757537,3449.45454511,3902.27272688,168.969696953,4270.09090866,4030.54545414,4470.48484804,3688.48484812,4170.15151473,3086.78787848,4313.36363593,2658.18181792,4921.75757527,2971.3939391,4193.33333291,37.0909090872,4436.99999956,1800.96969679,4166.54545413,1314.66666654,4826.96969649,1726.78787862,4478.21212076,3746.18181781,42.0,42.0,?
2017-08-01 19:33:21.193147,4560.63636318,2283.15151492,4167.06060564,4.1212121208,3867.75757537,3449.45454511,3888.87878749,168.969696953,4269.06060563,4030.54545414,4470.99999955,3688.48484812,4166.03030261,3086.78787848,4309.75757533,2658.18181792,4901.66666618,2971.3939391,4200.54545413,37.0909090872,4433.39393895,1800.96969679,4167.06060564,1314.66666654,4825.42424194,1726.78787862,4476.66666622,3746.18181781,42.0,42.0,?
2017-08-01 19:33:21.203219,4562.69696924,2283.15151492,4169.1212117,4.1212121208,3875.99999961,3449.45454511,3874.45454507,168.969696953,4264.424242,4030.54545414,4461.21212077,3688.48484812,4167.57575716,3086.78787848,4311.30302987,2658.18181792,4922.27272678,2971.3939391,4201.06060564,37.0909090872,4433.90909047,1800.96969679,4169.1212117,1314.66666654,4830.06060558,1726.78787862,4481.30302985,3746.18181781,42.0,42.0,?
2017-08-01 19:33:21.209532,4564.24242379,2283.15151492,4169.1212117,4.1212121208,3873.42424204,3449.45454511,3889.90909052,168.969696953,4261.84848442,4030.54545414,4453.48484804,3688.48484812,4164.48484807,3086.78787848,4307.18181775,2658.18181792,4944.93939344,2971.3939391,4189.21212079,37.0909090872,4430.81818138,1800.96969679,4168.09090867,1314.66666654,4823.8787874,1726.78787862,4477.69696925,3746.18181781,42.0,42.0,?
2017-08-01 19:33:21.217069,4557.54545409,2283.15151492,4167.57575716,4.1212121208,3869.81818143,3449.45454511,3878.06060567,168.969696953,4266.99999957,4030.54545414,4452.96969652,3688.48484812,4154.69696928,3086.78787848,4298.42424199,2658.18181792,4925.36363587,2971.3939391,4189.72727231,37.0909090872,4426.69696925,1800.96969679,4167.57575716,1314.66666654,4814.09090861,1726.78787862,4472.03030258,3746.18181781,42.0,42.0,?
2017-08-01 19:33:21.227328,4563.72727227,2283.15151492,4170.66666625,4.1212121208,3873.42424204,3449.45454511,3864.15151477,168.969696953,4269.57575715,4030.54545414,4454.51515107,3688.48484812,4146.96969656,3086.78787848,4295.84848442,2658.18181792,4909.90909042,2971.3939391,4194.36363594,37.0909090872,4434.9393935,1800.96969679,4166.54545413,1314.66666654,4825.42424194,1726.78787862,4478.72727228,3746.18181781,42.0,42.0,?
2017-08-01 19:33:21.232842,4561.66666621,2283.15151492,4168.09090867,4.1212121208,3878.57575719,3449.45454511,3889.90909052,168.969696953,4264.93939351,4030.54545414,4455.03030258,3688.48484812,4156.24242383,3086.78787848,4300.48484805,2658.18181792,4909.90909042,2971.3939391,4186.63636322,37.0909090872,4430.81818138,1800.96969679,4164.48484807,1314.66666654,4825.42424194,1726.78787862,4475.12121167,3746.18181781,42.0,42.0,?
2017-08-01 19:33:21.240060,4562.18181773,2283.15151492,4170.66666625,4.1212121208,3874.45454507,3449.45454511,3896.60606022,168.969696953,4260.81818139,4030.54545414,4453.48484804,3688.48484812,4163.45454504,3086.78787848,4298.42424199,2658.18181792,4901.66666618,2971.3939391,4181.48484807,37.0909090872,4419.48484804,1800.96969679,4165.5151511,1314.66666654,4823.8787874,1726.78787862,4473.06060561,3746.18181781,42.0,42.0,?
2017-08-01 19:33:21.250143,4564.24242379,2283.15151492,4173.75757534,4.1212121208,3861.57575719,3449.45454511,3878.57575719,168.969696953,4262.87878745,4030.54545414,4452.96969652,3688.48484812,4151.60606019,3086.78787848,4295.84848442,2658.18181792,4904.24242375,2971.3939391,4182.5151511,37.0909090872,4421.5454541,1800.96969679,4166.54545413,1314.66666654,4826.96969649,1726.78787862,4476.66666622,3746.18181781,42.0,42.0,?
2017-08-01 19:33:21.256581,4557.54545409,2283.15151492,4168.09090867,4.1212121208,3853.84848446,3449.45454511,3873.42424204,168.969696953,4267.51515109,4030.54545414,4457.09090865,3688.48484812,4149.03030262,3086.78787848,4303.06060563,2658.18181792,4920.21212072,2971.3939391,4178.39393898,37.0909090872,4421.5454541,1800.96969679,4169.1212117,1314.66666654,4819.75757528,1726.78787862,4468.42424198,3746.18181781,42.0,42.0,?
2017-08-01 19:33:21.264100,4565.78787833,2283.15151492,4168.60606019,4.1212121208,3855.90909052,3449.45454511,3878.57575719,168.969696953,4267.51515109,4030.54545414,4462.2424238,3688.48484812,4158.8181814,3086.78787848,4306.15151472,2658.18181792,4916.60606011,2971.3939391,4172.21212079,37.0909090872,4418.45454501,1800.96969679,4171.69696928,1314.66666654,4822.84848437,1726.78787862,4467.39393895,3746.18181781,42.0,42.0,?
2017-08-01 19:33:21.273968,4563.72727227,2283.15151492,4168.60606019,4.1212121208,3856.93939355,3449.45454511,3895.57575719,168.969696953,4263.90909048,4030.54545414,4460.69696925,3688.48484812,4156.75757534,3086.78787848,4298.42424199,2658.18181792,4912.99999951,2971.3939391,4171.18181776,37.0909090872,4416.39393895,1800.96969679,4167.57575716,1314.66666654,4825.42424194,1726.78787862,4470.48484804,3746.18181781,42.0,42.0,?
2017-08-01 19:33:21.279397,4558.0606056,2283.15151492,4169.63636322,4.1212121208,3853.33333295,3449.45454511,3899.18181779,168.969696953,4260.81818139,4030.54545414,4457.09090865,3688.48484812,4149.54545413,3086.78787848,4293.78787836,2658.18181792,4920.72727224,2971.3939391,4170.15151473,37.0909090872,4416.90909047,1800.96969679,4165.5151511,1314.66666654,4826.45454497,1726.78787862,4467.90909046,3746.18181781,42.0,42.0,?
2017-08-01 19:33:21.287061,4564.24242379,2283.15151492,4169.1212117,4.1212121208,3857.96969658,3449.45454511,3845.60606022,168.969696953,4260.30302988,4030.54545414,4452.96969652,3688.48484812,4151.09090868,3086.78787848,4299.45454502,2658.18181792,4924.84848436,2971.3939391,4169.1212117,37.0909090872,4419.99999956,1800.96969679,4169.63636322,1314.66666654,4828.51515103,1726.78787862,4469.45454501,3746.18181781,42.0,42.0,?
2017-08-01 19:33:21.298574,4560.12121167,2283.15151492,4163.96969655,4.1212121208,3866.21212083,3449.45454511,3841.4848481,168.969696953,4261.84848442,4030.54545414,4451.42424198,3688.48484812,4154.69696928,3086.78787848,4306.15151472,2658.18181792,4929.99999951,2971.3939391,4179.93939352,37.0909090872,4421.5454541,1800.96969679,4170.66666625,1314.66666654,4821.30302982,1726.78787862,4471.51515107,3746.18181781,42.0,42.0,?
2017-08-01 19:33:21.303926,4564.7575753,2283.15151492,4167.57575716,4.1212121208,3865.69696931,3449.45454511,3904.84848446,168.969696953,4261.33333291,4030.54545414,4451.42424198,3688.48484812,4156.24242383,3086.78787848,4304.09090866,2658.18181792,4923.30302981,2971.3939391,4192.30302988,37.0909090872,4425.66666622,1800.96969679,4169.63636322,1314.66666654,4826.45454497,1726.78787862,4476.66666622,3746.18181781,42.0,42.0,?
2017-08-01 19:33:21.314665,4567.84848439,2283.15151492,4168.60606019,4.1212121208,3863.63636325,3449.45454511,3917.21212082,168.969696953,4262.36363594,4030.54545414,4447.81818137,3688.48484812,4157.27272686,3086.78787848,4299.45454502,2658.18181792,4910.93939345,2971.3939391,4189.72727231,37.0909090872,4426.18181774,1800.96969679,4169.63636322,1314.66666654,4829.54545406,1726.78787862,4475.63636319,3746.18181781,42.0,42.0,?
2017-08-01 19:33:21.318775,4562.18181773,2283.15151492,4166.03030261,4.1212121208,3864.66666628,3449.45454511,3879.0909087,168.969696953,4260.81818139,4030.54545414,4445.75757531,3688.48484812,4155.72727231,3086.78787848,4298.93939351,2658.18181792,4919.6969692,2971.3939391,4179.93939352,37.0909090872,4423.09090865,1800.96969679,4168.09090867,1314.66666654,4822.33333285,1726.78787862,4472.03030258,3746.18181781,42.0,42.0,?
2017-08-01 19:33:21.326215,4563.21212076,2283.15151492,4169.63636322,4.1212121208,3866.21212083,3449.45454511,3862.0909087,168.969696953,4255.66666624,4030.54545414,4444.72727228,3688.48484812,4156.75757534,3086.78787848,4303.57575715,2658.18181792,4937.21212072,2971.3939391,4180.96969655,37.0909090872,4425.15151471,1800.96969679,4166.54545413,1314.66666654,4823.8787874,1726.78787862,4475.12121167,3746.18181781,42.0,42.0,?
2017-08-01 19:33:21.336091,4559.09090864,2283.15151492,4167.57575716,4.1212121208,3867.75757537,3449.45454511,3890.42424204,168.969696953,4256.18181776,4030.54545414,4441.63636319,3688.48484812,4158.30302989,3086.78787848,4306.66666624,2658.18181792,4932.57575708,2971.3939391,4191.78787837,37.0909090872,4425.15151471,1800.96969679,4168.60606019,1314.66666654,4826.96969649,1726.78787862,4473.06060561,3746.18181781,42.0,42.0,?
2017-08-01 19:33:21.342596,4564.24242379,2283.15151492,4164.99999958,4.1212121208,3868.7878784,3449.45454511,3898.15151476,168.969696953,4255.66666624,4030.54545414,4441.12121168,3688.48484812,4153.66666625,3086.78787848,4300.99999957,2658.18181792,4907.84848436,2971.3939391,4196.93939352,37.0909090872,4429.78787834,1800.96969679,4169.1212117,1314.66666654,4827.484848,1726.78787862,4475.12121167,3746.18181781,42.0,42.0,?
2017-08-01 19:33:21.351590,4570.42424197,2283.15151492,4166.54545413,4.1212121208,3865.69696931,3449.45454511,3864.15151477,168.969696953,4250.51515109,4030.54545414,4446.27272683,3688.48484812,4152.12121171,3086.78787848,4294.30302987,2658.18181792,4904.24242375,2971.3939391,4194.87878746,37.0909090872,4433.39393895,1800.96969679,4164.48484807,1314.66666654,4823.36363588,1726.78787862,4476.66666622,3746.18181781,42.0,42.0,?
2017-08-01 19:33:21.359243,4560.12121167,2283.15151492,4166.03030261,4.1212121208,3862.60606022,3449.45454511,3847.15151477,168.969696953,4252.57575715,4030.54545414,4451.93939349,3688.48484812,4159.84848443,3086.78787848,4299.96969654,2658.18181792,4925.87878739,2971.3939391,4192.30302988,37.0909090872,4428.75757531,1800.96969679,4161.90909049,1314.66666654,4821.81818134,1726.78787862,4471.51515107,3746.18181781,42.0,42.0,?
2017-08-01 19:33:21.366312,4553.93939348,2283.15151492,4166.03030261,4.1212121208,3863.12121173,3449.45454511,3858.99999961,168.969696953,4259.78787836,4030.54545414,4454.51515107,3688.48484812,4160.87878746,3086.78787848,4303.57575715,2658.18181792,4933.0909086,2971.3939391,4190.24242382,37.0909090872,4426.69696925,1800.96969679,4164.48484807,1314.66666654,4824.39393891,1726.78787862,4470.48484804,3746.18181781,42.0,42.0,?
2017-08-01 19:33:21.373492,4559.60606015,2283.15151492,4166.54545413,4.1212121208,3864.15151477,3449.45454511,3886.81818143,168.969696953,4260.30302988,4030.54545414,4454.51515107,3688.48484812,4155.72727231,3086.78787848,4296.87878745,2658.18181792,4917.63636314,2971.3939391,4186.63636322,37.0909090872,4425.66666622,1800.96969679,4164.48484807,1314.66666654,4819.75757528,1726.78787862,4472.5454541,3746.18181781,42.0,42.0,?
2017-08-01 19:33:21.381088,4569.39393894,2283.15151492,4170.15151473,4.1212121208,3869.30302992,3449.45454511,3908.96969658,168.969696953,4258.75757533,4030.54545414,4452.45454501,3688.48484812,4159.33333292,3086.78787848,4300.48484805,2658.18181792,4916.60606011,2971.3939391,4189.21212079,37.0909090872,4427.21212077,1800.96969679,4163.45454504,1314.66666654,4824.39393891,1726.78787862,4478.72727228,3746.18181781,42.0,42.0,?
2017-08-01 19:33:21.391065,4565.78787833,2283.15151492,4171.69696928,4.1212121208,3875.99999961,3449.45454511,3897.12121173,168.969696953,4262.36363594,4030.54545414,4451.42424198,3688.48484812,4165.5151511,3086.78787848,4313.87878745,2658.18181792,4933.60606011,2971.3939391,4204.66666625,37.0909090872,4432.36363592,1800.96969679,4164.99999958,1314.66666654,4829.03030255,1726.78787862,4478.72727228,3746.18181781,42.0,42.0,?
2017-08-01 19:33:21.397168,4560.63636318,2283.15151492,4171.69696928,4.1212121208,3874.45454507,3449.45454511,3872.90909052,168.969696953,4263.90909048,4030.54545414,4451.93939349,3688.48484812,4162.93939352,3086.78787848,4316.45454502,2658.18181792,4936.6969692,2971.3939391,4208.27272685,37.0909090872,4429.78787834,1800.96969679,4164.99999958,1314.66666654,4824.39393891,1726.78787862,4473.06060561,3746.18181781,42.0,42.0,?
2017-08-01 19:33:21.405982,4565.27272682,2283.15151492,4172.21212079,4.1212121208,3870.33333295,3449.45454511,3885.27272688,168.969696953,4259.78787836,4030.54545414,4450.90909046,3688.48484812,4157.27272686,3086.78787848,4307.69696927,2658.18181792,4928.45454496,2971.3939391,4190.75757534,37.0909090872,4423.09090865,1800.96969679,4162.93939352,1314.66666654,4823.8787874,1726.78787862,4476.66666622,3746.18181781,42.0,42.0,?
2017-08-01 19:33:21.414225,4559.09090864,2283.15151492,4167.57575716,4.1212121208,3873.42424204,3449.45454511,3882.18181779,168.969696953,4262.87878745,4030.54545414,4453.99999955,3688.48484812,4161.39393898,3086.78787848,4305.12121169,2658.18181792,4932.57575708,2971.3939391,4185.60606019,37.0909090872,4422.57575713,1800.96969679,4163.96969655,1314.66666654,4821.30302982,1726.78787862,4476.1515147,3746.18181781,42.0,42.0,?
2017-08-01 19:33:21.421846,4560.12121167,2283.15151492,4169.63636322,4.1212121208,3874.96969658,3449.45454511,3854.36363598,168.969696953,4267.51515109,4030.54545414,4456.06060561,3688.48484812,4165.5151511,3086.78787848,4303.06060563,2658.18181792,4928.96969648,2971.3939391,4194.87878746,37.0909090872,4430.81818138,1800.96969679,4167.06060564,1314.66666654,4824.90909043,1726.78787862,4477.69696925,3746.18181781,42.0,42.0,?
2017-08-01 19:33:21.433559,4565.78787833,2283.15151492,4171.69696928,4.1212121208,3871.87878749,3449.45454511,3877.54545416,168.969696953,4261.33333291,4030.54545414,4456.06060561,3688.48484812,4166.03030261,3086.78787848,4297.90909048,2658.18181792,4912.48484799,2971.3939391,4193.84848443,37.0909090872,4432.87878744,1800.96969679,4167.57575716,1314.66666654,4827.99999952,1726.78787862,4482.8484844,3746.18181781,42.0,42.0,?
2017-08-01 19:33:21.438707,4558.57575712,2283.15151492,4168.09090867,4.1212121208,3874.96969658,3449.45454511,3900.21212082,168.969696953,4257.7272723,4030.54545414,4457.60606016,3688.48484812,4174.78787837,3086.78787848,4303.57575715,2658.18181792,4916.60606011,2971.3939391,4188.69696928,37.0909090872,4427.72727228,1800.96969679,4166.54545413,1314.66666654,4822.33333285,1726.78787862,4479.24242379,3746.18181781,42.0,42.0,?
2017-08-01 19:33:21.445176,4564.7575753,2283.15151492,4171.18181776,4.1212121208,3878.57575719,3449.45454511,3872.39393901,168.969696953,4257.7272723,4030.54545414,4453.48484804,3688.48484812,4172.21212079,3086.78787848,4305.63636321,2658.18181792,4933.0909086,2971.3939391,4181.99999958,37.0909090872,4430.30302986,1800.96969679,4166.03030261,1314.66666654,4826.96969649,1726.78787862,4478.21212076,3746.18181781,42.0,42.0,?
2017-08-01 19:33:21.455210,4564.24242379,2283.15151492,4169.1212117,4.1212121208,3877.54545416,3449.45454511,3870.33333295,168.969696953,4257.21212079,4030.54545414,4447.30302986,3688.48484812,4157.78787837,3086.78787848,4298.93939351,2658.18181792,4934.63636314,2971.3939391,4184.06060564,37.0909090872,4432.36363592,1800.96969679,4164.99999958,1314.66666654,4825.42424194,1726.78787862,4476.1515147,3746.18181781,42.0,42.0,?
2017-08-01 19:33:21.459326,4561.66666621,2283.15151492,4166.03030261,4.1212121208,3878.57575719,3449.45454511,3871.36363598,168.969696953,4259.78787836,4030.54545414,4451.93939349,3688.48484812,4161.90909049,3086.78787848,4306.15151472,2658.18181792,4931.54545405,2971.3939391,4202.09090867,37.0909090872,4435.96969653,1800.96969679,4165.5151511,1314.66666654,4824.90909043,1726.78787862,4478.72727228,3746.18181781,42.0,42.0,?
2017-08-01 19:33:21.468628,4568.36363591,2283.15151492,4169.63636322,4.1212121208,3880.63636325,3449.45454511,3853.84848446,168.969696953,4260.30302988,4030.54545414,4456.06060561,3688.48484812,4171.18181776,3086.78787848,4312.84848442,2658.18181792,4933.0909086,2971.3939391,4205.69696928,37.0909090872,4438.5454541,1800.96969679,4168.60606019,1314.66666654,4833.15151467,1726.78787862,4482.8484844,3746.18181781,42.0,42.0,?
2017-08-01 19:33:21.475355,4559.60606015,2283.15151492,4166.54545413,4.1212121208,3883.21212082,3449.45454511,3886.81818143,168.969696953,4259.27272685,4030.54545414,4448.8484844,3688.48484812,4159.84848443,3086.78787848,4302.0303026,2658.18181792,4929.48484799,2971.3939391,4191.27272685,37.0909090872,4428.75757531,1800.96969679,4167.57575716,1314.66666654,4823.8787874,1726.78787862,4475.12121167,3746.18181781,42.0,42.0,?
2017-08-01 19:33:21.485264,4560.63636318,2283.15151492,4165.5151511,4.1212121208,3888.87878749,3449.45454511,3907.42424203,168.969696953,4260.30302988,4030.54545414,4447.30302986,3688.48484812,4144.39393898,3086.78787848,4289.15151472,2658.18181792,4923.30302981,2971.3939391,4188.18181776,37.0909090872,4424.63636319,1800.96969679,4165.5151511,1314.66666654,4820.78787831,1726.78787862,4475.63636319,3746.18181781,42.0,42.0,?
2017-08-01 19:33:21.491381,4571.454545,2283.15151492,4169.63636322,4.1212121208,3888.87878749,3449.45454511,3857.45454507,168.969696953,4255.15151473,4030.54545414,4449.87878743,3688.48484812,4145.93939352,3086.78787848,4291.7272723,2658.18181792,4922.27272678,2971.3939391,4191.78787837,37.0909090872,4431.84848441,1800.96969679,4165.5151511,1314.66666654,4831.09090861,1726.78787862,4480.78787834,3746.18181781,42.0,42.0,?
2017-08-01 19:33:21.499943,4564.24242379,2283.15151492,4169.1212117,4.1212121208,3883.21212082,3449.45454511,3846.63636325,168.969696953,4246.39393897,4030.54545414,4445.2424238,3688.48484812,4157.78787837,3086.78787848,4300.48484805,2658.18181792,4923.81818133,2971.3939391,4187.15151473,37.0909090872,4432.87878744,1800.96969679,4166.54545413,1314.66666654,4826.96969649,1726.78787862,4477.69696925,3746.18181781,42.0,42.0,?
2017-08-01 19:33:21.506914,4544.1515147,2283.15151492,4159.33333292,4.1212121208,3882.18181779,3449.45454511,3908.96969658,168.969696953,4253.09090867,4030.54545414,4444.72727228,3688.48484812,4167.57575716,3086.78787848,4306.66666624,2658.18181792,4932.06060557,2971.3939391,4186.63636322,37.0909090872,4425.66666622,1800.96969679,4166.54545413,1314.66666654,4812.54545406,1726.78787862,4468.93939349,3746.18181781,42.0,42.0,?
2017-08-01 19:33:21.514836,4540.54545409,2283.15151492,4155.72727231,4.1212121208,3884.75757537,3449.45454511,3924.42424203,168.969696953,4263.90909048,4030.54545414,4455.03030258,3688.48484812,4174.27272686,3086.78787848,4312.84848442,2658.18181792,4943.3939389,2971.3939391,4191.27272685,37.0909090872,4422.06060562,1800.96969679,4165.5151511,1314.66666654,4812.54545406,1726.78787862,4466.36363592,3746.18181781,42.0,42.0,?
2017-08-01 19:33:21.524284,4571.454545,2283.15151492,4171.18181776,4.1212121208,3884.75757537,3449.45454511,3869.30302992,168.969696953,4260.81818139,4030.54545414,4458.63636319,3688.48484812,4175.30302989,3086.78787848,4310.78787836,2658.18181792,4940.30302981,2971.3939391,4194.87878746,37.0909090872,4432.36363592,1800.96969679,4166.54545413,1314.66666654,4836.75757527,1726.78787862,4485.42424198,3746.18181781,42.0,42.0,?
2017-08-01 19:33:21.531566,4578.15151469,2283.15151492,4172.72727231,4.1212121208,3886.81818143,3449.45454511,3857.45454507,168.969696953,4259.27272685,4030.54545414,4455.5454541,3688.48484812,4175.8181814,3086.78787848,4310.27272684,2658.18181792,4931.03030254,2971.3939391,4201.06060564,37.0909090872,4438.5454541,1800.96969679,4168.09090867,1314.66666654,4836.24242376,1726.78787862,4490.57575713,3746.18181781,42.0,42.0,?
2017-08-01 19:33:21.537149,4562.69696924,2283.15151492,4166.54545413,4.1212121208,3895.06060567,3449.45454511,3891.45454507,168.969696953,4265.96969654,4030.54545414,4461.72727228,3688.48484812,4185.09090867,3086.78787848,4322.12121169,2658.18181792,4935.66666617,2971.3939391,4198.99999958,37.0909090872,4434.42424198,1800.96969679,4170.15151473,1314.66666654,4823.36363588,1726.78787862,4479.75757531,3746.18181781,42.0,42.0,?
2017-08-01 19:33:21.547532,4570.42424197,2316.12121189,4170.66666625,4.1212121208,3896.0909087,3449.45454511,3895.06060567,168.969696953,4263.39393897,4030.54545414,4464.30302986,3688.48484812,4178.90909049,3086.78787848,4316.45454502,2658.18181792,4935.15151466,2971.3939391,4188.69696928,37.0909090872,4433.90909047,1800.96969679,4168.09090867,1314.66666654,4835.72727224,1726.78787862,4483.87878743,3746.18181781,42.0,42.0,?
2017-08-01 19:33:21.553741,4564.7575753,2316.12121189,4165.5151511,0.0,3890.93939355,3449.45454511,3870.84848446,168.969696953,4255.15151473,4030.54545414,4452.96969652,3688.48484812,4157.27272686,3086.78787848,4293.27272684,2658.18181792,4924.33333284,2971.3939391,4191.27272685,37.0909090872,4431.33333289,1800.96969679,4162.93939352,1314.66666654,4831.60606012,1726.78787862,4483.36363592,3746.18181781,42.0,42.0,?
2017-08-01 19:33:21.561876,4562.69696924,2316.12121189,4168.09090867,0.0,3889.393939,3449.45454511,3861.57575719,168.969696953,4252.06060564,4030.54545414,4446.27272683,3688.48484812,4151.60606019,3086.78787848,4288.63636321,2658.18181792,4923.81818133,2971.3939391,4196.93939352,37.0909090872,4433.39393895,1800.96969679,4162.93939352,1314.66666654,4825.93939346,1726.78787862,4480.78787834,3770.90909053,42.0,42.0,?
2017-08-01 19:33:21.569135,4567.33333288,2316.12121189,4169.63636322,0.0,3887.33333294,3445.33333299,3877.54545416,168.969696953,4254.63636321,4030.54545414,4448.8484844,3688.48484812,4158.30302989,3086.78787848,4298.93939351,2658.18181792,4925.36363587,2971.3939391,4191.27272685,37.0909090872,4435.45454501,1800.96969679,4165.5151511,1314.66666654,4826.96969649,1726.78787862,4480.78787834,3770.90909053,42.0,42.0,?
2017-08-01 19:33:21.576673,4558.57575712,2316.12121189,4164.48484807,0.0,3882.69696931,3445.33333299,3895.06060567,37.0909090872,4257.7272723,4030.54545414,4449.36363592,3688.48484812,4155.72727231,3086.78787848,4299.96969654,2658.18181792,4917.12121163,2971.3939391,4187.66666625,37.0909090872,4425.15151471,1800.96969679,4166.54545413,1314.66666654,4818.72727225,1726.78787862,4472.5454541,3770.90909053,42.0,42.0,?
2017-08-01 19:33:21.584667,4564.7575753,2316.12121189,4172.21212079,0.0,3878.57575719,3445.33333299,3882.18181779,37.0909090872,4256.69696927,4030.54545414,4449.87878743,3688.48484812,4154.69696928,3086.78787848,4297.90909048,2658.18181792,4920.72727224,2971.3939391,4194.36363594,37.0909090872,4425.66666622,1800.96969679,4167.06060564,1314.66666654,4827.484848,1726.78787862,4473.57575713,3770.90909053,42.0,42.0,?
2017-08-01 19:33:21.592188,4561.1515147,2316.12121189,4167.57575716,0.0,3878.06060567,3445.33333299,3866.21212083,37.0909090872,4258.75757533,4030.54545414,4453.99999955,3684.363636,4168.09090867,3086.78787848,4307.69696927,2658.18181792,4945.96969648,2971.3939391,4205.18181776,37.0909090872,4431.84848441,1800.96969679,4163.45454504,1314.66666654,4826.96969649,1726.78787862,4475.12121167,3770.90909053,42.0,42.0,?
2017-08-01 19:33:21.602310,4562.69696924,2316.12121189,4166.54545413,0.0,3877.03030264,3445.33333299,3892.99999961,37.0909090872,4261.33333291,4030.54545414,4457.60606016,3684.363636,4176.33333292,3086.78787848,4311.81818139,2658.18181792,4956.78787829,2971.3939391,4207.24242382,37.0909090872,4432.36363592,1800.96969679,4162.93939352,1314.66666654,4822.33333285,1726.78787862,4476.66666622,3770.90909053,42.0,42.0,?
2017-08-01 19:33:21.608448,4569.90909045,2316.12121189,4174.78787837,0.0,3877.54545416,3445.33333299,3893.51515113,37.0909090872,4260.30302988,4030.54545414,4455.5454541,3684.363636,4171.18181776,3086.78787848,4308.21212078,2658.18181792,4941.33333284,2971.3939391,4197.96969655,37.0909090872,4431.33333289,1800.96969679,4168.09090867,1314.66666654,4827.484848,1726.78787862,4480.78787834,3770.90909053,42.0,42.0,?
2017-08-01 19:33:21.617364,4558.0606056,2316.12121189,4169.1212117,0.0,3884.24242385,3445.33333299,3860.54545416,37.0909090872,4262.36363594,4030.54545414,4458.63636319,3684.363636,4171.69696928,3086.78787848,4312.3333329,2658.18181792,4936.6969692,2963.15151486,4198.99999958,37.0909090872,4429.78787834,1800.96969679,4169.1212117,1314.66666654,4821.81818134,1726.78787862,4481.30302985,3770.90909053,42.0,42.0,?
2017-08-01 19:33:21.624639,4564.7575753,2316.12121189,4168.60606019,0.0,3884.24242385,3445.33333299,3878.06060567,37.0909090872,4264.93939351,4030.54545414,4461.72727228,3684.363636,4176.33333292,3086.78787848,4315.93939351,2658.18181792,4936.6969692,2963.15151486,4211.36363594,53.5757575704,4433.90909047,1800.96969679,4168.60606019,1314.66666654,4826.45454497,1726.78787862,4482.8484844,3770.90909053,42.0,42.0,?
2017-08-01 19:33:21.638724,4569.90909045,2316.12121189,4168.60606019,0.0,3880.12121173,3445.33333299,3894.54545416,37.0909090872,4265.45454503,4030.54545414,4457.09090865,3684.363636,4170.66666625,3086.78787848,4310.27272684,2658.18181792,4929.48484799,2963.15151486,4212.39393897,53.5757575704,4436.99999956,1813.33333315,4167.06060564,1314.66666654,4829.03030255,1726.78787862,4477.18181773,3770.90909053,42.0,42.0,?
2017-08-01 19:33:21.641116,4564.7575753,2316.12121189,4167.57575716,0.0,3881.15151476,3445.33333299,3859.51515113,37.0909090872,4263.90909048,4030.54545414,4452.96969652,3684.363636,4162.42424201,3086.78787848,4300.99999957,2658.18181792,4933.60606011,2963.15151486,4194.36363594,53.5757575704,4430.81818138,1813.33333315,4162.42424201,1302.30303017,4826.96969649,1726.78787862,4477.18181773,3770.90909053,42.0,42.0,?
2017-08-01 19:33:21.647917,4565.78787833,2316.12121189,4169.63636322,0.0,3880.12121173,3445.33333299,3853.84848446,37.0909090872,4262.36363594,4030.54545414,4456.06060561,3684.363636,4165.5151511,3086.78787848,4296.87878745,2658.18181792,4941.84848435,2963.15151486,4184.57575716,53.5757575704,4426.69696925,1813.33333315,4160.36363595,1302.30303017,4827.484848,1739.15151498,4481.81818137,3770.90909053,42.0,42.0,?
2017-08-01 19:33:21.655578,4558.57575712,2316.12121189,4166.54545413,0.0,3877.54545416,3445.33333299,3905.36363597,37.0909090872,4264.93939351,4030.54545414,4457.09090865,3684.363636,4167.57575716,3086.78787848,4298.93939351,2658.18181792,4938.24242375,2963.15151486,4193.84848443,49.4545454496,4426.18181774,1813.33333315,4162.42424201,1302.30303017,4818.21212073,1739.15151498,4475.12121167,3770.90909053,42.0,42.0,?
2017-08-01 19:33:21.670292,4564.24242379,2316.12121189,4169.1212117,0.0,3875.4848481,3445.33333299,3917.21212082,37.0909090872,4260.30302988,4030.54545414,4450.90909046,3684.363636,4153.15151474,3086.78787848,4291.21212078,2658.18181792,4924.33333284,2963.15151486,4189.21212079,49.4545454496,4425.15151471,1813.33333315,4164.99999958,1302.30303017,4824.90909043,1739.15151498,4472.5454541,3770.90909053,42.0,42.0,?
2017-08-01 19:33:21.673148,4565.27272682,2316.12121189,4168.09090867,0.0,3872.90909052,3445.33333299,3867.24242386,37.0909090872,4249.48484806,4030.54545414,4447.30302986,3684.363636,4145.42424201,3086.78787848,4281.93939351,2658.18181792,4905.7878783,2963.15151486,4184.57575716,49.4545454496,4422.57575713,1813.33333315,4164.99999958,1302.30303017,4827.99999952,1739.15151498,4472.03030258,3770.90909053,42.0,42.0,?
2017-08-01 19:33:21.679655,4561.1515147,2316.12121189,4166.03030261,0.0,3873.93939355,3445.33333299,3857.45454507,37.0909090872,4251.54545412,4030.54545414,4451.93939349,3684.363636,4156.24242383,3086.78787848,4287.60606018,2658.18181792,4899.60606012,2963.15151486,4190.75757534,49.4545454496,4424.63636319,1813.33333315,4163.96969655,1302.30303017,4822.33333285,1739.15151498,4474.60606016,3770.90909053,42.0,42.0,?
2017-08-01 19:33:21.698804,4566.81818136,2316.12121189,4169.63636322,0.0,3876.51515113,3445.33333299,3896.60606022,37.0909090872,4260.81818139,4030.54545414,4457.60606016,3684.363636,4163.45454504,3086.78787848,4295.3333329,2658.18181792,4925.36363587,2963.15151486,4187.66666625,49.4545454496,4431.84848441,1813.33333315,4165.5151511,1302.30303017,4826.96969649,1739.15151498,4479.75757531,3770.90909053,42.0,42.0,?
2017-08-01 19:33:21.716646,4563.21212076,2316.12121189,4166.54545413,0.0,3879.60606022,3445.33333299,3850.24242386,37.0909090872,4259.78787836,4030.54545414,4462.2424238,3684.363636,4170.15151473,3086.78787848,4298.93939351,2658.18181792,4940.81818132,2963.15151486,4212.39393897,49.4545454496,4432.36363592,1813.33333315,4166.54545413,1302.30303017,4825.93939346,1739.15151498,4479.75757531,3770.90909053,42.0,42.0,?
2017-08-01 19:33:21.723312,4563.21212076,2316.12121189,4166.54545413,0.0,3879.60606022,3445.33333299,3850.24242386,37.0909090872,4259.78787836,4030.54545414,4458.12121168,3684.363636,4171.69696928,3086.78787848,4298.93939351,2658.18181792,4940.81818132,2963.15151486,4212.39393897,49.4545454496,4432.36363592,1813.33333315,4166.54545413,1302.30303017,4825.93939346,1739.15151498,4479.75757531,3770.90909053,42.0,42.0,?
2017-08-01 19:33:21.724086,4555.99999954,2316.12121189,4167.06060564,0.0,3877.03030264,3445.33333299,3883.21212082,37.0909090872,4259.78787836,4030.54545414,4450.39393895,3684.363636,4158.30302989,3086.78787848,4292.24242381,2658.18181792,4918.66666617,2963.15151486,4184.57575716,49.4545454496,4419.48484804,1813.33333315,4159.84848443,1302.30303017,4817.69696922,1739.15151498,4470.48484804,3770.90909053,42.0,42.0,?
2017-08-01 19:33:21.724755,4555.99999954,2316.12121189,4167.06060564,0.0,3877.03030264,3445.33333299,3883.21212082,37.0909090872,4259.78787836,4030.54545414,4450.39393895,3684.363636,4158.30302989,3086.78787848,4292.24242381,2658.18181792,4918.66666617,2963.15151486,4184.57575716,49.4545454496,4419.48484804,1813.33333315,4159.84848443,1302.30303017,4817.69696922,1739.15151498,4470.48484804,3770.90909053,42.0,42.0,?
2017-08-01 19:33:21.729915,4559.60606015,2316.12121189,4170.15151473,0.0,3869.30302992,3445.33333299,3902.7878784,37.0909090872,4258.24242382,4030.54545414,4453.48484804,3684.363636,4162.93939352,3086.78787848,4296.87878745,2658.18181792,4928.45454496,2963.15151486,4186.63636322,49.4545454496,4422.06060562,1813.33333315,4160.87878746,1302.30303017,4822.84848437,1739.15151498,4476.1515147,3770.90909053,42.0,42.0,?
2017-08-01 19:33:21.733087,4554.96969651,2316.12121189,4166.03030261,0.0,3873.42424204,3445.33333299,3906.90909052,37.0909090872,4257.7272723,4030.54545414,4449.87878743,3684.363636,4153.66666625,3086.78787848,4295.84848442,2658.18181792,4927.93939345,2963.15151486,4190.75757534,49.4545454496,4419.99999956,1813.33333315,4165.5151511,1302.30303017,4820.27272679,1739.15151498,4475.63636319,3770.90909053,42.0,42.0,?
2017-08-01 19:33:21.741107,4557.54545409,2316.12121189,4167.06060564,0.0,3881.15151476,3445.33333299,3875.99999961,37.0909090872,4255.66666624,4030.54545414,4446.27272683,3684.363636,4145.42424201,3086.78787848,4286.57575715,2658.18181792,4916.0909086,2963.15151486,4175.30302989,49.4545454496,4418.45454501,1813.33333315,4162.93939352,1302.30303017,4822.33333285,1739.15151498,4472.03030258,3770.90909053,42.0,42.0,?
2017-08-01 19:33:21.749611,4562.18181773,2316.12121189,4168.09090867,0.0,3878.06060567,3445.33333299,3865.69696931,37.0909090872,4252.06060564,4030.54545414,4446.27272683,3684.363636,4153.15151474,3086.78787848,4286.57575715,2658.18181792,4911.45454496,2963.15151486,4162.93939352,49.4545454496,4423.09090865,1813.33333315,4158.30302989,1302.30303017,4824.90909043,1739.15151498,4473.06060561,3770.90909053,42.0,42.0,?
2017-08-01 19:33:21.756242,4554.96969651,2316.12121189,4163.45454504,0.0,3875.4848481,3445.33333299,3891.96969658,37.0909090872,4256.69696927,4030.54545414,4447.30302986,3684.363636,4159.33333292,3086.78787848,4296.87878745,2658.18181792,4931.03030254,2963.15151486,4179.42424201,49.4545454496,4426.18181774,1813.33333315,4162.42424201,1302.30303017,4821.30302982,1739.15151498,4474.09090864,3770.90909053,42.0,42.0,?
2017-08-01 19:33:21.764186,4560.12121167,2316.12121189,4168.09090867,0.0,3878.57575719,3445.33333299,3860.54545416,37.0909090872,4261.33333291,4030.54545414,4448.8484844,3684.363636,4156.24242383,3086.78787848,4296.36363593,2658.18181792,4937.72727223,2963.15151486,4197.96969655,49.4545454496,4428.2424238,1813.33333315,4167.06060564,1302.30303017,4827.99999952,1739.15151498,4475.12121167,3770.90909053,42.0,42.0,?
2017-08-01 19:33:21.773319,4558.57575712,2316.12121189,4167.57575716,0.0,3874.96969658,3445.33333299,3843.54545416,37.0909090872,4258.24242382,4030.54545414,4450.39393895,3684.363636,4157.27272686,3086.78787848,4291.21212078,2658.18181792,4923.30302981,2963.15151486,4189.21212079,49.4545454496,4420.51515107,1813.33333315,4162.93939352,1302.30303017,4824.39393891,1739.15151498,4467.39393895,3770.90909053,42.0,42.0,?
2017-08-01 19:33:21.781422,4559.09090864,2316.12121189,4166.54545413,0.0,3868.27272689,3445.33333299,3905.36363597,37.0909090872,4256.18181776,4030.54545414,4448.33333289,3684.363636,4155.72727231,3086.78787848,4290.69696927,2658.18181792,4921.24242375,2963.15151486,4177.87878746,49.4545454496,4416.90909047,1813.33333315,4160.36363595,1302.30303017,4822.33333285,1739.15151498,4471.51515107,3770.90909053,42.0,42.0,?
2017-08-01 19:33:21.788578,4562.18181773,2316.12121189,4170.15151473,0.0,3872.90909052,3445.33333299,3922.87878749,37.0909090872,4260.81818139,4030.54545414,4450.39393895,3684.363636,4151.09090868,3086.78787848,4290.69696927,2658.18181792,4927.42424193,2963.15151486,4188.18181776,49.4545454496,4424.12121168,1813.33333315,4164.48484807,1302.30303017,4826.45454497,1739.15151498,4480.27272682,3770.90909053,42.0,42.0,?
2017-08-01 19:33:21.795635,4555.99999954,2316.12121189,4168.60606019,0.0,3881.66666628,3445.33333299,3868.7878784,37.0909090872,4262.36363594,4030.54545414,4456.57575713,3684.363636,4154.69696928,3086.78787848,4291.21212078,2658.18181792,4925.36363587,2963.15151486,4200.03030261,49.4545454496,4425.66666622,1813.33333315,4165.5151511,1302.30303017,4819.75757528,1739.15151498,4472.5454541,3770.90909053,42.0,42.0,?
2017-08-01 19:33:21.803675,4563.72727227,2316.12121189,4169.1212117,0.0,3877.54545416,3445.33333299,3867.75757537,37.0909090872,4258.24242382,4030.54545414,4453.48484804,3684.363636,4157.27272686,3086.78787848,4288.12121169,2658.18181792,4917.63636314,2963.15151486,4192.30302988,49.4545454496,4423.09090865,1813.33333315,4163.96969655,1302.30303017,4822.33333285,1739.15151498,4470.48484804,3770.90909053,42.0,42.0,?
2017-08-01 19:33:21.819336,4561.66666621,2316.12121189,4166.54545413,0.0,3872.39393901,3445.33333299,3909.99999961,37.0909090872,4257.7272723,4030.54545414,4446.78787834,3684.363636,4154.69696928,3086.78787848,4290.18181775,2658.18181792,4920.72727224,2963.15151486,4184.06060564,49.4545454496,4418.96969653,1813.33333315,4164.99999958,1302.30303017,4822.84848437,1739.15151498,4472.03030258,3770.90909053,42.0,42.0,?
2017-08-01 19:33:21.823346,4555.48484803,2316.12121189,4167.06060564,0.0,3872.39393901,3445.33333299,3917.21212082,37.0909090872,4261.84848442,4030.54545414,4451.93939349,3684.363636,4155.72727231,3086.78787848,4297.90909048,2658.18181792,4935.66666617,2963.15151486,4189.72727231,49.4545454496,4418.96969653,1813.33333315,4166.03030261,1302.30303017,4824.39393891,1739.15151498,4473.57575713,3770.90909053,42.0,42.0,?
2017-08-01 19:33:21.835731,4561.1515147,2316.12121189,4169.1212117,0.0,3876.51515113,3445.33333299,3864.15151477,37.0909090872,4262.36363594,4030.54545414,4452.96969652,3684.363636,4155.2121208,3086.78787848,4297.39393896,2658.18181792,4944.93939344,2963.15151486,4195.90909049,49.4545454496,4425.66666622,1813.33333315,4165.5151511,1302.30303017,4829.54545406,1739.15151498,4476.1515147,3770.90909053,42.0,42.0,?
2017-08-01 19:33:21.838082,4557.03030257,2316.12121189,4164.48484807,0.0,3883.21212082,3445.33333299,3807.99999962,37.0909090872,4257.7272723,4030.54545414,4444.21212077,3684.363636,4152.63636322,3086.78787848,4294.30302987,2658.18181792,4945.45454496,2963.15151486,4194.87878746,49.4545454496,4423.60606016,1813.33333315,4166.03030261,1302.30303017,4819.24242376,1739.15151498,4472.5454541,3770.90909053,42.0,42.0,?
2017-08-01 19:33:21.842616,4559.60606015,2316.12121189,4169.1212117,0.0,3878.06060567,3445.33333299,3870.33333295,37.0909090872,4254.63636321,4030.54545414,4443.69696925,3684.363636,4149.54545413,3086.78787848,4290.18181775,2658.18181792,4930.51515102,2963.15151486,4190.75757534,49.4545454496,4417.9393935,1813.33333315,4168.60606019,1302.30303017,4820.78787831,1739.15151498,4469.96969652,3770.90909053,42.0,42.0,?
2017-08-01 19:33:21.851878,4560.63636318,2316.12121189,4170.15151473,0.0,3865.69696931,3445.33333299,3947.60606021,37.0909090872,4255.15151473,4030.54545414,4447.30302986,3684.363636,4145.93939352,3086.78787848,4282.96969654,2658.18181792,4907.84848436,2963.15151486,4184.06060564,49.4545454496,4413.81818138,1813.33333315,4166.54545413,1302.30303017,4825.42424194,1739.15151498,4465.8484844,3770.90909053,42.0,42.0,?
2017-08-01 19:33:21.858735,4557.54545409,2316.12121189,4164.99999958,0.0,3863.12121173,3445.33333299,3905.87878749,37.0909090872,4254.63636321,4030.54545414,4448.33333289,3684.363636,4151.09090868,3086.78787848,4288.12121169,2658.18181792,4911.45454496,2963.15151486,4179.42424201,49.4545454496,4416.39393895,1813.33333315,4162.42424201,1302.30303017,4823.8787874,1739.15151498,4467.90909046,3770.90909053,42.0,42.0,?
2017-08-01 19:33:21.866205,4560.63636318,2316.12121189,4165.5151511,0.0,3870.33333295,3445.33333299,3860.03030264,37.0909090872,4253.09090867,4030.54545414,4449.36363592,3684.363636,4153.15151474,3086.78787848,4291.7272723,2658.18181792,4923.30302981,2963.15151486,4184.06060564,49.4545454496,4423.09090865,1813.33333315,4162.93939352,1302.30303017,4826.96969649,1739.15151498,4476.66666622,3770.90909053,42.0,42.0,?
2017-08-01 19:33:21.876052,4558.0606056,2316.12121189,4166.03030261,0.0,3879.0909087,3445.33333299,3873.93939355,37.0909090872,4250.51515109,4030.54545414,4446.78787834,3684.363636,4145.42424201,3086.78787848,4282.96969654,2658.18181792,4910.93939345,2963.15151486,4192.8181814,49.4545454496,4422.57575713,1813.33333315,4164.48484807,1302.30303017,4824.39393891,1739.15151498,4473.06060561,3770.90909053,42.0,42.0,?
2017-08-01 19:33:21.882304,4564.7575753,2316.12121189,4168.60606019,0.0,3881.15151476,3445.33333299,3857.96969658,37.0909090872,4249.48484806,4030.54545414,4444.72727228,3684.363636,4147.99999959,3086.78787848,4284.51515109,2658.18181792,4906.30302981,2963.15151486,4191.27272685,49.4545454496,4424.12121168,1813.33333315,4166.54545413,1302.30303017,4827.99999952,1739.15151498,4473.06060561,3770.90909053,42.0,42.0,?
2017-08-01 19:33:21.892615,4566.30302985,2316.12121189,4168.60606019,0.0,3877.54545416,3445.33333299,3840.45454507,37.0909090872,4253.09090867,4030.54545414,4449.87878743,3684.363636,4156.24242383,3086.78787848,4295.84848442,2658.18181792,4932.06060557,2963.15151486,4187.66666625,49.4545454496,4427.72727228,1813.33333315,4165.5151511,1302.30303017,4825.93939346,1739.15151498,4475.63636319,3770.90909053,42.0,42.0,?
2017-08-01 19:33:21.898947,4558.0606056,2316.12121189,4169.63636322,0.0,3877.54545416,3445.33333299,3881.66666628,37.0909090872,4256.18181776,4030.54545414,4458.12121168,3684.363636,4150.06060565,3086.78787848,4296.36363593,2658.18181792,4949.57575708,2963.15151486,4190.75757534,49.4545454496,4425.15151471,1813.33333315,4163.96969655,1302.30303017,4819.75757528,1739.15151498,4474.09090864,3770.90909053,42.0,42.0,?
2017-08-01 19:33:21.907360,4562.18181773,2316.12121189,4172.21212079,0.0,3881.15151476,3445.33333299,3898.15151476,37.0909090872,4255.66666624,4030.54545414,4459.66666622,3684.363636,4141.8181814,3086.78787848,4290.18181775,2658.18181792,4933.0909086,2963.15151486,4187.15151473,49.4545454496,4420.51515107,1813.33333315,4165.5151511,1302.30303017,4825.93939346,1739.15151498,4478.21212076,3770.90909053,42.0,42.0,?
2017-08-01 19:33:21.917390,4558.0606056,2316.12121189,4166.03030261,0.0,3877.03030264,3445.33333299,3896.60606022,37.0909090872,4259.27272685,4030.54545414,4462.2424238,3684.363636,4147.48484807,3086.78787848,4290.69696927,2658.18181792,4917.12121163,2963.15151486,4179.93939352,49.4545454496,4417.42424198,1813.33333315,4165.5151511,1302.30303017,4823.36363588,1739.15151498,4475.12121167,3770.90909053,42.0,42.0,?
2017-08-01 19:33:21.921953,4562.18181773,2316.12121189,4168.09090867,0.0,3872.90909052,3445.33333299,3913.60606021,37.0909090872,4261.84848442,4030.54545414,4462.75757531,3684.363636,4152.12121171,3086.78787848,4289.66666624,2658.18181792,4919.6969692,2963.15151486,4183.54545413,49.4545454496,4420.51515107,1813.33333315,4165.5151511,1302.30303017,4824.39393891,1739.15151498,4472.5454541,3770.90909053,42.0,42.0,?
2017-08-01 19:33:21.928829,4567.33333288,2316.12121189,4169.63636322,0.0,3881.15151476,3445.33333299,3911.03030264,37.0909090872,4258.75757533,4030.54545414,4456.57575713,3684.363636,4150.57575716,3086.78787848,4290.69696927,2658.18181792,4931.03030254,2963.15151486,4191.78787837,49.4545454496,4425.66666622,1813.33333315,4168.09090867,1302.30303017,4826.96969649,1739.15151498,4477.18181773,3770.90909053,42.0,42.0,?
2017-08-01 19:33:21.937037,4558.0606056,2316.12121189,4164.48484807,0.0,3890.42424204,3445.33333299,3899.69696931,37.0909090872,4259.78787836,4030.54545414,4453.99999955,3684.363636,4153.15151474,3086.78787848,4297.39393896,2658.18181792,4936.18181769,2963.15151486,4194.36363594,49.4545454496,4426.18181774,1813.33333315,4169.63636322,1302.30303017,4823.8787874,1739.15151498,4479.75757531,3770.90909053,42.0,42.0,?
2017-08-01 19:33:21.951888,4565.27272682,2316.12121189,4168.60606019,0.0,3889.393939,3445.33333299,3865.1818178,37.0909090872,4252.57575715,4030.54545414,4455.5454541,3684.363636,4153.66666625,3086.78787848,4294.81818139,2658.18181792,4924.33333284,2963.15151486,4189.72727231,49.4545454496,4430.30302986,1813.33333315,4168.60606019,1302.30303017,4827.484848,1739.15151498,4481.30302985,3770.90909053,42.0,42.0,?
2017-08-01 19:33:21.953590,4565.27272682,2316.12121189,4168.60606019,0.0,3884.24242385,3445.33333299,3818.81818144,37.0909090872,4252.57575715,4030.54545414,4452.45454501,3684.363636,4155.72727231,3086.78787848,4292.75757533,2658.18181792,4924.33333284,2963.15151486,4193.84848443,49.4545454496,4431.33333289,1813.33333315,4168.60606019,1302.30303017,4823.8787874,1739.15151498,4476.66666622,3770.90909053,42.0,42.0,?
2017-08-01 19:33:21.962525,4561.66666621,2316.12121189,4165.5151511,0.0,3879.0909087,3445.33333299,3864.66666628,37.0909090872,4254.63636321,4030.54545414,4451.93939349,3684.363636,4159.84848443,3086.78787848,4296.87878745,2658.18181792,4915.06060557,2963.15151486,4198.99999958,49.4545454496,4427.21212077,1813.33333315,4169.63636322,1302.30303017,4824.90909043,1739.15151498,4477.18181773,3770.90909053,42.0,42.0,?
2017-08-01 19:33:21.969026,4563.21212076,2316.12121189,4166.54545413,0.0,3878.57575719,3445.33333299,3948.12121173,37.0909090872,4258.24242382,4030.54545414,4458.63636319,3684.363636,4158.8181814,3086.78787848,4294.81818139,2658.18181792,4923.30302981,2963.15151486,4192.30302988,49.4545454496,4428.2424238,1813.33333315,4167.06060564,1302.30303017,4825.93939346,1739.15151498,4480.78787834,3770.90909053,42.0,42.0,?
2017-08-01 19:33:21.976214,4557.54545409,2316.12121189,4164.99999958,0.0,3884.24242385,3445.33333299,3912.06060567,37.0909090872,4257.7272723,4030.54545414,4462.75757531,3684.363636,4160.36363595,3086.78787848,4296.36363593,2658.18181792,4952.15151466,2963.15151486,4190.75757534,49.4545454496,4429.27272683,1813.33333315,4167.06060564,1302.30303017,4819.24242376,1739.15151498,4477.18181773,3770.90909053,42.0,42.0,?
2017-08-01 19:33:21.984126,4562.69696924,2316.12121189,4167.57575716,0.0,3883.72727234,3445.33333299,3851.7878784,37.0909090872,4258.24242382,4030.54545414,4461.21212077,3684.363636,4163.96969655,3086.78787848,4302.54545412,2658.18181792,4957.81818132,2963.15151486,4195.39393897,49.4545454496,4431.33333289,1813.33333315,4169.63636322,1302.30303017,4825.93939346,1739.15151498,4478.21212076,3770.90909053,42.0,42.0,?
2017-08-01 19:33:21.991692,4562.18181773,2316.12121189,4165.5151511,0.0,3873.93939355,3445.33333299,3894.54545416,37.0909090872,4260.81818139,4030.54545414,4458.12121168,3684.363636,4159.33333292,3086.78787848,4298.42424199,2658.18181792,4937.21212072,2963.15151486,4196.424242,49.4545454496,4430.30302986,1813.33333315,4165.5151511,1302.30303017,4826.45454497,1739.15151498,4475.12121167,3770.90909053,42.0,42.0,?
2017-08-01 19:33:21.999211,4559.09090864,2316.12121189,4167.06060564,0.0,3871.87878749,3445.33333299,3898.66666628,37.0909090872,4256.18181776,4030.54545414,4452.45454501,3684.363636,4149.03030262,3086.78787848,4283.48484806,2658.18181792,4920.21212072,2963.15151486,4194.36363594,49.4545454496,4428.2424238,1813.33333315,4162.42424201,1302.30303017,4823.36363588,1739.15151498,4475.63636319,3770.90909053,42.0,42.0,?
2017-08-01 19:33:22.008858,4561.1515147,2316.12121189,4169.63636322,0.0,3877.03030264,3445.33333299,3851.27272689,37.0909090872,4250.51515109,4030.54545414,4450.39393895,3684.363636,4147.48484807,3086.78787848,4282.45454503,2658.18181792,4910.93939345,2963.15151486,4188.18181776,49.4545454496,4426.69696925,1813.33333315,4166.03030261,1302.30303017,4826.96969649,1739.15151498,4478.21212076,3770.90909053,42.0,42.0,?
2017-08-01 19:33:22.014249,4555.48484803,2316.12121189,4164.99999958,0.0,3873.42424204,3445.33333299,3882.69696931,37.0909090872,4255.66666624,4030.54545414,4453.48484804,3684.363636,4150.06060565,3086.78787848,4294.81818139,2658.18181792,4909.90909042,2963.15151486,4182.5151511,49.4545454496,4422.06060562,1813.33333315,4168.09090867,1302.30303017,4820.78787831,1739.15151498,4471.51515107,3770.90909053,42.0,42.0,?
2017-08-01 19:33:22.022322,4561.1515147,2316.12121189,4171.18181776,0.0,3866.72727234,3445.33333299,3908.96969658,37.0909090872,4259.78787836,4030.54545414,4452.96969652,3684.363636,4146.96969656,3086.78787848,4296.36363593,2658.18181792,4920.21212072,2963.15151486,4176.84848443,49.4545454496,4423.60606016,1813.33333315,4166.54545413,1302.30303017,4823.8787874,1739.15151498,4473.06060561,3770.90909053,42.0,42.0,?
2017-08-01 19:33:22.030794,4561.1515147,2316.12121189,4168.60606019,0.0,3869.81818143,3445.33333299,3853.33333295,37.0909090872,4257.21212079,4030.54545414,4452.96969652,3684.363636,4155.72727231,3086.78787848,4294.30302987,2658.18181792,4927.93939345,2963.15151486,4182.5151511,49.4545454496,4427.21212077,1813.33333315,4163.96969655,1302.30303017,4827.99999952,1739.15151498,4476.1515147,3770.90909053,42.0,42.0,?
2017-08-01 19:33:22.040155,4558.0606056,2316.12121189,4162.42424201,0.0,3873.93939355,3445.33333299,3843.03030265,37.0909090872,4255.66666624,4030.54545414,4456.06060561,3684.363636,4166.54545413,3086.78787848,4299.96969654,2658.18181792,4925.36363587,2963.15151486,4194.36363594,49.4545454496,4428.2424238,1813.33333315,4162.93939352,1302.30303017,4824.39393891,1739.15151498,4476.1515147,3770.90909053,42.0,42.0,?
2017-08-01 19:33:22.046663,4566.30302985,2344.96969674,4170.15151473,0.0,3867.75757537,3445.33333299,3912.06060567,37.0909090872,4253.60606018,4030.54545414,4453.48484804,3684.363636,4154.18181777,3086.78787848,4298.93939351,2658.18181792,4925.36363587,2963.15151486,4185.60606019,49.4545454496,4424.63636319,1813.33333315,4165.5151511,1302.30303017,4823.8787874,1739.15151498,4476.1515147,3770.90909053,42.0,42.0,?
2017-08-01 19:33:22.054317,4560.63636318,2344.96969674,4171.18181776,8.2424242416,3863.63636325,3445.33333299,3912.06060567,37.0909090872,4249.48484806,4030.54545414,4449.87878743,3684.363636,4147.48484807,3086.78787848,4295.3333329,2658.18181792,4932.06060557,2963.15151486,4173.24242383,49.4545454496,4417.9393935,1813.33333315,4166.54545413,1302.30303017,4820.27272679,1739.15151498,4472.03030258,3770.90909053,42.0,42.0,?
2017-08-01 19:33:22.068216,4561.1515147,2344.96969674,4168.60606019,8.2424242416,3866.21212083,3445.33333299,3834.7878784,37.0909090872,4249.48484806,4030.54545414,4449.87878743,3684.363636,4157.27272686,3086.78787848,4294.30302987,2658.18181792,4929.48484799,2963.15151486,4176.84848443,49.4545454496,4422.06060562,1813.33333315,4166.54545413,1302.30303017,4824.90909043,1739.15151498,4473.57575713,3783.27272689,42.0,42.0,?
2017-08-01 19:33:22.072588,4564.24242379,2344.96969674,4168.09090867,8.2424242416,3866.21212083,3449.45454511,3828.60606022,37.0909090872,4252.06060564,4030.54545414,4447.30302986,3684.363636,4154.18181777,3086.78787848,4289.15151472,2658.18181792,4919.18181769,2963.15151486,4176.33333292,49.4545454496,4422.57575713,1813.33333315,4163.96969655,1302.30303017,4823.36363588,1739.15151498,4474.60606016,3783.27272689,42.0,42.0,?
2017-08-01 19:33:22.077639,4558.0606056,2344.96969674,4166.54545413,8.2424242416,3862.0909087,3449.45454511,3892.4848481,0.0,4250.51515109,4030.54545414,4442.66666622,3684.363636,4145.42424201,3086.78787848,4285.0303026,2658.18181792,4916.60606011,2963.15151486,4167.57575716,49.4545454496,4412.78787835,1813.33333315,4163.45454504,1302.30303017,4817.69696922,1739.15151498,4469.96969652,3783.27272689,42.0,42.0,?
2017-08-01 19:33:22.085130,4559.09090864,2344.96969674,4167.57575716,8.2424242416,3855.39393901,3449.45454511,3910.51515112,0.0,4248.45454503,4022.3030299,4446.78787834,3684.363636,4147.99999959,3086.78787848,4287.09090866,2658.18181792,4915.06060557,2963.15151486,4169.63636322,49.4545454496,4414.33333289,1813.33333315,4166.54545413,1302.30303017,4825.93939346,1739.15151498,4470.48484804,3783.27272689,42.0,42.0,?
2017-08-01 19:33:22.094834,4559.60606015,2344.96969674,4166.54545413,8.2424242416,3857.96969658,3449.45454511,3882.18181779,0.0,4254.63636321,4022.3030299,4457.09090865,3676.12121175,4151.60606019,3086.78787848,4293.27272684,2658.18181792,4921.24242375,2963.15151486,4176.33333292,49.4545454496,4421.03030259,1813.33333315,4164.99999958,1302.30303017,4824.39393891,1739.15151498,4469.96969652,3783.27272689,42.0,42.0,?
2017-08-01 19:33:22.100916,4566.81818136,2344.96969674,4169.63636322,8.2424242416,3865.69696931,3449.45454511,3873.42424204,0.0,4261.33333291,4022.3030299,4459.15151471,3676.12121175,4153.15151474,3082.66666636,4296.36363593,2658.18181792,4927.93939345,2963.15151486,4175.8181814,49.4545454496,4424.63636319,1813.33333315,4162.42424201,1302.30303017,4825.42424194,1739.15151498,4473.06060561,3783.27272689,42.0,42.0,?
2017-08-01 19:33:22.108308,4567.33333288,2344.96969674,4169.1212117,8.2424242416,3866.21212083,3449.45454511,3867.24242386,0.0,4258.24242382,4022.3030299,4453.48484804,3676.12121175,4157.27272686,3082.66666636,4295.84848442,2674.6666664,4912.99999951,2963.15151486,4176.84848443,49.4545454496,4425.66666622,1813.33333315,4163.96969655,1302.30303017,4827.99999952,1739.15151498,4475.12121167,3783.27272689,42.0,42.0,?
2017-08-01 19:33:22.119574,4555.99999954,2344.96969674,4164.99999958,8.2424242416,3865.1818178,3449.45454511,3864.66666628,0.0,4253.60606018,4022.3030299,4454.51515107,3676.12121175,4154.18181777,3082.66666636,4295.84848442,2674.6666664,4915.57575708,2946.66666637,4178.39393898,49.4545454496,4422.57575713,1813.33333315,4166.54545413,1302.30303017,4821.30302982,1739.15151498,4473.57575713,3783.27272689,42.0,42.0,?
2017-08-01 19:33:22.124579,4563.21212076,2344.96969674,4167.57575716,8.2424242416,3863.12121173,3449.45454511,3897.63636325,0.0,4253.09090867,4022.3030299,4456.57575713,3676.12121175,4143.87878746,3082.66666636,4293.27272684,2674.6666664,4940.81818132,2946.66666637,4177.87878746,61.818181812,4423.09090865,1813.33333315,4166.03030261,1302.30303017,4825.42424194,1739.15151498,4475.12121167,3783.27272689,42.0,42.0,?
2017-08-01 19:33:22.132293,4563.72727227,2344.96969674,4164.99999958,8.2424242416,3860.54545416,3449.45454511,3911.54545415,0.0,4252.06060564,4022.3030299,4450.90909046,3676.12121175,4149.54545413,3082.66666636,4294.30302987,2674.6666664,4940.81818132,2946.66666637,4181.99999958,61.818181812,4422.06060562,1862.7878786,4163.96969655,1302.30303017,4825.42424194,1739.15151498,4471.51515107,3783.27272689,42.0,42.0,?
2017-08-01 19:33:22.140972,4561.1515147,2344.96969674,4165.5151511,8.2424242416,3866.72727234,3449.45454511,3859.51515113,0.0,4248.45454503,4022.3030299,4447.81818137,3676.12121175,4161.90909049,3082.66666636,4298.93939351,2674.6666664,4920.21212072,2946.66666637,4186.63636322,61.818181812,4425.15151471,1862.7878786,4164.48484807,1310.54545441,4829.03030255,1739.15151498,4474.09090864,3783.27272689,42.0,42.0,?
2017-08-01 19:33:22.147214,4563.21212076,2344.96969674,4168.60606019,8.2424242416,3870.33333295,3449.45454511,3832.21212083,0.0,4248.45454503,4022.3030299,4448.33333289,3676.12121175,4152.12121171,3082.66666636,4296.87878745,2674.6666664,4918.15151466,2946.66666637,4185.60606019,61.818181812,4429.27272683,1862.7878786,4166.03030261,1310.54545441,4829.54545406,1743.2727271,4479.75757531,3783.27272689,42.0,42.0,?
2017-08-01 19:33:22.157547,4558.0606056,2344.96969674,4164.48484807,8.2424242416,3862.60606022,3449.45454511,3887.84848446,0.0,4249.48484806,4022.3030299,4444.72727228,3676.12121175,4137.69696928,3082.66666636,4290.18181775,2674.6666664,4931.03030254,2946.66666637,4179.93939352,49.4545454496,4422.06060562,1862.7878786,4163.45454504,1310.54545441,4819.75757528,1743.2727271,4473.06060561,3783.27272689,42.0,42.0,?
2017-08-01 19:33:22.163626,4565.78787833,2344.96969674,4166.54545413,8.2424242416,3857.96969658,3449.45454511,3895.57575719,0.0,4246.39393897,4022.3030299,4445.2424238,3676.12121175,4143.36363595,3082.66666636,4289.66666624,2674.6666664,4927.42424193,2946.66666637,4174.78787837,49.4545454496,4418.96969653,1866.90909072,4162.42424201,1310.54545441,4823.36363588,1743.2727271,4470.99999955,3783.27272689,42.0,42.0,?
2017-08-01 19:33:22.171181,4565.27272682,2344.96969674,4165.5151511,8.2424242416,3859.51515113,3449.45454511,3845.09090871,0.0,4245.36363594,4022.3030299,4447.81818137,3676.12121175,4155.2121208,3082.66666636,4296.36363593,2674.6666664,4926.3939389,2946.66666637,4175.8181814,49.4545454496,4416.39393895,1866.90909072,4164.48484807,1310.54545441,4822.84848437,1743.2727271,4470.99999955,3783.27272689,42.0,42.0,?
2017-08-01 19:33:22.182363,4560.12121167,2344.96969674,4166.54545413,8.2424242416,3856.93939355,3449.45454511,3858.99999961,0.0,4247.93939351,4022.3030299,4443.69696925,3676.12121175,4155.2121208,3082.66666636,4297.90909048,2674.6666664,4928.96969648,2946.66666637,4173.24242383,49.4545454496,4414.84848441,1866.90909072,4165.5151511,1310.54545441,4822.33333285,1743.2727271,4471.51515107,3783.27272689,42.0,42.0,?
2017-08-01 19:33:22.187831,4561.66666621,2344.96969674,4170.66666625,8.2424242416,3854.87878749,3449.45454511,3902.7878784,0.0,4249.99999958,4022.3030299,4441.12121168,3676.12121175,4147.48484807,3082.66666636,4286.57575715,2674.6666664,4909.3939389,2946.66666637,4172.21212079,49.4545454496,4421.03030259,1866.90909072,4164.48484807,1310.54545441,4827.484848,1743.2727271,4475.12121167,3783.27272689,42.0,42.0,?
2017-08-01 19:33:22.201423,4555.48484803,2344.96969674,4166.03030261,8.2424242416,3854.87878749,3449.45454511,3895.06060567,0.0,4251.54545412,4022.3030299,4444.21212077,3676.12121175,4144.39393898,3082.66666636,4278.33333291,2674.6666664,4899.0909086,2946.66666637,4171.69696928,49.4545454496,4419.48484804,1866.90909072,4164.99999958,1310.54545441,4821.30302982,1743.2727271,4469.45454501,3783.27272689,42.0,42.0,?
2017-08-01 19:33:22.204043,4563.72727227,2344.96969674,4166.03030261,8.2424242416,3854.87878749,3449.45454511,3864.15151477,0.0,4251.03030261,4022.3030299,4447.81818137,3676.12121175,4147.99999959,3082.66666636,4285.0303026,2674.6666664,4921.75757527,2946.66666637,4164.48484807,49.4545454496,4415.36363592,1866.90909072,4168.09090867,1310.54545441,4824.90909043,1743.2727271,4467.39393895,3783.27272689,42.0,42.0,?
2017-08-01 19:33:22.210822,4566.81818136,2344.96969674,4166.54545413,8.2424242416,3862.60606022,3449.45454511,3860.03030264,0.0,4250.51515109,4022.3030299,4447.30302986,3676.12121175,4149.54545413,3082.66666636,4296.87878745,2674.6666664,4940.81818132,2946.66666637,4170.15151473,49.4545454496,4416.90909047,1866.90909072,4168.60606019,1310.54545441,4827.484848,1743.2727271,4473.06060561,3783.27272689,42.0,42.0,?
2017-08-01 19:33:22.219063,4559.60606015,2344.96969674,4167.06060564,8.2424242416,3867.75757537,3449.45454511,3874.96969658,0.0,4252.06060564,4022.3030299,4447.30302986,3676.12121175,4143.36363595,3082.66666636,4293.27272684,2674.6666664,4932.06060557,2946.66666637,4181.48484807,49.4545454496,4420.51515107,1866.90909072,4166.03030261,1310.54545441,4823.36363588,1743.2727271,4479.75757531,3783.27272689,42.0,42.0,?
2017-08-01 19:33:22.226723,4561.1515147,2344.96969674,4171.69696928,8.2424242416,3860.03030264,3449.45454511,3878.06060567,0.0,4251.03030261,4022.3030299,4446.27272683,3676.12121175,4139.75757534,3082.66666636,4282.45454503,2674.6666664,4920.72727224,2946.66666637,4173.24242383,49.4545454496,4421.5454541,1866.90909072,4164.99999958,1310.54545441,4826.96969649,1743.2727271,4479.75757531,3783.27272689,42.0,42.0,?
2017-08-01 19:33:22.234457,4558.0606056,2344.96969674,4167.57575716,8.2424242416,3855.39393901,3449.45454511,3856.93939355,0.0,4250.51515109,4022.3030299,4445.2424238,3676.12121175,4147.48484807,3082.66666636,4288.12121169,2674.6666664,4925.87878739,2946.66666637,4168.60606019,49.4545454496,4417.42424198,1866.90909072,4166.54545413,1310.54545441,4825.42424194,1743.2727271,4468.93939349,3783.27272689,42.0,42.0,?
2017-08-01 19:33:22.243070,4563.21212076,2344.96969674,4168.60606019,8.2424242416,3861.06060567,3449.45454511,3853.84848446,0.0,4248.96969654,4022.3030299,4445.2424238,3676.12121175,4146.96969656,3082.66666636,4291.7272723,2674.6666664,4920.72727224,2946.66666637,4177.87878746,49.4545454496,4417.9393935,1866.90909072,4168.60606019,1310.54545441,4826.45454497,1743.2727271,4473.06060561,3783.27272689,42.0,42.0,?
2017-08-01 19:33:22.249603,4564.7575753,2344.96969674,4170.15151473,8.2424242416,3866.72727234,3449.45454511,3878.57575719,0.0,4247.93939351,4022.3030299,4447.30302986,3676.12121175,4139.24242383,3082.66666636,4283.99999957,2674.6666664,4906.30302981,2946.66666637,4176.84848443,49.4545454496,4421.5454541,1866.90909072,4167.06060564,1310.54545441,4825.42424194,1743.2727271,4480.78787834,3783.27272689,42.0,42.0,?
2017-08-01 19:33:22.257194,4558.0606056,2344.96969674,4168.09090867,8.2424242416,3868.27272689,3449.45454511,3901.24242385,0.0,4255.66666624,4022.3030299,4449.87878743,3676.12121175,4149.03030262,3082.66666636,4288.63636321,2674.6666664,4916.60606011,2946.66666637,4173.24242383,49.4545454496,4424.63636319,1866.90909072,4163.45454504,1310.54545441,4820.78787831,1743.2727271,4478.72727228,3783.27272689,42.0,42.0,?
2017-08-01 19:33:22.267417,4564.24242379,2344.96969674,4169.63636322,8.2424242416,3865.1818178,3449.45454511,3916.18181779,0.0,4261.84848442,4022.3030299,4449.36363592,3676.12121175,4161.90909049,3082.66666636,4296.87878745,2674.6666664,4940.81818132,2946.66666637,4176.33333292,49.4545454496,4427.72727228,1866.90909072,4163.96969655,1310.54545441,4826.45454497,1743.2727271,4476.1515147,3783.27272689,42.0,42.0,?
2017-08-01 19:33:22.272932,4563.72727227,2344.96969674,4166.54545413,8.2424242416,3862.60606022,3449.45454511,3884.24242385,0.0,4262.36363594,4022.3030299,4452.96969652,3676.12121175,4167.06060564,3082.66666636,4301.51515109,2674.6666664,4946.48484799,2946.66666637,4176.33333292,49.4545454496,4422.06060562,1866.90909072,4167.06060564,1310.54545441,4823.8787874,1743.2727271,4471.51515107,3783.27272689,42.0,42.0,?
2017-08-01 19:33:22.280076,4562.18181773,2344.96969674,4168.09090867,8.2424242416,3861.57575719,3449.45454511,3845.60606022,0.0,4262.36363594,4022.3030299,4457.09090865,3676.12121175,4163.96969655,3082.66666636,4303.06060563,2674.6666664,4929.48484799,2946.66666637,4172.21212079,49.4545454496,4420.51515107,1866.90909072,4166.03030261,1310.54545441,4824.39393891,1743.2727271,4474.09090864,3783.27272689,42.0,42.0,?
2017-08-01 19:33:22.290596,4562.69696924,2344.96969674,4170.15151473,8.2424242416,3856.42424204,3449.45454511,3865.1818178,0.0,4259.78787836,4022.3030299,4448.33333289,3676.12121175,4152.12121171,3082.66666636,4295.3333329,2674.6666664,4914.03030254,2946.66666637,4160.36363595,49.4545454496,4417.9393935,1866.90909072,4160.87878746,1310.54545441,4824.90909043,1743.2727271,4474.09090864,3783.27272689,42.0,42.0,?
2017-08-01 19:33:22.296333,4557.03030257,2344.96969674,4166.54545413,8.2424242416,3856.42424204,3449.45454511,3869.30302992,0.0,4254.63636321,4022.3030299,4443.18181774,3676.12121175,4150.57575716,3082.66666636,4293.27272684,2674.6666664,4922.27272678,2946.66666637,4157.78787837,49.4545454496,4415.36363592,1866.90909072,4160.87878746,1310.54545441,4819.24242376,1743.2727271,4466.36363592,3783.27272689,42.0,42.0,?
2017-08-01 19:33:22.304125,4564.24242379,2344.96969674,4168.60606019,8.2424242416,3864.15151477,3449.45454511,3850.24242386,0.0,4256.18181776,4022.3030299,4447.81818137,3676.12121175,4156.24242383,3082.66666636,4296.87878745,2674.6666664,4933.0909086,2946.66666637,4170.15151473,49.4545454496,4422.06060562,1866.90909072,4167.06060564,1310.54545441,4827.99999952,1743.2727271,4470.48484804,3783.27272689,42.0,42.0,?
2017-08-01 19:33:22.312352,4562.18181773,2344.96969674,4167.57575716,8.2424242416,3866.72727234,3449.45454511,3874.45454507,0.0,4260.30302988,4022.3030299,4446.78787834,3676.12121175,4146.45454504,3082.66666636,4289.66666624,2674.6666664,4922.7878783,2946.66666637,4170.66666625,49.4545454496,4422.06060562,1866.90909072,4164.48484807,1310.54545441,4829.54545406,1743.2727271,4472.5454541,3783.27272689,42.0,42.0,?
2017-08-01 19:33:22.320712,4552.90909045,2344.96969674,4167.57575716,8.2424242416,3858.99999961,3449.45454511,3910.51515112,0.0,4255.66666624,4022.3030299,4441.63636319,3676.12121175,4138.2121208,3082.66666636,4283.48484806,2674.6666664,4913.51515102,2946.66666637,4156.75757534,49.4545454496,4413.81818138,1866.90909072,4158.30302989,1310.54545441,4823.8787874,1743.2727271,4467.39393895,3783.27272689,42.0,42.0,?
2017-08-01 19:33:22.327778,4555.99999954,2344.96969674,4168.60606019,8.2424242416,3858.4848481,3449.45454511,3893.51515113,0.0,4247.424242,4022.3030299,4441.12121168,3676.12121175,4147.99999959,3082.66666636,4288.12121169,2674.6666664,4913.51515102,2946.66666637,4152.63636322,49.4545454496,4411.75757532,1866.90909072,4158.30302989,1310.54545441,4825.42424194,1743.2727271,4467.39393895,3783.27272689,42.0,42.0,?
2017-08-01 19:33:22.335119,4560.63636318,2344.96969674,4165.5151511,8.2424242416,3874.96969658,3449.45454511,3849.72727234,0.0,4248.45454503,4022.3030299,4441.12121168,3676.12121175,4157.27272686,3082.66666636,4295.3333329,2674.6666664,4914.03030254,2946.66666637,4163.45454504,49.4545454496,4420.51515107,1866.90909072,4162.93939352,1310.54545441,4824.90909043,1743.2727271,4473.06060561,3783.27272689,42.0,42.0,?
2017-08-01 19:33:22.343942,4568.87878742,2344.96969674,4167.57575716,8.2424242416,3883.72727234,3449.45454511,3854.87878749,0.0,4254.63636321,4022.3030299,4443.69696925,3676.12121175,4157.27272686,3082.66666636,4302.54545412,2674.6666664,4931.54545405,2946.66666637,4174.27272686,49.4545454496,4432.87878744,1866.90909072,4165.5151511,1310.54545441,4826.45454497,1743.2727271,4480.27272682,3783.27272689,42.0,42.0,?
2017-08-01 19:33:22.351915,4565.27272682,2344.96969674,4168.60606019,8.2424242416,3873.93939355,3449.45454511,3883.72727234,0.0,4254.63636321,4022.3030299,4446.27272683,3676.12121175,4156.75757534,3082.66666636,4302.0303026,2674.6666664,4946.99999951,2946.66666637,4174.78787837,49.4545454496,4428.2424238,1866.90909072,4162.93939352,1310.54545441,4824.39393891,1743.2727271,4476.1515147,3783.27272689,42.0,42.0,?
2017-08-01 19:33:22.358181,4558.0606056,2344.96969674,4168.09090867,8.2424242416,3867.24242386,3449.45454511,3863.63636325,0.0,4249.48484806,4022.3030299,4441.63636319,3676.12121175,4157.27272686,3082.66666636,4293.78787836,2674.6666664,4937.72727223,2946.66666637,4168.60606019,49.4545454496,4411.2424238,1866.90909072,4160.87878746,1310.54545441,4823.36363588,1743.2727271,4470.48484804,3783.27272689,42.0,42.0,?
2017-08-01 19:33:22.368004,4561.1515147,2344.96969674,4167.57575716,8.2424242416,3871.36363598,3449.45454511,3850.75757537,0.0,4247.93939351,4022.3030299,4435.45454501,3676.12121175,4152.12121171,3082.66666636,4293.78787836,2674.6666664,4927.42424193,2946.66666637,4162.42424201,49.4545454496,4410.21212077,1866.90909072,4162.42424201,1310.54545441,4823.36363588,1743.2727271,4472.03030258,3783.27272689,42.0,42.0,?
2017-08-01 19:33:22.375274,4558.0606056,2344.96969674,4163.96969655,8.2424242416,3874.45454507,3449.45454511,3889.90909052,0.0,4248.45454503,4022.3030299,4435.96969653,3676.12121175,4146.96969656,3082.66666636,4294.81818139,2674.6666664,4915.06060557,2946.66666637,4158.30302989,49.4545454496,4416.90909047,1866.90909072,4164.48484807,1310.54545441,4817.69696922,1743.2727271,4467.39393895,3783.27272689,42.0,42.0,?
2017-08-01 19:33:22.384475,4564.24242379,2344.96969674,4167.57575716,8.2424242416,3873.93939355,3449.45454511,3886.30302991,0.0,4251.54545412,4022.3030299,4442.66666622,3676.12121175,4152.12121171,3082.66666636,4288.63636321,2674.6666664,4906.81818133,2946.66666637,4159.33333292,49.4545454496,4416.39393895,1866.90909072,4166.03030261,1310.54545441,4823.8787874,1743.2727271,4467.90909046,3783.27272689,42.0,42.0,?
2017-08-01 19:33:22.390791,4563.72727227,2344.96969674,4168.09090867,8.2424242416,3875.4848481,3449.45454511,3856.42424204,0.0,4260.30302988,4022.3030299,4450.39393895,3676.12121175,4158.30302989,3082.66666636,4292.75757533,2674.6666664,4927.93939345,2946.66666637,4168.60606019,49.4545454496,4412.27272683,1866.90909072,4163.45454504,1310.54545441,4824.39393891,1743.2727271,4469.96969652,3783.27272689,42.0,42.0,?
2017-08-01 19:33:22.400292,4557.03030257,2344.96969674,4167.06060564,8.2424242416,3873.93939355,3449.45454511,3880.12121173,0.0,4261.33333291,4022.3030299,4449.36363592,3676.12121175,4152.63636322,3082.66666636,4299.96969654,2674.6666664,4941.33333284,2946.66666637,4171.69696928,49.4545454496,4415.36363592,1866.90909072,4161.39393898,1310.54545441,4818.21212073,1743.2727271,4469.96969652,3783.27272689,42.0,42.0,?
2017-08-01 19:33:22.406322,4559.60606015,2344.96969674,4167.57575716,8.2424242416,3869.30302992,3449.45454511,3873.93939355,0.0,4254.63636321,4022.3030299,4445.75757531,3676.12121175,4151.60606019,3082.66666636,4295.84848442,2674.6666664,4922.7878783,2946.66666637,4167.06060564,49.4545454496,4422.57575713,1866.90909072,4162.93939352,1310.54545441,4820.78787831,1743.2727271,4473.57575713,3783.27272689,42.0,42.0,?
2017-08-01 19:33:22.414268,4554.454545,2344.96969674,4164.99999958,8.2424242416,3867.75757537,3449.45454511,3857.96969658,0.0,4256.69696927,4022.3030299,4449.36363592,3676.12121175,4162.42424201,3082.66666636,4294.30302987,2674.6666664,4926.90909042,2946.66666637,4173.24242383,49.4545454496,4417.9393935,1866.90909072,4161.90909049,1310.54545441,4819.75757528,1743.2727271,4469.96969652,3783.27272689,42.0,42.0,?
2017-08-01 19:33:22.423525,4557.54545409,2344.96969674,4170.15151473,8.2424242416,3867.24242386,3449.45454511,3881.15151476,0.0,4259.27272685,4022.3030299,4450.90909046,3676.12121175,4157.78787837,3082.66666636,4295.3333329,2674.6666664,4939.78787829,2946.66666637,4172.72727231,49.4545454496,4409.18181774,1866.90909072,4159.33333292,1310.54545441,4823.8787874,1743.2727271,4467.39393895,3783.27272689,42.0,42.0,?
2017-08-01 19:33:22.429669,4561.1515147,2344.96969674,4171.18181776,8.2424242416,3868.27272689,3449.45454511,3880.12121173,0.0,4256.18181776,4022.3030299,4449.87878743,3676.12121175,4149.03030262,3082.66666636,4294.81818139,2674.6666664,4925.36363587,2946.66666637,4158.30302989,49.4545454496,4407.6363632,1866.90909072,4159.33333292,1310.54545441,4822.33333285,1743.2727271,4466.87878743,3783.27272689,42.0,42.0,?
2017-08-01 19:33:22.437946,4555.48484803,2344.96969674,4166.03030261,8.2424242416,3868.7878784,3449.45454511,3863.63636325,0.0,4257.7272723,4022.3030299,4452.45454501,3676.12121175,4159.33333292,3082.66666636,4304.60606018,2674.6666664,4926.90909042,2946.66666637,4164.99999958,49.4545454496,4411.75757532,1866.90909072,4162.42424201,1310.54545441,4817.69696922,1743.2727271,4467.90909046,3783.27272689,42.0,42.0,?
2017-08-01 19:33:22.445364,4560.63636318,2344.96969674,4171.18181776,8.2424242416,3868.7878784,3449.45454511,3868.7878784,0.0,4257.21212079,4022.3030299,4448.33333289,3676.12121175,4162.93939352,3082.66666636,4306.66666624,2674.6666664,4939.78787829,2946.66666637,4179.93939352,49.4545454496,4417.42424198,1866.90909072,4163.45454504,1310.54545441,4827.484848,1743.2727271,4473.57575713,3783.27272689,42.0,42.0,?
2017-08-01 19:33:22.452622,4561.1515147,2344.96969674,4169.63636322,8.2424242416,3871.87878749,3449.45454511,3885.27272688,0.0,4252.06060564,4022.3030299,4443.69696925,3676.12121175,4153.66666625,3082.66666636,4293.78787836,2674.6666664,4926.90909042,2946.66666637,4164.99999958,49.4545454496,4411.2424238,1866.90909072,4162.42424201,1310.54545441,4826.45454497,1743.2727271,4468.42424198,3783.27272689,42.0,42.0,?
2017-08-01 19:33:22.460150,4558.57575712,2344.96969674,4167.06060564,8.2424242416,3874.45454507,3449.45454511,3907.42424203,0.0,4255.15151473,4022.3030299,4449.87878743,3676.12121175,4151.09090868,3082.66666636,4288.12121169,2674.6666664,4913.51515102,2946.66666637,4150.57575716,49.4545454496,4407.6363632,1866.90909072,4162.42424201,1310.54545441,4822.33333285,1743.2727271,4465.8484844,3783.27272689,42.0,42.0,?
2017-08-01 19:33:22.469829,4566.81818136,2344.96969674,4172.21212079,8.2424242416,3875.4848481,3449.45454511,3890.93939355,0.0,4256.69696927,4022.3030299,4452.45454501,3676.12121175,4152.12121171,3082.66666636,4290.18181775,2674.6666664,4917.63636314,2946.66666637,4162.93939352,49.4545454496,4414.84848441,1866.90909072,4161.90909049,1310.54545441,4828.51515103,1743.2727271,4475.12121167,3783.27272689,42.0,42.0,?
2017-08-01 19:33:22.476159,4566.81818136,2344.96969674,4170.15151473,8.2424242416,3875.4848481,3449.45454511,3843.03030265,0.0,4253.09090867,4022.3030299,4448.33333289,3676.12121175,4155.72727231,3082.66666636,4292.24242381,2674.6666664,4921.75757527,2946.66666637,4174.78787837,49.4545454496,4415.87878744,1866.90909072,4159.33333292,1310.54545441,4825.93939346,1743.2727271,4475.63636319,3783.27272689,42.0,42.0,?
2017-08-01 19:33:22.484267,4558.0606056,2344.96969674,4167.06060564,8.2424242416,3875.99999961,3449.45454511,3846.12121174,0.0,4256.18181776,4022.3030299,4449.87878743,3676.12121175,4163.45454504,3082.66666636,4297.39393896,2674.6666664,4932.06060557,2946.66666637,4170.15151473,49.4545454496,4413.30302986,1866.90909072,4161.90909049,1310.54545441,4824.39393891,1743.2727271,4470.99999955,3783.27272689,42.0,42.0,?
2017-08-01 19:33:22.491691,4562.18181773,2344.96969674,4170.66666625,8.2424242416,3878.06060567,3449.45454511,3878.06060567,0.0,4262.87878745,4022.3030299,4453.99999955,3676.12121175,4164.48484807,3082.66666636,4302.0303026,2674.6666664,4952.66666617,2946.66666637,4170.66666625,49.4545454496,4416.39393895,1866.90909072,4167.06060564,1310.54545441,4827.99999952,1743.2727271,4472.03030258,3783.27272689,42.0,42.0,?
2017-08-01 19:33:22.499715,4560.12121167,2344.96969674,4167.06060564,8.2424242416,3882.18181779,3449.45454511,3881.15151476,0.0,4263.90909048,4022.3030299,4452.96969652,3676.12121175,4162.42424201,3082.66666636,4303.57575715,2674.6666664,4960.3939389,2946.66666637,4183.54545413,49.4545454496,4419.99999956,1866.90909072,4165.5151511,1310.54545441,4825.42424194,1743.2727271,4470.48484804,3783.27272689,42.0,42.0,?
2017-08-01 19:33:22.507492,4551.87878742,2344.96969674,4163.45454504,8.2424242416,3882.69696931,3449.45454511,3886.30302991,0.0,4260.81818139,4022.3030299,4448.33333289,3676.12121175,4163.45454504,3082.66666636,4306.15151472,2674.6666664,4946.48484799,2946.66666637,4189.72727231,49.4545454496,4421.5454541,1866.90909072,4162.93939352,1310.54545441,4823.36363588,1743.2727271,4469.45454501,3783.27272689,42.0,42.0,?
