Timestamp,F3 Value,F3 Quality,FC5 Value,FC5 Quality,F7 Value,F7 Quality,T7 Value,T7 Quality,P7 Value,P7 Quality,O1 Value,O1 Quality,O2 Value,O2 Quality,P8 Value,P8 Quality,T8 Value,T8 Quality,F8 Value,F8 Quality,AF4 Value,AF4 Quality,FC6 Value,FC6 Quality,F4 Value,F4 Quality,AF3 Value,AF3 Quality,X Value,Y Value,Z Value
2017-07-31 19:29:35.869857,4612.66666621,0,4290.69696927,0,3845.09090871,0,3940.393939,0,4327.27272684,0,4552.39393894,0,4240.7272723,0,4334.99999957,0,4958.33333284,0,3952.75757536,0,4549.81818136,0,4189.72727231,0,4914.03030254,0,4517.87878743,0,42.0,42.0,?
2017-07-31 19:29:35.870657,4612.66666621,0,4290.69696927,0,3845.09090871,0,3940.393939,0,4327.27272684,0,4552.39393894,0,4240.7272723,0,4334.99999957,0,4958.33333284,0,3952.75757536,0,4549.81818136,0,4189.72727231,0,4914.03030254,0,4517.87878743,0,42.0,42.0,?
2017-07-31 19:29:35.873750,4612.66666621,0,4290.69696927,0,3845.09090871,0,3940.393939,0,4327.27272684,0,4552.39393894,0,4240.7272723,0,4334.99999957,0,4958.33333284,0,3952.75757536,0,4549.81818136,0,4189.72727231,0,4914.03030254,0,4517.87878743,0,42.0,42.0,?
2017-07-31 19:29:35.876992,4602.3636359,0,4270.60606018,0,3824.99999962,0,3942.45454506,0,4310.78787836,0,4543.12121167,0,4245.87878745,0,4354.57575714,0,5002.12121162,0,3947.0909087,0,4543.12121167,0,4185.60606019,0,4907.84848436,0,4504.48484803,0,42.0,42.0,?
2017-07-31 19:29:35.880473,4592.57575712,0,4277.30302988,0,3817.27272689,0,3947.0909087,0,4252.06060564,0,4523.03030258,0,4248.96969654,0,4334.48484805,0,5040.24242374,0,3940.90909052,0,4526.63636318,0,4187.15151473,0,4894.45454497,0,4487.99999955,0,42.0,42.0,?
2017-07-31 19:29:35.883595,4604.42424196,0,4296.36363593,0,3838.39393901,0,3929.06060567,0,4283.48484806,0,4544.66666621,0,4232.48484806,0,4321.09090866,0,5004.18181768,0,3950.18181779,0,4532.81818136,0,4190.75757534,0,4899.60606012,0,4503.454545,0,42.0,42.0,?
2017-07-31 19:29:35.888115,4594.63636318,0,4274.7272723,0,3829.12121174,0,3933.6969693,0,4288.63636321,0,4547.24242379,0,4208.78787837,0,4326.75757532,0,4970.6969692,0,3935.24242385,0,4526.12121167,0,4183.54545413,0,4892.90909042,0,4500.36363591,0,42.0,42.0,?
2017-07-31 19:29:35.891390,4596.18181772,0,4264.424242,0,3831.69696931,0,3982.12121172,0,4293.27272684,0,4541.57575712,0,4227.33333291,0,4344.27272684,0,4986.66666617,0,3944.51515112,0,4531.78787833,0,4189.72727231,0,4897.54545406,0,4504.99999955,0,42.0,42.0,?
2017-07-31 19:29:35.895868,4619.87878742,0,4291.21212078,0,3856.42424204,0,3998.60606021,0,4334.48484805,0,4555.48484803,0,4275.75757533,0,4377.2424238,0,5049.51515101,0,3989.84848445,0,4563.72727227,0,4205.18181776,0,4927.93939345,0,4526.63636318,0,42.0,42.0,?
2017-07-31 19:29:35.899399,4612.66666621,0,4293.78787836,0,3840.96969659,0,3957.90909051,0,4306.15151472,0,4546.72727227,0,4276.78787836,0,4375.18181774,0,5103.6060601,0,3984.6969693,0,4557.54545409,0,4194.87878746,0,4924.33333284,0,4513.75757531,0,42.0,42.0,?
2017-07-31 19:29:35.902671,4586.90909045,0,4269.06060563,0,3816.24242386,0,3927.51515112,0,4245.36363594,0,4522.51515106,0,4231.96969655,0,4328.81818139,0,5031.48484798,0,3943.99999961,0,4523.03030258,0,4178.90909049,0,4890.84848436,0,4487.48484804,0,42.0,42.0,?
2017-07-31 19:29:35.908933,4581.7575753,0,4264.93939351,0,3820.36363598,0,3947.0909087,0,4255.15151473,0,4526.63636318,0,4209.8181814,0,4306.15151472,0,4953.6969692,0,3936.27272688,0,4515.81818137,0,4188.69696928,0,4888.7878783,0,4487.99999955,0,42.0,42.0,?
2017-07-31 19:29:35.911656,4595.15151469,0,4282.96969654,0,3832.21212083,0,3957.393939,0,4297.90909048,0,4543.12121167,0,4219.60606018,0,4333.96969654,0,4987.18181768,0,3952.75757536,0,4530.7575753,0,4195.39393897,0,4904.75757527,0,4500.87878743,0,42.0,42.0,?
2017-07-31 19:29:35.914868,4597.21212075,0,4283.48484806,0,3827.57575719,0,3931.12121173,0,4302.54545412,0,4535.90909046,0,4246.90909048,0,4366.9393935,0,5026.84848435,0,3960.48484809,0,4532.30302985,0,4189.21212079,0,4904.75757527,0,4496.75757531,0,42.0,42.0,?
2017-07-31 19:29:35.918226,4586.39393894,0,4269.06060563,0,3820.36363598,0,3915.66666628,0,4285.54545412,0,4524.57575712,0,4259.78787836,0,4357.15151472,0,5002.12121162,0,3955.84848445,0,4522.51515106,0,4191.78787837,0,4900.12121163,0,4489.03030258,0,42.0,42.0,?
2017-07-31 19:29:35.923046,4588.96969651,0,4276.27272685,0,3829.63636325,0,3956.36363597,0,4282.96969654,0,4534.87878743,0,4235.57575715,0,4327.27272684,0,4978.42424193,0,3954.81818142,0,4521.99999955,0,4193.84848443,0,4899.60606012,0,4496.24242379,0,42.0,42.0,?
2017-07-31 19:29:35.928882,4598.24242378,0,4288.63636321,0,3837.87878749,0,3990.87878748,0,4311.30302987,0,4544.66666621,0,4215.99999958,0,4330.36363593,0,5004.18181768,0,3953.27272688,0,4526.12121167,0,4188.18181776,0,4899.60606012,0,4501.90909046,0,42.0,42.0,?
2017-07-31 19:29:35.940237,4591.54545409,0,4273.18181775,0,3829.12121174,0,3960.9999996,0,4325.21212078,0,4540.03030258,0,4229.90909049,0,4355.09090866,0,5019.63636313,0,3947.60606021,0,4522.51515106,0,4184.57575716,0,4897.03030254,0,4495.72727228,0,42.0,42.0,?
2017-07-31 19:29:35.945874,4584.84848439,0,4266.48484806,0,3824.99999962,0,3935.24242385,0,4296.87878745,0,4539.51515106,0,4243.30302988,0,4349.9393935,0,4989.75757526,0,3944.51515112,0,4518.90909046,0,4188.18181776,0,4892.3939389,0,4491.60606016,0,42.0,42.0,?
2017-07-31 19:29:35.953938,4595.15151469,0,4289.66666624,0,3830.66666628,0,3945.03030264,0,4292.24242381,0,4542.60606015,0,4241.24242382,0,4328.81818139,0,5009.84848435,0,3949.66666627,0,4525.09090864,0,4197.96969655,0,4900.63636315,0,4494.69696925,0,42.0,42.0,?
2017-07-31 19:29:35.960760,4602.3636359,0,4296.36363593,0,3827.57575719,0,3975.42424203,0,4302.54545412,0,4543.12121167,0,4245.87878745,0,4343.24242381,0,5101.03030252,0,3960.48484809,0,4530.7575753,0,4198.48484806,0,4910.93939345,0,4497.27272682,0,42.0,42.0,?
2017-07-31 19:29:35.967957,4579.69696924,0,4270.09090866,0,3802.33333295,0,3963.06060566,0,4231.96969655,0,4518.90909046,0,4227.84848443,0,4328.30302987,0,5028.39393889,0,3938.33333294,0,4508.60606016,0,4186.63636322,0,4890.84848436,0,4476.1515147,0,42.0,42.0,?
2017-07-31 19:29:35.978130,4563.72727227,0,4256.69696927,0,3788.93939356,0,3928.54545415,0,4176.84848443,0,4502.42424197,0,4205.18181776,0,4289.15151472,0,4884.15151466,0,3912.57575718,0,4490.06060561,0,4183.03030261,0,4872.81818133,0,4459.15151471,0,42.0,42.0,?
2017-07-31 19:29:35.987059,4592.0606056,0,4285.54545412,0,3815.21212083,0,3923.393939,0,4258.24242382,0,4538.99999955,0,4226.30302988,0,4317.48484805,0,4988.72727223,0,3941.42424203,0,4515.81818137,0,4193.33333291,0,4899.0909086,0,4483.87878743,0,42.0,42.0,?
2017-07-31 19:29:35.995170,4607.51515105,0,4300.48484805,0,3829.12121174,0,3951.21212082,0,4332.42424199,0,4565.27272682,0,4247.424242,0,4356.6363632,0,5097.42424191,0,3966.66666627,0,4534.87878743,0,4196.93939352,0,4917.63636314,0,4498.81818137,0,42.0,42.0,?
2017-07-31 19:29:35.999976,4591.54545409,0,4280.39393897,0,3823.45454507,0,3991.39393899,0,4309.75757533,0,4552.90909045,0,4236.09090867,0,4342.72727229,0,5003.66666617,0,3952.24242385,0,4519.42424197,0,4190.75757534,0,4899.60606012,0,4491.09090864,0,42.0,42.0,?
2017-07-31 19:29:36.010025,4577.63636318,0,4268.0303026,0,3815.21212083,0,3979.03030263,0,4243.81818139,0,4534.36363591,0,4217.54545412,0,4322.12121169,0,4974.30302981,0,3931.63636324,0,4502.42424197,0,4187.66666625,0,4883.12121163,0,4482.8484844,0,42.0,42.0,?
2017-07-31 19:29:36.015801,4580.21212075,0,4278.84848442,0,3812.12121174,0,3946.06060567,0,4221.15151473,0,4540.03030258,0,4248.96969654,0,4338.09090866,0,5071.66666616,0,3935.75757536,0,4503.96969652,0,4193.84848443,0,4893.42424193,0,4479.75757531,0,42.0,42.0,?
2017-07-31 19:29:36.023058,4599.78787833,0,4292.24242381,0,3830.66666628,0,3943.99999961,0,4301.51515109,0,4567.84848439,0,4298.93939351,0,4360.75757532,0,5047.45454495,0,3966.66666627,0,4528.18181773,0,4196.93939352,0,4920.21212072,0,4499.33333288,0,42.0,42.0,?
2017-07-31 19:29:36.032860,4593.60606015,0,4289.66666624,0,3829.63636325,0,3942.45454506,0,4320.57575714,0,4557.54545409,0,4241.24242382,0,4331.39393896,0,4943.3939389,0,3953.78787839,0,4520.454545,0,4185.60606019,0,4906.81818133,0,4495.21212076,0,42.0,42.0,?
2017-07-31 19:29:36.040433,4579.69696924,0,4287.09090866,0,3824.99999962,0,3941.42424203,0,4268.54545412,0,4537.454545,0,4179.42424201,0,4312.3333329,0,4996.45454495,0,3930.60606021,0,4497.78787834,0,4187.66666625,0,4885.69696921,0,4482.33333289,0,42.0,42.0,?
2017-07-31 19:29:36.047926,4595.66666621,0,4280.39393897,0,3837.36363598,0,3967.6969693,0,4296.87878745,0,4560.63636318,0,4255.66666624,0,4351.48484805,0,5088.66666616,0,3960.48484809,0,4522.51515106,0,4203.1212117,0,4910.42424193,0,4502.93939349,0,42.0,42.0,?
2017-07-31 19:29:36.054565,4589.48484803,0,4272.66666624,0,3820.36363598,0,3976.45454506,0,4274.21212078,0,4557.54545409,0,4292.75757533,0,4357.66666623,0,5043.84848434,0,3959.45454506,0,4523.03030258,0,4196.424242,0,4910.42424193,0,4494.18181773,0,42.0,42.0,?
2017-07-31 19:29:36.064092,4570.93939348,0,4289.66666624,0,3808.51515113,0,3959.45454506,0,4198.48484806,0,4532.81818136,0,4223.21212079,0,4315.42424199,0,4974.81818132,0,3923.393939,0,4489.03030258,0,4185.60606019,0,4880.03030254,0,4467.90909046,0,42.0,42.0,?
2017-07-31 19:29:36.070580,4584.84848439,0,4298.42424199,0,3825.51515113,0,3946.57575718,0,4278.33333291,0,4558.57575712,0,4207.24242382,0,4310.27272684,0,4988.72727223,0,3933.18181779,0,4500.36363591,0,4194.36363594,0,4889.30302981,0,4481.81818137,0,42.0,42.0,?
2017-07-31 19:29:36.079602,4587.42424197,0,4266.99999957,0,3815.21212083,0,3948.12121173,0,4369.51515108,0,4584.33333287,0,4253.09090867,0,4333.45454502,0,5045.9090904,0,3946.06060567,0,4513.75757531,0,4192.8181814,0,4895.484848,0,4490.06060561,0,42.0,42.0,?
2017-07-31 19:29:36.086134,4566.81818136,0,4254.63636321,0,3797.1818178,0,3996.54545415,0,4291.7272723,0,4561.66666621,0,4273.69696927,0,4340.15151472,0,5062.9090904,0,3927.51515112,0,4491.09090864,0,4186.1212117,0,4875.90909042,0,4469.45454501,0,42.0,42.0,?
2017-07-31 19:29:36.095051,4570.93939348,0,4297.90909048,0,3812.63636326,0,4002.72727233,0,4209.8181814,0,4540.54545409,0,4261.33333291,0,4334.99999957,0,4985.12121162,0,3929.57575718,0,4487.99999955,0,4196.93939352,0,4880.54545406,0,4466.87878743,0,42.0,42.0,?
2017-07-31 19:29:36.100952,4602.3636359,0,4317.99999957,0,3831.1818178,0,3910.51515112,0,4274.21212078,0,4563.72727227,0,4255.15151473,0,4342.72727229,0,4956.27272678,0,3959.45454506,0,4519.93939349,0,4198.48484806,0,4905.27272678,0,4493.66666622,0,42.0,42.0,?
2017-07-31 19:29:36.108941,4611.12121166,0,4285.54545412,0,3825.51515113,0,3882.69696931,0,4346.84848441,0,4579.69696924,0,4241.24242382,0,4343.75757532,0,5039.72727222,0,3968.72727233,0,4527.1515147,0,4190.75757534,0,4909.3939389,0,4504.48484803,0,42.0,42.0,?
2017-07-31 19:29:36.119930,4599.27272681,0,4277.30302988,0,3827.57575719,0,3996.54545415,0,4306.66666624,0,4563.72727227,0,4236.09090867,0,4341.18181775,0,5076.81818131,0,3962.54545415,0,4510.66666622,0,4195.39393897,0,4902.18181769,0,4498.81818137,0,42.0,42.0,?
2017-07-31 19:29:36.125726,4596.69696924,0,4300.99999957,0,3832.21212083,0,4025.90909051,0,4249.48484806,0,4554.96969651,0,4273.69696927,0,4349.9393935,0,5024.27272677,0,3961.51515112,0,4509.63636319,0,4196.93939352,0,4905.27272678,0,4496.24242379,0,42.0,42.0,?
2017-07-31 19:29:36.133974,4592.57575712,0,4293.78787836,0,3813.15151477,0,3924.93939355,0,4248.96969654,0,4548.78787833,0,4271.63636321,0,4328.30302987,0,4999.03030253,0,3958.42424203,0,4508.09090864,0,4193.33333291,0,4901.66666618,0,4482.8484844,0,42.0,42.0,?
2017-07-31 19:29:36.144793,4591.54545409,0,4277.81818139,0,3814.1818178,0,3919.27272688,0,4277.30302988,0,4545.69696924,0,4215.99999958,0,4303.57575715,0,5017.57575707,0,3950.6969693,0,4502.93939349,0,4193.33333291,0,4893.42424193,0,4483.36363592,0,42.0,42.0,?
2017-07-31 19:29:36.161404,4590.51515106,0,4284.51515109,0,3826.54545416,0,3984.6969693,0,4294.30302987,0,4560.63636318,0,4196.424242,0,4316.45454502,0,5044.36363586,0,3922.36363597,0,4494.69696925,0,4187.15151473,0,4886.21212072,0,4493.66666622,0,42.0,42.0,?
2017-07-31 19:29:36.164916,4589.99999954,3671.99999963,4287.60606018,0,3817.78787841,0,3981.60606021,0,4310.27272684,0,4580.21212075,0,4248.96969654,0,4343.75757532,0,5065.99999949,0,3919.7878784,0,4499.33333288,0,4190.24242382,0,4891.36363587,0,4491.09090864,0,42.0,42.0,?
2017-07-31 19:29:36.167902,4595.66666621,3671.99999963,4287.09090866,2757.09090882,3816.75757538,0,3957.393939,0,4314.90909048,0,4577.12121166,0,4273.18181775,0,4341.69696926,0,4997.9999995,0,3952.24242385,0,4511.69696925,0,4202.09090867,0,4904.24242375,0,4485.42424198,0,42.0,42.0,?
2017-07-31 19:29:36.176791,4579.18181772,3671.99999963,4281.93939351,2757.09090882,3815.21212083,0,3971.81818142,0,4276.27272685,0,4547.24242379,0,4225.27272685,0,4311.30302987,0,4938.24242375,0,3924.42424203,0,4483.36363592,0,4192.30302988,0,4883.12121163,0,4470.99999955,4034.66666626,42.0,42.0,?
2017-07-31 19:29:36.181260,4563.21212076,3671.99999963,4276.27272685,2757.09090882,3807.99999962,197.818181798,4000.66666627,0,4246.39393897,0,4547.7575753,0,4226.30302988,0,4323.66666623,0,5020.15151465,0,3888.36363597,0,4457.09090865,0,4180.96969655,0,4859.42424194,0,4462.2424238,4034.66666626,42.0,42.0,?
2017-07-31 19:29:36.192478,4578.66666621,3671.99999963,4288.12121169,2757.09090882,3799.24242386,197.818181798,3906.393939,313.212121181,4247.424242,156.60606059,4557.03030257,0,4254.1212117,0,4323.15151472,0,5050.54545404,0,3931.63636324,0,4484.90909046,0,4195.39393897,0,4881.06060557,0,4466.36363592,4034.66666626,42.0,42.0,?
2017-07-31 19:29:36.196918,4578.66666621,3671.99999963,4288.12121169,2757.09090882,3799.24242386,197.818181798,3906.393939,313.212121181,4247.424242,156.60606059,4557.03030257,0,4254.1212117,0,4323.15151472,0,5050.54545404,0,3931.63636324,0,4484.90909046,0,4195.39393897,0,4881.06060557,0,4466.36363592,4034.66666626,42.0,42.0,?
2017-07-31 19:29:36.207338,4581.24242378,3671.99999963,4277.30302988,2757.09090882,3813.66666629,197.818181798,3930.0909087,313.212121181,4272.66666624,156.60606059,4556.51515106,201.939393919,4223.7272723,0,4296.87878745,0,4939.78787829,0,3924.93939355,0,4487.99999955,0,4189.72727231,0,4881.57575709,0,4473.57575713,4034.66666626,42.0,42.0,?
2017-07-31 19:29:36.213018,4588.454545,3671.99999963,4283.99999957,2757.09090882,3838.90909053,197.818181798,3994.9999996,313.212121181,4289.15151472,156.60606059,4572.48484803,201.939393919,4223.7272723,3527.7575754,4313.36363593,0,4952.15151466,0,3923.90909052,0,4493.1515147,0,4191.78787837,0,4886.72727224,0,4486.96969652,4034.66666626,42.0,42.0,?
2017-07-31 19:29:36.229719,4594.63636318,3671.99999963,4303.57575715,2757.09090882,3849.72727234,197.818181798,3993.45454506,313.212121181,4299.45454502,156.60606059,4577.63636318,201.939393919,4246.90909048,3527.7575754,4339.6363632,3090.9090906,5054.66666616,0,3932.66666627,0,4497.27272682,0,4198.48484806,0,4896.51515103,0,4493.1515147,4034.66666626,42.0,42.0,?
2017-07-31 19:29:36.232289,4578.66666621,3671.99999963,4289.66666624,2757.09090882,3828.60606022,197.818181798,3943.99999961,313.212121181,4279.87878745,156.60606059,4555.99999954,201.939393919,4243.81818139,3527.7575754,4329.3333329,3090.9090906,5053.63636313,3099.15151484,3919.7878784,0,4483.87878743,0,4191.78787837,0,4885.69696921,0,4472.5454541,4034.66666626,42.0,42.0,?
2017-07-31 19:29:36.235645,4577.12121166,3671.99999963,4281.424242,2757.09090882,3829.63636325,197.818181798,3926.99999961,313.212121181,4287.09090866,156.60606059,4558.0606056,201.939393919,4229.90909049,3527.7575754,4316.45454502,3090.9090906,4988.72727223,3099.15151484,3915.15151476,181.333333315,4481.30302985,0,4187.66666625,0,4880.54545406,0,4467.39393895,4034.66666626,42.0,42.0,?
2017-07-31 19:29:36.244114,4593.09090863,3671.99999963,4294.81818139,2757.09090882,3858.99999961,197.818181798,3967.18181779,313.212121181,4308.21212078,156.60606059,4577.63636318,201.939393919,4229.90909049,3527.7575754,4326.24242381,3090.9090906,5013.45454495,3099.15151484,3933.6969693,181.333333315,4493.1515147,3651.39393903,4194.87878746,0,4889.81818133,0,4485.42424198,4034.66666626,42.0,42.0,?
2017-07-31 19:29:36.250429,4579.69696924,3671.99999963,4279.36363594,2757.09090882,3849.72727234,197.818181798,3990.87878748,313.212121181,4278.84848442,156.60606059,4562.69696924,201.939393919,4234.03030261,3527.7575754,4321.09090866,3090.9090906,5014.9999995,3099.15151484,3925.96969658,181.333333315,4481.81818137,3651.39393903,4196.93939352,2641.69696943,4884.15151466,0,4471.51515107,4034.66666626,42.0,42.0,?
2017-07-31 19:29:36.258121,4567.33333288,3671.99999963,4268.0303026,2757.09090882,3832.21212083,197.818181798,3965.12121172,313.212121181,4271.12121169,156.60606059,4556.51515106,201.939393919,4247.424242,3527.7575754,4320.57575714,3090.9090906,4990.78787829,3099.15151484,3905.87878749,181.333333315,4471.51515107,3651.39393903,4189.21212079,2641.69696943,4874.87878739,3119.75757545,4458.63636319,4034.66666626,42.0,42.0,?
2017-07-31 19:29:36.265523,4579.69696924,3671.99999963,4297.39393896,2757.09090882,3841.4848481,197.818181798,3948.63636324,313.212121181,4279.36363594,156.60606059,4567.33333288,201.939393919,4255.15151473,3527.7575754,4333.45454502,3090.9090906,5042.81818131,3099.15151484,3906.393939,189.575757557,4475.12121167,3651.39393903,4186.1212117,2641.69696943,4878.484848,3119.75757545,4470.48484804,4034.66666626,42.0,42.0,?
2017-07-31 19:29:36.274439,4570.42424197,3671.99999963,4295.3333329,2757.09090882,3836.84848446,197.818181798,3954.30302991,313.212121181,4231.45454503,156.60606059,4553.42424197,201.939393919,4231.45454503,3527.7575754,4315.42424199,3090.9090906,5019.12121162,3099.15151484,3898.15151476,189.575757557,4463.27272683,3655.51515115,4189.72727231,2641.69696943,4872.30302982,3119.75757545,4458.12121168,4034.66666626,42.0,42.0,?
2017-07-31 19:29:36.281400,4557.03030257,3671.99999963,4263.39393897,2757.09090882,3823.45454507,197.818181798,3949.15151476,313.212121181,4212.90909049,156.60606059,4551.36363591,201.939393919,4231.96969655,3527.7575754,4307.69696927,3090.9090906,4970.18181768,3099.15151484,3895.57575719,189.575757557,4459.15151471,3655.51515115,4193.33333291,2649.93939367,4866.63636315,3119.75757545,4442.66666622,4034.66666626,42.0,42.0,?
2017-07-31 19:29:36.291521,4579.18181772,3671.99999963,4272.66666624,2757.09090882,3827.06060568,197.818181798,3949.66666627,313.212121181,4278.33333291,156.60606059,4580.72727227,201.939393919,4266.99999957,3527.7575754,4334.48484805,3090.9090906,5021.18181768,3099.15151484,3928.03030264,189.575757557,4486.96969652,3655.51515115,4197.45454503,2649.93939367,4890.84848436,3119.75757545,4462.2424238,4034.66666626,42.0,42.0,?
2017-07-31 19:29:36.300051,4591.03030257,3671.99999963,4297.90909048,2757.09090882,3832.21212083,197.818181798,3979.03030263,313.212121181,4304.09090866,156.60606059,4585.36363591,201.939393919,4249.48484806,3527.7575754,4332.42424199,3090.9090906,5037.15151465,3099.15151484,3933.6969693,189.575757557,4496.75757531,3655.51515115,4191.78787837,2649.93939367,4900.63636315,3119.75757545,4477.69696925,4034.66666626,42.0,42.0,?
2017-07-31 19:29:36.308295,4578.15151469,3671.99999963,4291.7272723,2757.09090882,3831.1818178,197.818181798,3992.42424203,313.212121181,4281.424242,156.60606059,4575.0606056,201.939393919,4210.84848443,3527.7575754,4322.6363632,3090.9090906,5005.72727223,3099.15151484,3898.15151476,189.575757557,4479.24242379,3655.51515115,4185.60606019,2649.93939367,4881.06060557,3119.75757545,4470.99999955,4034.66666626,42.0,42.0,?
2017-07-31 19:29:36.312846,4567.33333288,3671.99999963,4271.63636321,2757.09090882,3820.8787875,197.818181798,3965.63636324,313.212121181,4285.54545412,156.60606059,4582.78787833,201.939393919,4218.06060564,3527.7575754,4337.06060563,3090.9090906,5010.36363586,3099.15151484,3882.18181779,189.575757557,4469.96969652,3655.51515115,4191.27272685,2649.93939367,4874.36363588,3119.75757545,4461.72727228,4034.66666626,42.0,42.0,?
2017-07-31 19:29:36.320641,4570.42424197,3671.99999963,4277.30302988,2757.09090882,3814.69696932,197.818181798,3937.81818142,313.212121181,4273.69696927,156.60606059,4581.7575753,201.939393919,4247.93939351,3527.7575754,4349.42424199,3090.9090906,5052.09090859,3099.15151484,3899.69696931,189.575757557,4473.06060561,3655.51515115,4195.39393897,2649.93939367,4882.0909086,3119.75757545,4457.09090865,4034.66666626,42.0,42.0,?
2017-07-31 19:29:36.327962,4576.09090863,3671.99999963,4298.93939351,2757.09090882,3814.69696932,197.818181798,3949.66666627,313.212121181,4244.84848442,156.60606059,4569.90909045,201.939393919,4259.78787836,3527.7575754,4349.42424199,3090.9090906,5029.93939344,3099.15151484,3907.93939355,189.575757557,4478.21212076,3655.51515115,4193.33333291,2649.93939367,4887.24242375,3119.75757545,4458.12121168,4034.66666626,42.0,42.0,?
2017-07-31 19:29:36.337339,4565.78787833,3671.99999963,4291.21212078,2757.09090882,3802.84848447,197.818181798,3982.63636324,313.212121181,4239.18181776,156.60606059,4570.93939348,201.939393919,4246.39393897,3527.7575754,4339.6363632,3090.9090906,4965.54545405,3099.15151484,3890.93939355,189.575757557,4470.48484804,3655.51515115,4190.24242382,2649.93939367,4878.99999951,3119.75757545,4452.96969652,4034.66666626,42.0,42.0,?
2017-07-31 19:29:36.344692,4558.57575712,3671.99999963,4274.21212078,2757.09090882,3799.24242386,197.818181798,3958.42424203,313.212121181,4246.39393897,156.60606059,4578.15151469,201.939393919,4242.78787836,3527.7575754,4330.36363593,3090.9090906,4980.48484799,3099.15151484,3886.30302991,189.575757557,4462.2424238,3655.51515115,4191.27272685,2649.93939367,4873.33333285,3119.75757545,4450.90909046,4034.66666626,42.0,42.0,?
2017-07-31 19:29:36.350955,4575.57575712,3671.99999963,4291.21212078,2757.09090882,3819.84848447,197.818181798,3909.48484809,313.212121181,4269.57575715,156.60606059,4584.84848439,201.939393919,4247.93939351,3527.7575754,4334.48484805,3090.9090906,5037.15151465,3099.15151484,3898.66666628,189.575757557,4475.12121167,3655.51515115,4192.30302988,2649.93939367,4882.60606012,3119.75757545,4464.30302986,4034.66666626,42.0,42.0,?
2017-07-31 19:29:36.360903,4597.21212075,3671.99999963,4308.7272723,2757.09090882,3841.4848481,197.818181798,3952.75757536,313.212121181,4301.51515109,156.60606059,4593.60606015,201.939393919,4244.84848442,3527.7575754,4351.48484805,3090.9090906,5047.45454495,3099.15151484,3908.96969658,189.575757557,4492.12121167,3655.51515115,4190.75757534,2649.93939367,4893.93939345,3119.75757545,4481.81818137,4034.66666626,42.0,42.0,?
2017-07-31 19:29:36.366884,4579.18181772,3671.99999963,4281.424242,2757.09090882,3822.93939356,197.818181798,3997.57575718,313.212121181,4270.60606018,156.60606059,4578.15151469,201.939393919,4242.27272685,3527.7575754,4347.87878744,3090.9090906,5044.36363586,3099.15151484,3902.7878784,189.575757557,4478.72727228,3655.51515115,4189.21212079,2649.93939367,4887.24242375,3119.75757545,4464.81818137,4034.66666626,42.0,42.0,?
2017-07-31 19:29:36.376331,4551.87878742,3671.99999963,4266.48484806,2757.09090882,3803.36363598,197.818181798,3943.48484809,313.212121181,4206.21212079,156.60606059,4557.54545409,201.939393919,4234.03030261,3527.7575754,4314.90909048,3090.9090906,5033.03030253,3099.15151484,3882.69696931,189.575757557,4453.48484804,3655.51515115,4189.21212079,2649.93939367,4869.21212073,3119.75757545,4435.45454501,4034.66666626,42.0,42.0,?
2017-07-31 19:29:36.383710,4566.81818136,3671.99999963,4298.42424199,2757.09090882,3834.27272689,197.818181798,3941.93939355,313.212121181,4209.30302988,156.60606059,4570.42424197,201.939393919,4213.424242,3527.7575754,4299.45454502,3090.9090906,4976.87878738,3099.15151484,3877.54545416,189.575757557,4458.63636319,3655.51515115,4189.72727231,2649.93939367,4869.72727224,3119.75757545,4452.45454501,4034.66666626,42.0,42.0,?
2017-07-31 19:29:36.391476,4578.66666621,3671.99999963,4303.57575715,2757.09090882,3844.57575719,197.818181798,3992.93939354,313.212121181,4244.33333291,156.60606059,4581.24242378,201.939393919,4206.72727231,3527.7575754,4322.6363632,3090.9090906,4977.90909041,3099.15151484,3887.84848446,189.575757557,4472.03030258,3655.51515115,4191.78787837,2649.93939367,4879.51515103,3119.75757545,4465.8484844,4034.66666626,42.0,42.0,?
2017-07-31 19:29:36.398879,4567.84848439,3671.99999963,4279.36363594,2757.09090882,3821.90909053,197.818181798,3949.15151476,313.212121181,4259.78787836,156.60606059,4584.84848439,201.939393919,4239.69696927,3527.7575754,4351.48484805,3090.9090906,5052.09090859,3099.15151484,3904.84848446,189.575757557,4475.12121167,3655.51515115,4195.39393897,2649.93939367,4883.12121163,3119.75757545,4450.90909046,4034.66666626,42.0,42.0,?
2017-07-31 19:29:36.409237,4566.81818136,3671.99999963,4282.45454503,2757.09090882,3823.96969659,197.818181798,3892.4848481,313.212121181,4268.0303026,156.60606059,4589.99999954,201.939393919,4257.7272723,3527.7575754,4348.39393896,3090.9090906,5063.42424192,3099.15151484,3903.30302991,189.575757557,4474.60606016,3655.51515115,4193.33333291,2649.93939367,4883.12121163,3119.75757545,4449.87878743,4034.66666626,42.0,42.0,?
2017-07-31 19:29:36.413940,4557.54545409,3671.99999963,4286.06060563,2757.09090882,3821.39393901,197.818181798,3933.6969693,313.212121181,4228.87878746,156.60606059,4571.454545,201.939393919,4231.45454503,3527.7575754,4320.06060563,3090.9090906,5030.96969647,3099.15151484,3870.84848446,189.575757557,4454.51515107,3655.51515115,4184.06060564,2649.93939367,4866.12121163,3119.75757545,4439.57575713,4034.66666626,42.0,42.0,?
2017-07-31 19:29:36.422488,4548.78787833,3671.99999963,4275.75757533,2757.09090882,3811.60606022,197.818181798,3982.12121172,313.212121181,4204.15151473,156.60606059,4565.78787833,201.939393919,4207.24242382,3527.7575754,4312.3333329,3090.9090906,5010.36363586,3099.15151484,3863.12121173,189.575757557,4443.18181774,3655.51515115,4180.96969655,2649.93939367,4852.21212073,3119.75757545,4426.69696925,4034.66666626,42.0,42.0,?
2017-07-31 19:29:36.431661,4560.12121167,3671.99999963,4283.48484806,2757.09090882,3818.81818144,197.818181798,3936.78787839,313.212121181,4245.36363594,156.60606059,4578.66666621,201.939393919,4201.06060564,3527.7575754,4319.0303026,3090.9090906,4984.60606011,3099.15151484,3877.54545416,189.575757557,4454.51515107,3655.51515115,4187.66666625,2649.93939367,4862.51515103,3119.75757545,4431.84848441,4034.66666626,42.0,42.0,?
2017-07-31 19:29:36.437479,4564.7575753,3671.99999963,4293.78787836,2757.09090882,3818.30302992,197.818181798,3892.99999961,313.212121181,4246.39393897,156.60606059,4570.42424197,201.939393919,4213.424242,3527.7575754,4324.69696926,3090.9090906,5000.57575708,3099.15151484,3879.0909087,189.575757557,4459.15151471,3655.51515115,4195.90909049,2649.93939367,4871.27272679,3119.75757545,4436.99999956,4034.66666626,42.0,42.0,?
2017-07-31 19:29:36.446576,4557.54545409,3671.99999963,4282.96969654,2757.09090882,3806.45454507,197.818181798,3911.03030264,313.212121181,4224.75757534,156.60606059,4568.87878742,201.939393919,4224.24242382,3527.7575754,4331.39393896,3090.9090906,5063.42424192,3099.15151484,3877.03030264,189.575757557,4458.12121168,3655.51515115,4192.8181814,2649.93939367,4869.21212073,3119.75757545,4434.9393935,4034.66666626,42.0,42.0,?
2017-07-31 19:29:36.456642,4554.96969651,3671.99999963,4280.90909048,2757.09090882,3805.93939356,197.818181798,3926.99999961,313.212121181,4243.30302988,156.60606059,4575.0606056,201.939393919,4211.87878746,3527.7575754,4322.6363632,3090.9090906,5064.96969646,3099.15151484,3869.30302992,189.575757557,4453.99999955,3655.51515115,4185.09090867,2649.93939367,4866.12121163,3119.75757545,4430.30302986,4034.66666626,42.0,42.0,?
2017-07-31 19:29:36.460868,4555.48484803,3671.99999963,4291.21212078,2757.09090882,3815.21212083,197.818181798,3941.93939355,313.212121181,4224.24242382,156.60606059,4560.63636318,201.939393919,4212.39393897,3527.7575754,4321.60606017,3090.9090906,5000.57575708,3099.15151484,3870.84848446,189.575757557,4452.45454501,3655.51515115,4192.8181814,2649.93939367,4869.21212073,3119.75757545,4428.75757531,4034.66666626,42.0,42.0,?
2017-07-31 19:29:36.468884,4545.69696924,3671.99999963,4280.90909048,2757.09090882,3807.99999962,197.818181798,3947.60606021,313.212121181,4170.66666625,156.60606059,4547.24242379,201.939393919,4218.57575715,3527.7575754,4320.57575714,3090.9090906,4979.45454496,3099.15151484,3875.99999961,189.575757557,4449.87878743,3655.51515115,4202.09090867,2649.93939367,4867.66666618,3119.75757545,4419.99999956,4034.66666626,42.0,42.0,?
2017-07-31 19:29:36.479037,4558.0606056,3671.99999963,4283.99999957,2757.09090882,3813.66666629,197.818181798,3932.66666627,313.212121181,4219.60606018,156.60606059,4574.54545409,201.939393919,4219.09090867,3527.7575754,4318.51515108,3090.9090906,5054.66666616,3099.15151484,3880.63636325,189.575757557,4460.18181774,3655.51515115,4195.90909049,2649.93939367,4872.30302982,3119.75757545,4433.39393895,4034.66666626,42.0,42.0,?
2017-07-31 19:29:36.484331,4583.30302984,3671.99999963,4310.27272684,2757.09090882,3838.39393901,197.818181798,3902.27272688,313.212121181,4298.93939351,156.60606059,4595.66666621,201.939393919,4217.54545412,3527.7575754,4331.90909048,3090.9090906,5074.24242374,3099.15151484,3884.24242385,189.575757557,4476.66666622,3655.51515115,4186.1212117,2649.93939367,4880.03030254,3119.75757545,4459.66666622,4034.66666626,42.0,42.0,?
2017-07-31 19:29:36.491951,4551.36363591,3671.99999963,4292.75757533,2757.09090882,3819.33333295,197.818181798,3888.87878749,313.212121181,4209.8181814,156.60606059,4553.93939348,201.939393919,4189.72727231,3527.7575754,4305.12121169,3090.9090906,4954.21212072,3099.15151484,3860.54545416,189.575757557,4451.93939349,3655.51515115,4188.69696928,2649.93939367,4857.36363588,3119.75757545,4426.18181774,4034.66666626,42.0,42.0,?
2017-07-31 19:29:36.501713,4528.18181773,3671.99999963,4259.78787836,2757.09090882,3802.33333295,197.818181798,3926.48484809,313.212121181,4142.84848443,156.60606059,4540.54545409,201.939393919,4195.90909049,3527.7575754,4289.66666624,3090.9090906,4932.57575708,3099.15151484,3856.42424204,189.575757557,4437.51515107,3655.51515115,4196.93939352,2649.93939367,4852.21212073,3119.75757545,4397.33333289,4034.66666626,42.0,42.0,?
2017-07-31 19:29:36.508568,4554.454545,3671.99999963,4282.45454503,2757.09090882,3824.4848481,197.818181798,3939.87878748,313.212121181,4214.96969655,156.60606059,4570.42424197,201.939393919,4237.63636321,3527.7575754,4328.81818139,3090.9090906,5050.03030253,3099.15151484,3869.30302992,189.575757557,4455.5454541,3655.51515115,4189.21212079,2649.93939367,4874.36363588,3119.75757545,4422.57575713,4034.66666626,42.0,42.0,?
2017-07-31 19:29:36.516188,4557.03030257,3671.99999963,4308.7272723,2757.09090882,3826.03030265,197.818181798,3894.03030264,313.212121181,4226.30302988,156.60606059,4565.27272682,201.939393919,4251.03030261,3527.7575754,4343.75757532,3090.9090906,5087.63636313,3099.15151484,3861.06060567,189.575757557,4452.45454501,3655.51515115,4185.60606019,2649.93939367,4869.72727224,3119.75757545,4425.66666622,4034.66666626,42.0,42.0,?
2017-07-31 19:29:36.524333,4534.87878743,3671.99999963,4261.33333291,2757.09090882,3805.93939356,197.818181798,3900.72727234,313.212121181,4176.84848443,156.60606059,4549.30302985,201.939393919,4253.09090867,3527.7575754,4312.3333329,3090.9090906,5031.9999995,3099.15151484,3861.06060567,189.575757557,4441.12121168,3655.51515115,4197.45454503,2649.93939367,4856.84848436,3119.75757545,4400.9393935,4034.66666626,42.0,42.0,?
2017-07-31 19:29:36.538296,4555.48484803,3671.99999963,4283.48484806,2757.09090882,3832.72727234,197.818181798,3923.90909052,313.212121181,4210.84848443,156.60606059,4560.12121167,201.939393919,4239.69696927,3527.7575754,4311.30302987,3090.9090906,4990.78787829,3099.15151484,3861.06060567,189.575757557,4453.99999955,3655.51515115,4186.63636322,2649.93939367,4868.69696921,3119.75757545,4422.06060562,4034.66666626,42.0,42.0,?
2017-07-31 19:29:36.540368,4550.33333288,3671.99999963,4290.69696927,2757.09090882,3825.51515113,197.818181798,3852.81818143,313.212121181,4187.66666625,156.60606059,4560.12121167,201.939393919,4235.06060564,3527.7575754,4329.3333329,3090.9090906,5000.57575708,3099.15151484,3855.39393901,189.575757557,4444.21212077,3655.51515115,4186.1212117,2649.93939367,4857.36363588,3119.75757545,4422.06060562,4034.66666626,42.0,42.0,?
2017-07-31 19:29:36.548672,4550.33333288,3671.99999963,4290.69696927,2757.09090882,3825.51515113,197.818181798,3852.81818143,313.212121181,4187.66666625,156.60606059,4553.42424197,201.939393919,4235.06060564,3527.7575754,4329.3333329,3090.9090906,5000.57575708,3099.15151484,3855.39393901,189.575757557,4444.21212077,3655.51515115,4186.1212117,2649.93939367,4857.36363588,3119.75757545,4418.45454501,4034.66666626,42.0,42.0,?
2017-07-31 19:29:36.555158,4537.96969652,3671.99999963,4277.30302988,2757.09090882,3812.63636326,197.818181798,3867.75757537,313.212121181,4180.45454504,156.60606059,4552.90909045,201.939393919,4236.09090867,3527.7575754,4315.42424199,3090.9090906,5010.36363586,3099.15151484,3861.57575719,189.575757557,4441.63636319,3655.51515115,4194.36363594,2649.93939367,4853.75757527,3119.75757545,4402.48484804,4034.66666626,42.0,42.0,?
2017-07-31 19:29:36.562961,4547.7575753,3671.99999963,4283.99999957,2757.09090882,3830.66666628,197.818181798,3910.51515112,313.212121181,4210.84848443,156.60606059,4561.66666621,201.939393919,4261.33333291,3527.7575754,4312.3333329,3090.9090906,5053.12121162,3099.15151484,3878.06060567,189.575757557,4456.06060561,3655.51515115,4195.39393897,2649.93939367,4868.1818177,3119.75757545,4408.66666623,4034.66666626,42.0,42.0,?
2017-07-31 19:29:36.569929,4550.33333288,3671.99999963,4288.63636321,2757.09090882,3838.90909053,197.818181798,3903.30302991,313.212121181,4206.72727231,156.60606059,4554.96969651,201.939393919,4265.96969654,3527.7575754,4316.96969654,3090.9090906,5033.03030253,3099.15151484,3875.4848481,189.575757557,4453.48484804,3655.51515115,4192.30302988,2649.93939367,4870.24242376,3119.75757545,4414.33333289,4034.66666626,42.0,42.0,?
2017-07-31 19:29:36.578663,4531.27272682,3671.99999963,4268.54545412,2757.09090882,3821.39393901,197.818181798,3902.7878784,313.212121181,4165.5151511,156.60606059,4550.84848439,201.939393919,4215.99999958,3527.7575754,4302.0303026,3090.9090906,4941.84848435,3099.15151484,3846.63636325,189.575757557,4428.2424238,3655.51515115,4183.54545413,2649.93939367,4844.99999952,3119.75757545,4401.96969653,4034.66666626,42.0,42.0,?
2017-07-31 19:29:36.586072,4523.54545409,3671.99999963,4262.87878745,2757.09090882,3810.06060568,197.818181798,3889.90909052,313.212121181,4150.06060565,156.60606059,4556.51515106,201.939393919,4212.90909049,3527.7575754,4306.66666624,3090.9090906,4969.15151465,3099.15151484,3835.30302992,189.575757557,4421.03030259,3655.51515115,4184.57575716,2649.93939367,4835.72727224,3119.75757545,4391.66666623,4034.66666626,42.0,42.0,?
2017-07-31 19:29:36.594163,4540.54545409,3671.99999963,4283.99999957,2757.09090882,3821.39393901,197.818181798,3865.1818178,313.212121181,4183.03030261,156.60606059,4556.51515106,201.939393919,4271.12121169,3527.7575754,4328.81818139,3090.9090906,5071.66666616,3099.15151484,3862.60606022,189.575757557,4441.63636319,3655.51515115,4195.90909049,2649.93939367,4859.42424194,3119.75757545,4405.06060562,4034.66666626,42.0,42.0,?
2017-07-31 19:29:36.602344,4546.72727227,3671.99999963,4287.09090866,2757.09090882,3833.75757537,197.818181798,3897.63636325,313.212121181,4190.75757534,156.60606059,4555.99999954,201.939393919,4252.06060564,3527.7575754,4307.18181775,3090.9090906,5009.84848435,3099.15151484,3874.96969658,189.575757557,4444.72727228,3655.51515115,4191.78787837,2649.93939367,4862.51515103,3119.75757545,4413.81818138,4034.66666626,42.0,42.0,?
2017-07-31 19:29:36.609764,4544.66666621,3671.99999963,4274.7272723,2757.09090882,3835.81818143,197.818181798,3911.03030264,313.212121181,4196.424242,156.60606059,4568.36363591,201.939393919,4198.48484806,3527.7575754,4296.36363593,3090.9090906,4911.96969648,3099.15151484,3865.69696931,189.575757557,4441.63636319,3655.51515115,4187.15151473,2649.93939367,4854.27272679,3119.75757545,4414.33333289,4034.66666626,42.0,42.0,?
2017-07-31 19:29:36.617494,4545.18181773,3671.99999963,4275.75757533,2757.09090882,3827.57575719,197.818181798,3878.06060567,313.212121181,4223.21212079,156.60606059,4566.30302985,201.939393919,4234.03030261,3527.7575754,4334.48484805,3090.9090906,5003.15151465,3099.15151484,3867.75757537,189.575757557,4443.18181774,3655.51515115,4192.30302988,2649.93939367,4857.87878739,3119.75757545,4415.36363592,4034.66666626,42.0,42.0,?
2017-07-31 19:29:36.629409,4529.21212076,3671.99999963,4275.75757533,2757.09090882,3810.57575719,197.818181798,3862.60606022,313.212121181,4195.39393897,156.60606059,4541.06060561,201.939393919,4265.45454503,3527.7575754,4333.45454502,3090.9090906,5093.81818131,3099.15151484,3865.1818178,189.575757557,4429.27272683,3655.51515115,4192.30302988,2649.93939367,4847.06060558,3119.75757545,4395.78787835,4034.66666626,42.0,42.0,?
2017-07-31 19:29:36.637328,4561.1515147,3671.99999963,4286.57575715,2757.09090882,3857.96969658,197.818181798,3900.21212082,313.212121181,4205.69696928,156.60606059,4581.7575753,201.939393919,4272.15151472,3527.7575754,4343.75757532,3090.9090906,5049.51515101,3099.15151484,3911.03030264,189.575757557,4466.36363592,3655.51515115,4196.424242,2649.93939367,4870.24242376,3119.75757545,4433.90909047,4034.66666626,42.0,42.0,?
2017-07-31 19:29:36.641972,4535.39393894,3671.99999963,4265.96969654,2757.09090882,3819.84848447,197.818181798,3837.87878749,313.212121181,4202.09090867,156.60606059,4555.48484803,201.939393919,4217.03030261,3527.7575754,4305.63636321,3090.9090906,4925.87878739,3099.15151484,3864.15151477,189.575757557,4433.90909047,3655.51515115,4185.09090867,2649.93939367,4854.27272679,3119.75757545,4402.48484804,4034.66666626,42.0,42.0,?
2017-07-31 19:29:36.649323,4468.93939349,3671.99999963,4246.90909048,2757.09090882,3744.63636326,197.818181798,3794.09090871,313.212121181,4140.78787837,156.60606059,4485.42424198,201.939393919,4154.18181777,3527.7575754,4237.63636321,3090.9090906,4886.21212072,3099.15151484,3772.45454508,189.575757557,4356.6363632,3655.51515115,4186.1212117,2649.93939367,4798.63636316,3119.75757545,4323.15151472,4034.66666626,42.0,42.0,?
2017-07-31 19:29:36.657101,4605.96969651,3671.99999963,4307.18181775,2757.09090882,3922.87878749,197.818181798,4016.12121172,313.212121181,4252.06060564,156.60606059,4632.75757529,201.939393919,4313.36363593,3527.7575754,4411.2424238,3090.9090906,5096.9090904,3099.15151484,3953.78787839,189.575757557,4512.72727228,3655.51515115,4208.78787837,2649.93939367,4897.54545406,3119.75757545,4494.69696925,4034.66666626,42.0,42.0,?
2017-07-31 19:29:36.669133,4610.60606014,3742.06060569,4287.09090866,2757.09090882,3911.03030264,197.818181798,3989.84848445,313.212121181,4256.69696927,156.60606059,4628.12121166,201.939393919,4329.84848442,3527.7575754,4424.63636319,3090.9090906,5121.63636312,3099.15151484,3965.12121172,189.575757557,4524.06060561,3655.51515115,4184.06060564,2649.93939367,4911.96969648,3119.75757545,4494.69696925,4034.66666626,42.0,42.0,?
2017-07-31 19:29:36.676010,4485.93939349,3742.06060569,4238.66666624,2790.06060578,3756.48484811,197.818181798,3787.90909053,313.212121181,4169.63636322,156.60606059,4496.75757531,201.939393919,4197.96969655,3527.7575754,4261.33333291,3090.9090906,4967.60606011,3099.15151484,3805.93939356,189.575757557,4384.96969653,3655.51515115,4179.42424201,2649.93939367,4822.33333285,3119.75757545,4338.09090866,4034.66666626,42.0,42.0,?
2017-07-31 19:29:36.680344,4551.36363591,3742.06060569,4280.90909048,2790.06060578,3850.24242386,197.818181798,3869.81818143,313.212121181,4230.93939352,156.60606059,4563.21212076,201.939393919,4247.424242,3527.7575754,4326.75757532,3090.9090906,5011.90909041,3099.15151484,3879.0909087,189.575757557,4449.36363592,3655.51515115,4194.36363594,2649.93939367,4856.33333285,3119.75757545,4422.57575713,4112.96969656,42.0,42.0,?
2017-07-31 19:29:36.693886,4554.96969651,3742.06060569,4274.21212078,2790.06060578,3851.27272689,234.909090886,3913.0909087,313.212121181,4224.24242382,156.60606059,4566.81818136,201.939393919,4214.45454503,3527.7575754,4332.93939351,3090.9090906,5000.57575708,3099.15151484,3868.7878784,189.575757557,4443.18181774,3655.51515115,4179.42424201,2649.93939367,4850.15151467,3119.75757545,4426.69696925,4112.96969656,42.0,42.0,?
2017-07-31 19:29:36.695712,4522.51515106,3742.06060569,4254.1212117,2790.06060578,3802.84848447,234.909090886,3880.12121173,445.090909046,4243.81818139,156.60606059,4551.87878742,201.939393919,4208.27272685,3527.7575754,4309.24242381,3090.9090906,4976.87878738,3099.15151484,3836.33333295,189.575757557,4412.78787835,3655.51515115,4192.30302988,2649.93939367,4838.81818133,3119.75757545,4381.36363593,4112.96969656,42.0,42.0,?
2017-07-31 19:29:36.703421,4535.90909046,3742.06060569,4265.45454503,2790.06060578,3813.66666629,234.909090886,3853.84848446,445.090909046,4240.21212079,379.151515114,4564.24242379,201.939393919,4270.60606018,3527.7575754,4337.57575714,3090.9090906,5010.87878738,3099.15151484,3867.75757537,189.575757557,4433.39393895,3655.51515115,4193.33333291,2649.93939367,4851.1818177,3119.75757545,4389.60606017,4112.96969656,42.0,42.0,?
2017-07-31 19:29:36.711078,4524.06060561,3742.06060569,4255.66666624,2790.06060578,3796.66666629,234.909090886,3839.42424204,445.090909046,4180.45454504,379.151515114,4541.57575712,263.757575731,4236.09090867,3527.7575754,4316.96969654,3090.9090906,5006.75757526,3099.15151484,3855.39393901,189.575757557,4418.45454501,3655.51515115,4185.60606019,2649.93939367,4838.30302982,3119.75757545,4377.2424238,4112.96969656,42.0,42.0,?
2017-07-31 19:29:36.720368,4549.30302985,3742.06060569,4262.87878745,2790.06060578,3824.4848481,234.909090886,3885.7878784,445.090909046,4240.7272723,379.151515114,4566.81818136,263.757575731,4232.48484806,3482.42424208,4334.48484805,3090.9090906,5013.96969647,3099.15151484,3889.90909052,189.575757557,4452.45454501,3655.51515115,4200.54545413,2649.93939367,4869.72727224,3119.75757545,4416.39393895,4112.96969656,42.0,42.0,?
2017-07-31 19:29:36.729677,4564.7575753,3742.06060569,4282.96969654,2790.06060578,3839.42424204,234.909090886,3879.0909087,445.090909046,4284.51515109,379.151515114,4570.42424197,263.757575731,4238.15151473,3482.42424208,4340.15151472,3099.15151484,4963.48484799,3099.15151484,3908.96969658,189.575757557,4474.09090864,3655.51515115,4202.60606019,2649.93939367,4885.18181769,3119.75757545,4432.36363592,4112.96969656,42.0,42.0,?
2017-07-31 19:29:36.735418,4547.7575753,3742.06060569,4271.12121169,2790.06060578,3827.06060568,234.909090886,3857.96969658,445.090909046,4241.75757533,379.151515114,4539.51515106,263.757575731,4218.06060564,3482.42424208,4330.36363593,3099.15151484,4975.33333284,3148.60606029,3890.93939355,189.575757557,4452.96969652,3655.51515115,4187.66666625,2649.93939367,4861.99999951,3119.75757545,4410.21212077,4112.96969656,42.0,42.0,?
2017-07-31 19:29:36.744692,4524.57575712,3742.06060569,4245.87878745,2790.06060578,3809.03030265,234.909090886,3858.99999961,445.090909046,4166.03030261,379.151515114,4514.27272682,263.757575731,4201.06060564,3482.42424208,4319.54545411,3099.15151484,5053.63636313,3148.60606029,3874.96969658,210.181818161,4424.12121168,3655.51515115,4187.66666625,2649.93939367,4841.39393891,3119.75757545,4389.09090865,4112.96969656,42.0,42.0,?
2017-07-31 19:29:36.750971,4530.7575753,3742.06060569,4258.75757533,2790.06060578,3807.4848481,234.909090886,3853.84848446,445.090909046,4151.09090868,379.151515114,4516.33333288,263.757575731,4209.30302988,3482.42424208,4306.66666624,3099.15151484,5023.24242374,3148.60606029,3883.21212082,210.181818161,4429.27272683,3787.39393902,4200.03030261,2649.93939367,4852.21212073,3119.75757545,4393.21212077,4112.96969656,42.0,42.0,?
2017-07-31 19:29:36.759588,4563.21212076,3742.06060569,4281.424242,2790.06060578,3832.21212083,234.909090886,3870.33333295,445.090909046,4231.45454503,379.151515114,4548.27272682,263.757575731,4232.99999958,3482.42424208,4320.06060563,3099.15151484,4980.9999995,3148.60606029,3904.84848446,210.181818161,4461.72727228,3787.39393902,4194.36363594,2641.69696943,4874.87878739,3119.75757545,4424.12121168,4112.96969656,42.0,42.0,?
2017-07-31 19:29:36.766523,4570.42424197,3742.06060569,4274.21212078,2790.06060578,3838.90909053,234.909090886,3889.90909052,445.090909046,4283.48484806,379.151515114,4572.99999954,263.757575731,4243.81818139,3482.42424208,4354.06060563,3099.15151484,5039.21212071,3148.60606029,3913.0909087,210.181818161,4471.51515107,3787.39393902,4191.27272685,2641.69696943,4878.99999951,3136.24242393,4432.36363592,4112.96969656,42.0,42.0,?
2017-07-31 19:29:36.777682,4547.7575753,3742.06060569,4260.81818139,2790.06060578,3815.72727235,234.909090886,3863.12121173,445.090909046,4224.75757534,379.151515114,4553.42424197,263.757575731,4227.33333291,3482.42424208,4350.96969653,3099.15151484,5047.96969646,3148.60606029,3904.33333294,210.181818161,4450.90909046,3787.39393902,4198.99999958,2641.69696943,4868.69696921,3136.24242393,4401.45454501,4112.96969656,42.0,42.0,?
2017-07-31 19:29:36.781827,4541.06060561,3742.06060569,4261.33333291,2790.06060578,3805.93939356,234.909090886,3832.72727234,445.090909046,4187.15151473,379.151515114,4525.60606015,263.757575731,4194.87878746,3482.42424208,4309.75757533,3099.15151484,4959.87878738,3148.60606029,3896.0909087,210.181818161,4440.60606016,3779.15151477,4195.39393897,2641.69696943,4861.99999951,3136.24242393,4382.39393896,4112.96969656,42.0,42.0,?
2017-07-31 19:29:36.790784,4548.27272682,3742.06060569,4261.84848442,2790.06060578,3815.21212083,234.909090886,3853.84848446,445.090909046,4226.30302988,379.151515114,4532.81818136,263.757575731,4192.8181814,3482.42424208,4303.57575715,3099.15151484,4935.66666617,3148.60606029,3891.96969658,210.181818161,4448.33333289,3779.15151477,4187.66666625,2641.69696943,4859.93939345,3136.24242393,4390.12121168,4112.96969656,42.0,42.0,?
2017-07-31 19:29:36.796892,4538.48484803,3742.06060569,4260.81818139,2790.06060578,3815.72727235,234.909090886,3882.18181779,445.090909046,4232.48484806,379.151515114,4547.7575753,263.757575731,4200.54545413,3482.42424208,4322.12121169,3099.15151484,5012.93939344,3148.60606029,3880.63636325,210.181818161,4436.99999956,3779.15151477,4186.63636322,2641.69696943,4849.63636315,3136.24242393,4384.96969653,4112.96969656,42.0,42.0,?
2017-07-31 19:29:36.807208,4521.99999955,3742.06060569,4255.66666624,2790.06060578,3804.90909053,234.909090886,3855.90909052,445.090909046,4212.39393897,379.151515114,4535.90909046,263.757575731,4183.03030261,3482.42424208,4307.69696927,3099.15151484,5019.63636313,3148.60606029,3870.33333295,210.181818161,4413.81818138,3779.15151477,4189.72727231,2641.69696943,4838.81818133,3136.24242393,4364.36363593,4112.96969656,42.0,42.0,?
2017-07-31 19:29:36.813763,4524.06060561,3742.06060569,4247.424242,2790.06060578,3809.03030265,234.909090886,3842.51515113,445.090909046,4219.09090867,379.151515114,4529.21212076,263.757575731,4175.8181814,3482.42424208,4299.45454502,3099.15151484,4956.27272678,3148.60606029,3881.15151476,210.181818161,4417.42424198,3779.15151477,4195.39393897,2641.69696943,4842.93939346,3136.24242393,4369.51515108,4112.96969656,42.0,42.0,?
2017-07-31 19:29:36.821763,4535.39393894,3742.06060569,4253.60606018,2790.06060578,3826.54545416,234.909090886,3877.54545416,445.090909046,4215.99999958,379.151515114,4540.03030258,263.757575731,4193.33333291,3482.42424208,4321.60606017,3099.15151484,4959.87878738,3148.60606029,3890.42424204,210.181818161,4429.27272683,3779.15151477,4191.27272685,2641.69696943,4848.09090861,3136.24242393,4388.57575714,4112.96969656,42.0,42.0,?
2017-07-31 19:29:36.828766,4536.42424197,3742.06060569,4275.24242381,2790.06060578,3834.27272689,234.909090886,3877.03030264,445.090909046,4193.84848443,379.151515114,4532.30302985,263.757575731,4186.63636322,3482.42424208,4317.48484805,3099.15151484,4994.90909041,3148.60606029,3874.45454507,210.181818161,4418.45454501,3779.15151477,4183.03030261,2641.69696943,4840.36363588,3136.24242393,4383.9393935,4112.96969656,42.0,42.0,?
2017-07-31 19:29:36.836432,4541.57575712,3742.06060569,4277.30302988,2790.06060578,3840.45454507,234.909090886,3866.21212083,445.090909046,4221.66666624,379.151515114,4533.33333288,263.757575731,4186.1212117,3482.42424208,4314.90909048,3099.15151484,4997.48484799,3148.60606029,3890.93939355,210.181818161,4429.27272683,3779.15151477,4193.33333291,2641.69696943,4849.63636315,3136.24242393,4388.06060562,4112.96969656,42.0,42.0,?
2017-07-31 19:29:36.847135,4538.48484803,3742.06060569,4254.63636321,2790.06060578,3833.75757537,234.909090886,3875.4848481,445.090909046,4249.48484806,379.151515114,4542.60606015,263.757575731,4202.09090867,3482.42424208,4327.78787836,3099.15151484,4972.24242375,3148.60606029,3913.0909087,210.181818161,4445.2424238,3779.15151477,4200.03030261,2641.69696943,4863.03030254,3136.24242393,4391.15151471,4112.96969656,42.0,42.0,?
2017-07-31 19:29:36.852480,4527.66666621,3742.06060569,4249.99999958,2790.06060578,3815.21212083,234.909090886,3874.96969658,445.090909046,4221.66666624,379.151515114,4534.87878743,263.757575731,4193.33333291,3482.42424208,4310.78787836,3099.15151484,4959.87878738,3148.60606029,3896.0909087,210.181818161,4432.87878744,3779.15151477,4190.24242382,2641.69696943,4853.24242376,3136.24242393,4376.21212077,4112.96969656,42.0,42.0,?
2017-07-31 19:29:36.861485,4534.36363591,3742.06060569,4268.54545412,2790.06060578,3811.09090871,234.909090886,3874.45454507,445.090909046,4208.27272685,379.151515114,4533.33333288,263.757575731,4190.24242382,3482.42424208,4305.12121169,3099.15151484,4981.51515102,3148.60606029,3883.72727234,210.181818161,4424.12121168,3779.15151477,4186.1212117,2641.69696943,4843.45454497,3136.24242393,4376.72727229,4112.96969656,42.0,42.0,?
2017-07-31 19:29:36.869028,4545.69696924,3742.06060569,4283.99999957,2790.06060578,3818.30302992,234.909090886,3890.93939355,445.090909046,4217.03030261,379.151515114,4536.42424197,263.757575731,4210.84848443,3482.42424208,4323.15151472,3099.15151484,5005.72727223,3148.60606029,3887.84848446,210.181818161,4430.30302986,3779.15151477,4191.27272685,2641.69696943,4848.09090861,3136.24242393,4392.18181774,4112.96969656,42.0,42.0,?
2017-07-31 19:29:36.876494,4539.51515106,3742.06060569,4278.33333291,2790.06060578,3812.12121174,234.909090886,3892.99999961,445.090909046,4207.24242382,379.151515114,4533.33333288,263.757575731,4210.33333291,3482.42424208,4316.45454502,3099.15151484,4984.60606011,3148.60606029,3886.81818143,210.181818161,4431.84848441,3779.15151477,4193.33333291,2641.69696943,4848.60606012,3136.24242393,4386.51515108,4112.96969656,42.0,42.0,?
2017-07-31 19:29:36.886434,4517.87878743,3742.06060569,4256.18181776,2790.06060578,3776.5757572,234.909090886,3872.39393901,445.090909046,4185.60606019,379.151515114,4525.09090864,263.757575731,4184.57575716,3482.42424208,4297.39393896,3099.15151484,4959.36363587,3148.60606029,3870.84848446,210.181818161,4417.42424198,3779.15151477,4186.1212117,2641.69696943,4831.60606012,3136.24242393,4355.60606017,4112.96969656,42.0,42.0,?
2017-07-31 19:29:36.891243,4517.36363591,3742.06060569,4261.33333291,2790.06060578,3752.8787875,234.909090886,3879.60606022,445.090909046,4190.75757534,379.151515114,4528.18181773,263.757575731,4187.66666625,3482.42424208,4305.12121169,3099.15151484,4996.45454495,3148.60606029,3857.45454507,210.181818161,4408.15151471,3779.15151477,4188.18181776,2641.69696943,4825.42424194,3136.24242393,4343.75757532,4112.96969656,42.0,42.0,?
2017-07-31 19:29:36.900458,4544.1515147,3742.06060569,4298.93939351,2790.06060578,3779.66666629,234.909090886,3915.66666628,445.090909046,4226.8181814,379.151515114,4544.66666621,263.757575731,4218.06060564,3482.42424208,4320.57575714,3099.15151484,4996.45454495,3148.60606029,3873.93939355,210.181818161,4424.12121168,3779.15151477,4199.5151511,2641.69696943,4849.12121164,3136.24242393,4366.42424199,4112.96969656,42.0,42.0,?
2017-07-31 19:29:36.908388,4538.48484803,3742.06060569,4291.21212078,2790.06060578,3780.1818178,234.909090886,3936.78787839,445.090909046,4208.78787837,379.151515114,4535.39393894,263.757575731,4206.21212079,3482.42424208,4304.09090866,3099.15151484,4956.78787829,3148.60606029,3874.96969658,210.181818161,4422.06060562,3779.15151477,4194.36363594,2641.69696943,4850.15151467,3136.24242393,4361.78787835,4112.96969656,42.0,42.0,?
2017-07-31 19:29:36.914491,4495.21212076,3742.06060569,4255.15151473,2790.06060578,3721.45454508,234.909090886,3906.393939,445.090909046,4147.99999959,379.151515114,4508.60606016,263.757575731,4176.33333292,3482.42424208,4280.90909048,3099.15151484,4986.15151465,3148.60606029,3834.27272689,210.181818161,4385.99999956,3779.15151477,4179.93939352,2641.69696943,4816.66666619,3136.24242393,4310.78787836,4112.96969656,42.0,42.0,?
2017-07-31 19:29:36.921977,4506.54545409,3742.06060569,4287.60606018,2790.06060578,3726.09090872,234.909090886,3886.81818143,445.090909046,4175.8181814,379.151515114,4534.36363591,263.757575731,4206.21212079,3482.42424208,4305.12121169,3099.15151484,5008.81818132,3148.60606029,3844.06060568,210.181818161,4396.30302986,3779.15151477,4190.75757534,2641.69696943,4827.99999952,3136.24242393,4319.0303026,4112.96969656,42.0,42.0,?
2017-07-31 19:29:36.930933,4545.69696924,3742.06060569,4328.81818139,2790.06060578,3767.30302993,234.909090886,3909.99999961,445.090909046,4223.21212079,379.151515114,4561.66666621,263.757575731,4223.21212079,3482.42424208,4325.72727229,3099.15151484,4971.72727223,3148.60606029,3886.81818143,210.181818161,4436.48484804,3779.15151477,4203.63636322,2641.69696943,4863.54545406,3136.24242393,4363.84848441,4112.96969656,42.0,42.0,?
2017-07-31 19:29:36.938581,4524.57575712,3742.06060569,4298.93939351,2790.06060578,3735.87878751,234.909090886,3929.06060567,445.090909046,4188.18181776,379.151515114,4534.36363591,263.757575731,4176.33333292,3482.42424208,4302.0303026,3099.15151484,4985.63636314,3148.60606029,3860.54545416,210.181818161,4416.90909047,3779.15151477,4191.27272685,2641.69696943,4841.90909042,3136.24242393,4337.06060563,4112.96969656,42.0,42.0,?
2017-07-31 19:29:36.948172,4501.39393894,3742.06060569,4278.84848442,2790.06060578,3693.63636327,234.909090886,3937.30302991,445.090909046,4181.99999958,379.151515114,4530.24242379,263.757575731,4172.21212079,3482.42424208,4302.0303026,3099.15151484,5056.21212071,3148.60606029,3832.72727234,210.181818161,4392.69696926,3779.15151477,4185.09090867,2641.69696943,4819.24242376,3136.24242393,4306.66666624,4112.96969656,42.0,42.0,?
2017-07-31 19:29:36.954746,4501.90909046,3742.06060569,4295.84848442,2790.06060578,3663.24242388,234.909090886,3942.45454506,445.090909046,4182.5151511,379.151515114,4540.54545409,263.757575731,4192.8181814,3482.42424208,4306.15151472,3099.15151484,5009.33333283,3148.60606029,3843.54545416,210.181818161,4394.75757532,3779.15151477,4192.30302988,2641.69696943,4824.90909043,3136.24242393,4309.24242381,4112.96969656,42.0,42.0,?
2017-07-31 19:29:36.963775,4487.99999955,3742.06060569,4297.90909048,2790.06060578,3613.78787843,234.909090886,3928.03030264,445.090909046,4131.5151511,379.151515114,4519.42424197,263.757575731,4170.15151473,3482.42424208,4277.30302988,3099.15151484,4923.81818133,3148.60606029,3825.51515113,210.181818161,4376.72727229,3779.15151477,4187.66666625,2641.69696943,4811.51515103,3136.24242393,4290.18181775,4112.96969656,42.0,42.0,?
2017-07-31 19:29:36.996440,4499.8484844,3742.06060569,4297.39393896,2790.06060578,3610.18181782,234.909090886,3931.12121173,445.090909046,4181.99999958,379.151515114,4542.09090864,263.757575731,4198.48484806,3482.42424208,4324.18181775,3099.15151484,5110.81818131,3148.60606029,3829.12121174,210.181818161,4392.18181774,3779.15151477,4189.21212079,2641.69696943,4821.30302982,3136.24242393,4300.48484805,4112.96969656,42.0,42.0,?
2017-07-31 19:29:36.996568,4499.8484844,3742.06060569,4297.39393896,2790.06060578,3610.18181782,234.909090886,3931.12121173,445.090909046,4181.99999958,379.151515114,4542.09090864,263.757575731,4198.48484806,3482.42424208,4324.18181775,3099.15151484,5110.81818131,3148.60606029,3829.12121174,210.181818161,4392.18181774,3779.15151477,4189.21212079,2641.69696943,4821.30302982,3136.24242393,4300.48484805,4112.96969656,42.0,42.0,?
2017-07-31 19:29:36.996717,4509.12121167,3742.06060569,4309.75757533,2790.06060578,3603.48484812,234.909090886,3941.42424203,445.090909046,4187.66666625,379.151515114,4542.09090864,263.757575731,4184.06060564,3482.42424208,4310.78787836,3099.15151484,5042.3030298,3148.60606029,3849.21212083,210.181818161,4395.78787835,3779.15151477,4193.84848443,2641.69696943,4827.99999952,3136.24242393,4307.18181775,4112.96969656,42.0,42.0,?
2017-07-31 19:29:37.007981,4509.12121167,3742.06060569,4321.09090866,2790.06060578,3598.33333297,234.909090886,3924.93939355,445.090909046,4187.66666625,379.151515114,4546.21212076,263.757575731,4187.15151473,3482.42424208,4299.45454502,3099.15151484,4961.42424193,3148.60606029,3860.54545416,210.181818161,4395.78787835,3779.15151477,4193.84848443,2641.69696943,4831.09090861,3136.24242393,4303.57575715,4112.96969656,42.0,42.0,?
2017-07-31 19:29:37.008264,4491.60606016,3742.06060569,4300.48484805,2790.06060578,3568.4545451,234.909090886,3924.42424203,445.090909046,4150.57575716,379.151515114,4534.87878743,263.757575731,4196.424242,3482.42424208,4303.57575715,3099.15151484,5042.3030298,3148.60606029,3804.39393901,210.181818161,4370.54545411,3779.15151477,4180.96969655,2641.69696943,4801.21212073,3136.24242393,4287.09090866,4112.96969656,42.0,42.0,?
2017-07-31 19:29:37.010536,4491.60606016,3742.06060569,4300.48484805,2790.06060578,3568.4545451,234.909090886,3924.42424203,445.090909046,4150.57575716,379.151515114,4534.87878743,263.757575731,4196.424242,3482.42424208,4303.57575715,3099.15151484,5042.3030298,3148.60606029,3804.39393901,210.181818161,4370.54545411,3779.15151477,4180.96969655,2641.69696943,4801.21212073,3136.24242393,4287.09090866,4112.96969656,42.0,42.0,?
2017-07-31 19:29:37.018557,4499.33333288,3742.06060569,4310.78787836,2790.06060578,3574.12121176,234.909090886,3935.75757536,445.090909046,4172.21212079,379.151515114,4547.24242379,263.757575731,4216.51515109,3482.42424208,4314.90909048,3099.15151484,5012.93939344,3148.60606029,3847.66666628,210.181818161,4392.18181774,3779.15151477,4206.21212079,2641.69696943,4828.51515103,3136.24242393,4296.36363593,4112.96969656,42.0,42.0,?
2017-07-31 19:29:37.028808,4503.454545,3742.06060569,4320.06060563,2790.06060578,3560.72727237,234.909090886,3931.63636324,445.090909046,4153.66666625,379.151515114,4549.30302985,263.757575731,4231.96969655,3482.42424208,4324.69696926,3099.15151484,5037.15151465,3148.60606029,3882.18181779,210.181818161,4398.36363592,3779.15151477,4198.99999958,2641.69696943,4835.21212073,3136.24242393,4296.36363593,4112.96969656,42.0,42.0,?
2017-07-31 19:29:37.032880,4480.27272682,3742.06060569,4320.06060563,2790.06060578,3521.06060571,234.909090886,3894.03030264,445.090909046,4078.96969656,379.151515114,4528.69696924,263.757575731,4198.99999958,3482.42424208,4305.63636321,3099.15151484,5085.06060555,3148.60606029,3830.66666628,210.181818161,4361.27272684,3779.15151477,4174.78787837,2641.69696943,4794.51515104,3136.24242393,4268.0303026,4112.96969656,42.0,42.0,?
2017-07-31 19:29:37.050148,4486.45454501,3742.06060569,4323.15151472,2790.06060578,3531.87878753,234.909090886,3884.24242385,445.090909046,4134.09090868,379.151515114,4543.12121167,263.757575731,4192.30302988,3482.42424208,4305.12121169,3099.15151484,5071.66666616,3148.60606029,3815.72727235,210.181818161,4361.78787835,3779.15151477,4182.5151511,2641.69696943,4797.09090861,3136.24242393,4272.15151472,4112.96969656,42.0,42.0,?
2017-07-31 19:29:37.050541,4500.87878743,3742.06060569,4312.84848442,2790.06060578,3550.42424207,234.909090886,3927.51515112,445.090909046,4211.87878746,379.151515114,4555.48484803,263.757575731,4194.87878746,3482.42424208,4309.75757533,3099.15151484,4979.96969647,3148.60606029,3857.45454507,210.181818161,4385.99999956,3779.15151477,4199.5151511,2641.69696943,4824.90909043,3136.24242393,4284.51515109,4112.96969656,42.0,42.0,?
2017-07-31 19:29:37.060686,4484.90909046,3742.06060569,4314.39393896,2790.06060578,3513.8484845,234.909090886,3917.21212082,445.090909046,4141.30302989,379.151515114,4533.8484844,263.757575731,4181.99999958,3482.42424208,4298.42424199,3099.15151484,4949.57575708,3148.60606029,3862.0909087,210.181818161,4377.2424238,3779.15151477,4192.30302988,2641.69696943,4812.54545406,3136.24242393,4259.78787836,4112.96969656,42.0,42.0,?
2017-07-31 19:29:37.068043,4475.63636319,3742.06060569,4328.30302987,2790.06060578,3482.42424208,234.909090886,3884.24242385,445.090909046,4091.84848444,379.151515114,4524.06060561,263.757575731,4198.48484806,3482.42424208,4306.15151472,3099.15151484,5042.3030298,3148.60606029,3845.60606022,210.181818161,4367.96969653,3779.15151477,4183.54545413,2641.69696943,4798.63636316,3136.24242393,4244.33333291,4112.96969656,42.0,42.0,?
2017-07-31 19:29:37.072105,4497.27272682,3742.06060569,4317.48484805,2790.06060578,3498.90909056,234.909090886,3910.51515112,445.090909046,4152.12121171,379.151515114,4541.06060561,263.757575731,4226.30302988,3482.42424208,4320.57575714,3099.15151484,5089.18181767,3148.60606029,3857.45454507,210.181818161,4382.90909047,3779.15151477,4188.69696928,2641.69696943,4817.1818177,3136.24242393,4266.99999957,4112.96969656,42.0,42.0,?
2017-07-31 19:29:37.081577,4507.57575713,3742.06060569,4317.48484805,2790.06060578,3501.99999965,234.909090886,3904.84848446,445.090909046,4160.87878746,379.151515114,4544.66666621,263.757575731,4210.33333291,3482.42424208,4309.75757533,3099.15151484,5018.09090859,3148.60606029,3864.66666628,210.181818161,4387.54545411,3779.15151477,4192.30302988,2641.69696943,4820.27272679,3136.24242393,4280.39393897,4112.96969656,42.0,42.0,?
2017-07-31 19:29:37.088292,4493.66666622,3742.06060569,4330.87878745,2790.06060578,3467.99999965,234.909090886,3869.81818143,445.090909046,4123.78787838,379.151515114,4533.33333288,263.757575731,4186.63636322,3482.42424208,4306.66666624,3099.15151484,4995.42424192,3148.60606029,3849.72727234,210.181818161,4379.30302987,3779.15151477,4189.21212079,2641.69696943,4805.84848437,3136.24242393,4266.99999957,4112.96969656,42.0,42.0,?
2017-07-31 19:29:37.096181,4489.5454541,3742.06060569,4320.57575714,2790.06060578,3452.03030269,234.909090886,3885.27272688,445.090909046,4140.27272686,379.151515114,4536.42424197,263.757575731,4197.96969655,3482.42424208,4322.12121169,3099.15151484,5057.24242374,3148.60606029,3850.75757537,210.181818161,4383.42424199,3779.15151477,4187.66666625,2641.69696943,4811.51515103,3136.24242393,4260.81818139,4112.96969656,42.0,42.0,?
2017-07-31 19:29:37.110497,4500.36363591,3742.06060569,4331.39393896,2790.06060578,3447.39393905,234.909090886,3896.0909087,445.090909046,4160.87878746,379.151515114,4542.09090864,263.757575731,4205.18181776,3482.42424208,4298.93939351,3099.15151484,4975.84848435,3148.60606029,3869.81818143,210.181818161,4396.30302986,3779.15151477,4192.8181814,2641.69696943,4830.06060558,3136.24242393,4270.09090866,4112.96969656,42.0,42.0,?
2017-07-31 19:29:37.112460,4500.36363591,3742.06060569,4331.39393896,2790.06060578,3447.39393905,234.909090886,3896.0909087,445.090909046,4160.87878746,379.151515114,4542.09090864,263.757575731,4205.18181776,3482.42424208,4298.93939351,3099.15151484,4975.84848435,3148.60606029,3869.81818143,210.181818161,4396.30302986,3779.15151477,4192.8181814,2641.69696943,4830.06060558,3136.24242393,4270.09090866,4112.96969656,42.0,42.0,?
2017-07-31 19:29:37.117938,4485.93939349,3742.06060569,4343.24242381,2790.06060578,3432.96969663,234.909090886,3903.30302991,445.090909046,4125.33333292,379.151515114,4531.78787833,263.757575731,4190.75757534,3482.42424208,4294.81818139,3099.15151484,5007.27272677,3148.60606029,3848.1818178,210.181818161,4384.45454502,3779.15151477,4186.1212117,2641.69696943,4812.54545406,3136.24242393,4261.33333291,4112.96969656,42.0,42.0,?
2017-07-31 19:29:37.128090,4499.33333288,3742.06060569,4335.51515108,2790.06060578,3437.60606026,234.909090886,3917.21212082,445.090909046,4156.24242383,379.151515114,4545.18181773,263.757575731,4210.84848443,3482.42424208,4326.24242381,3099.15151484,5069.6060601,3148.60606029,3868.7878784,210.181818161,4400.42424198,3779.15151477,4196.424242,2641.69696943,4826.45454497,3136.24242393,4273.18181775,4112.96969656,42.0,42.0,?
2017-07-31 19:29:37.133755,4518.90909046,3742.06060569,4343.75757532,2790.06060578,3446.87878753,234.909090886,3894.03030264,445.090909046,4191.27272685,379.151515114,4554.96969651,263.757575731,4225.78787837,3482.42424208,4338.09090866,3099.15151484,5046.42424192,3148.60606029,3895.06060567,210.181818161,4418.96969653,3779.15151477,4203.1212117,2641.69696943,4843.96969649,3136.24242393,4291.21212078,4112.96969656,42.0,42.0,?
2017-07-31 19:29:37.142849,4511.18181773,3742.06060569,4343.24242381,2790.06060578,3437.09090875,234.909090886,3879.60606022,445.090909046,4162.93939352,379.151515114,4541.57575712,263.757575731,4196.93939352,3482.42424208,4319.0303026,3099.15151484,4988.72727223,3148.60606029,3872.39393901,210.181818161,4400.9393935,3779.15151477,4186.63636322,2641.69696943,4821.81818134,3136.24242393,4283.99999957,4112.96969656,42.0,42.0,?
2017-07-31 19:29:37.149238,4491.09090864,3742.06060569,4328.81818139,2790.06060578,3407.72727239,234.909090886,3902.27272688,445.090909046,4116.06060565,379.151515114,4526.12121167,263.757575731,4171.69696928,3482.42424208,4304.60606018,3099.15151484,4991.3030298,3148.60606029,3848.69696931,210.181818161,4378.78787835,3779.15151477,4181.99999958,2641.69696943,4801.72727225,3136.24242393,4263.90909048,4112.96969656,42.0,42.0,?
2017-07-31 19:29:37.157100,4489.5454541,3742.06060569,4337.06060563,2790.06060578,3403.09090875,234.909090886,3915.66666628,445.090909046,4128.42424201,379.151515114,4529.21212076,263.757575731,4189.21212079,3482.42424208,4307.18181775,3099.15151484,5033.54545404,3148.60606029,3865.69696931,210.181818161,4386.51515108,3779.15151477,4198.99999958,2641.69696943,4813.57575709,3136.24242393,4264.93939351,4112.96969656,42.0,42.0,?
2017-07-31 19:29:37.166703,4495.21212076,3758.54545417,4349.42424199,2790.06060578,3417.51515117,234.909090886,3860.03030264,445.090909046,4145.93939352,379.151515114,4529.21212076,263.757575731,4195.39393897,3482.42424208,4298.93939351,3099.15151484,5007.27272677,3148.60606029,3871.87878749,210.181818161,4389.60606017,3779.15151477,4201.57575716,2641.69696943,4817.1818177,3136.24242393,4263.90909048,4112.96969656,42.0,42.0,?
2017-07-31 19:29:37.176941,4500.87878743,3758.54545417,4351.48484805,2794.1818179,3411.33333299,234.909090886,3843.54545416,445.090909046,4132.03030262,379.151515114,4519.93939349,263.757575731,4179.93939352,3482.42424208,4295.84848442,3099.15151484,4955.75757526,3148.60606029,3855.90909052,210.181818161,4381.87878744,3779.15151477,4188.18181776,2641.69696943,4809.45454497,3136.24242393,4258.75757533,4112.96969656,42.0,42.0,?
2017-07-31 19:29:37.182923,4499.33333288,3758.54545417,4347.87878744,2794.1818179,3404.6363633,234.909090886,3923.90909052,445.090909046,4139.75757534,379.151515114,4527.66666621,263.757575731,4188.18181776,3482.42424208,4314.90909048,3099.15151484,5007.78787829,3148.60606029,3858.4848481,210.181818161,4387.03030259,3779.15151477,4186.63636322,2641.69696943,4812.03030255,3136.24242393,4265.45454503,4141.8181814,42.0,42.0,?
2017-07-31 19:29:37.188556,4496.24242379,3758.54545417,4345.30302987,2794.1818179,3420.09090875,234.909090886,3955.33333294,445.090909046,4166.03030261,379.151515114,4542.09090864,263.757575731,4209.30302988,3482.42424208,4325.21212078,3099.15151484,5065.99999949,3148.60606029,3875.99999961,210.181818161,4402.99999956,3779.15151477,4197.45454503,2641.69696943,4823.8787874,3136.24242393,4272.66666624,4141.8181814,42.0,42.0,?
2017-07-31 19:29:37.197738,4503.96969652,3758.54545417,4350.96969653,2794.1818179,3413.39393905,234.909090886,3896.0909087,461.57575753,4158.8181814,379.151515114,4533.33333288,263.757575731,4201.06060564,3482.42424208,4310.27272684,3099.15151484,5010.87878738,3148.60606029,3867.24242386,210.181818161,4398.87878744,3779.15151477,4195.90909049,2641.69696943,4822.33333285,3136.24242393,4269.57575715,4141.8181814,42.0,42.0,?
2017-07-31 19:29:37.204240,4500.87878743,3758.54545417,4367.45454502,2794.1818179,3388.15151481,234.909090886,3862.0909087,461.57575753,4136.15151474,387.393939355,4519.93939349,263.757575731,4179.42424201,3482.42424208,4288.63636321,3099.15151484,4948.03030254,3148.60606029,3839.93939356,210.181818161,4375.69696926,3779.15151477,4185.09090867,2641.69696943,4805.84848437,3136.24242393,4263.90909048,4141.8181814,42.0,42.0,?
2017-07-31 19:29:37.213790,4493.66666622,3758.54545417,4365.90909047,2794.1818179,3403.09090875,234.909090886,3892.4848481,461.57575753,4156.24242383,387.393939355,4532.30302985,271.999999973,4181.48484807,3482.42424208,4299.45454502,3099.15151484,4967.09090859,3148.60606029,3844.06060568,210.181818161,4381.36363593,3779.15151477,4190.75757534,2641.69696943,4809.45454497,3136.24242393,4269.57575715,4141.8181814,42.0,42.0,?
2017-07-31 19:29:37.219838,4507.06060561,3758.54545417,4355.60606017,2794.1818179,3427.30302996,234.909090886,3900.21212082,461.57575753,4174.27272686,387.393939355,4541.57575712,271.999999973,4192.30302988,3511.27272692,4321.60606017,3099.15151484,4996.96969647,3148.60606029,3867.24242386,210.181818161,4404.54545411,3779.15151477,4199.5151511,2641.69696943,4826.45454497,3136.24242393,4277.81818139,4141.8181814,42.0,42.0,?
2017-07-31 19:29:37.228299,4500.87878743,3758.54545417,4389.60606017,2794.1818179,3411.33333299,234.909090886,3872.39393901,461.57575753,4140.27272686,387.393939355,4519.93939349,271.999999973,4178.90909049,3511.27272692,4305.63636321,3123.87878757,4998.51515102,3148.60606029,3856.42424204,210.181818161,4389.60606017,3779.15151477,4192.8181814,2641.69696943,4815.63636315,3136.24242393,4263.90909048,4141.8181814,42.0,42.0,?
2017-07-31 19:29:37.235896,4464.81818137,3758.54545417,4380.3333329,2794.1818179,3395.87878754,234.909090886,3891.45454507,461.57575753,4107.81818141,387.393939355,4503.96969652,271.999999973,4157.78787837,3511.27272692,4287.09090866,3123.87878757,5006.75757526,3226.90909059,3831.1818178,210.181818161,4362.81818138,3779.15151477,4186.1212117,2641.69696943,4793.99999952,3136.24242393,4245.36363594,4141.8181814,42.0,42.0,?
2017-07-31 19:29:37.243661,4486.45454501,3758.54545417,4310.78787836,2794.1818179,3410.81818148,234.909090886,3923.393939,461.57575753,4124.81818141,387.393939355,4523.03030258,271.999999973,4177.36363595,3511.27272692,4309.24242381,3123.87878757,5017.06060556,3226.90909059,3841.4848481,148.363636349,4379.81818138,3779.15151477,4192.30302988,2641.69696943,4809.45454497,3136.24242393,4258.24242382,4141.8181814,42.0,42.0,?
2017-07-31 19:29:37.251256,4534.36363591,3758.54545417,4331.90909048,2794.1818179,3421.63636329,234.909090886,3903.81818143,461.57575753,4161.39393898,387.393939355,4541.57575712,271.999999973,4202.60606019,3511.27272692,4328.30302987,3123.87878757,5007.78787829,3226.90909059,3860.03030264,148.363636349,4403.51515107,3775.03030265,4197.45454503,2641.69696943,4829.03030255,3136.24242393,4273.69696927,4141.8181814,42.0,42.0,?
2017-07-31 19:29:37.261292,4502.42424197,3758.54545417,4419.99999956,2794.1818179,3419.57575723,234.909090886,3891.96969658,461.57575753,4161.39393898,387.393939355,4531.78787833,271.999999973,4181.48484807,3511.27272692,4310.27272684,3123.87878757,4979.96969647,3226.90909059,3852.30302992,148.363636349,4391.15151471,3775.03030265,4194.36363594,2641.69696943,4816.66666619,3136.24242393,4261.84848442,4141.8181814,42.0,42.0,?
2017-07-31 19:29:37.265933,4469.96969652,3758.54545417,4418.45454501,2794.1818179,3418.03030269,234.909090886,3915.15151476,461.57575753,4163.45454504,387.393939355,4526.12121167,271.999999973,4163.96969655,3511.27272692,4307.69696927,3123.87878757,4972.75757526,3226.90909059,3847.66666628,148.363636349,4384.96969653,3775.03030265,4190.24242382,2641.69696943,4809.45454497,3123.87878757,4262.87878745,4141.8181814,42.0,42.0,?
2017-07-31 19:29:37.274096,4487.99999955,3758.54545417,4385.48484805,2794.1818179,3407.72727239,234.909090886,3898.66666628,461.57575753,4168.60606019,387.393939355,4527.1515147,271.999999973,4167.06060564,3511.27272692,4319.54545411,3123.87878757,5002.63636314,3226.90909059,3846.63636325,148.363636349,4385.48484805,3775.03030265,4188.18181776,2641.69696943,4810.99999952,3123.87878757,4268.0303026,4141.8181814,42.0,42.0,?
2017-07-31 19:29:37.282012,4481.81818137,3758.54545417,4419.48484804,2794.1818179,3397.9393936,234.909090886,3863.12121173,461.57575753,4132.03030262,387.393939355,4516.33333288,271.999999973,4160.87878746,3511.27272692,4310.27272684,3123.87878757,5009.84848435,3226.90909059,3837.87878749,148.363636349,4371.06060562,3787.39393902,4187.66666625,2641.69696943,4801.21212073,3123.87878757,4254.63636321,4141.8181814,42.0,42.0,?
2017-07-31 19:29:37.291857,4496.75757531,3758.54545417,4400.42424198,2794.1818179,3394.33333299,234.909090886,3874.96969658,461.57575753,4125.33333292,387.393939355,4520.96969652,271.999999973,4164.99999958,3511.27272692,4303.06060563,3123.87878757,4971.21212072,3226.90909059,3852.30302992,148.363636349,4380.84848441,3787.39393902,4194.87878746,2637.57575731,4814.09090861,3123.87878757,4258.75757533,4141.8181814,42.0,42.0,?
2017-07-31 19:29:37.298212,4550.84848439,3758.54545417,4354.57575714,2794.1818179,3392.78787845,234.909090886,3902.27272688,461.57575753,4172.72727231,387.393939355,4540.03030258,271.999999973,4179.42424201,3511.27272692,4316.45454502,3123.87878757,4957.30302981,3226.90909059,3874.45454507,148.363636349,4405.57575714,3787.39393902,4197.96969655,2637.57575731,4838.81818133,3123.87878757,4276.27272685,4141.8181814,42.0,42.0,?
2017-07-31 19:29:37.306430,4523.03030258,3758.54545417,4401.96969653,2794.1818179,3390.72727239,234.909090886,3925.96969658,461.57575753,4166.54545413,387.393939355,4528.18181773,271.999999973,4165.5151511,3511.27272692,4315.42424199,3123.87878757,4995.93939344,3226.90909059,3854.87878749,148.363636349,4392.18181774,3787.39393902,4188.18181776,2637.57575731,4824.90909043,3123.87878757,4271.63636321,4141.8181814,42.0,42.0,?
2017-07-31 19:29:37.314915,4459.15151471,3758.54545417,4451.93939349,2794.1818179,3376.30302997,234.909090886,3928.03030264,461.57575753,4132.03030262,387.393939355,4502.42424197,271.999999973,4156.24242383,3511.27272692,4302.54545412,3123.87878757,5004.6969692,3226.90909059,3829.63636325,148.363636349,4368.48484805,3787.39393902,4184.06060564,2637.57575731,4802.75757528,3123.87878757,4262.87878745,4141.8181814,42.0,42.0,?
2017-07-31 19:29:37.321280,4468.93939349,3758.54545417,4427.72727228,2794.1818179,3338.18181785,234.909090886,3881.66666628,461.57575753,4138.72727231,387.393939355,4504.99999955,271.999999973,4168.09090867,3511.27272692,4301.51515109,3123.87878757,4960.3939389,3226.90909059,3827.06060568,148.363636349,4362.30302987,3787.39393902,4186.63636322,2637.57575731,4802.24242376,3123.87878757,4247.424242,4141.8181814,42.0,42.0,?
2017-07-31 19:29:37.329385,4486.96969652,3758.54545417,4387.03030259,2794.1818179,3309.84848452,234.909090886,3862.0909087,461.57575753,4145.42424201,387.393939355,4520.454545,271.999999973,4159.84848443,3511.27272692,4303.57575715,3123.87878757,4950.60606011,3226.90909059,3820.8787875,148.363636349,4357.66666623,3787.39393902,4186.63636322,2637.57575731,4799.15151467,3123.87878757,4220.63636321,4141.8181814,42.0,42.0,?
2017-07-31 19:29:37.339017,4476.66666622,3758.54545417,4379.30302987,2794.1818179,3309.333333,234.909090886,3907.93939355,461.57575753,4155.2121208,387.393939355,4519.93939349,271.999999973,4150.57575716,3511.27272692,4307.69696927,3123.87878757,4972.24242375,3226.90909059,3820.36363598,148.363636349,4360.24242381,3787.39393902,4188.69696928,2637.57575731,4798.12121164,3123.87878757,4230.93939352,4141.8181814,42.0,42.0,?
2017-07-31 19:29:37.348810,4482.8484844,3758.54545417,4395.27272683,2794.1818179,3307.27272694,234.909090886,3929.06060567,461.57575753,4170.15151473,387.393939355,4509.12121167,271.999999973,4164.99999958,3511.27272692,4320.06060563,3123.87878757,4987.6969692,3226.90909059,3840.45454507,148.363636349,4375.18181774,3787.39393902,4192.30302988,2637.57575731,4813.06060558,3123.87878757,4258.75757533,4141.8181814,42.0,42.0,?
2017-07-31 19:29:37.353781,4497.27272682,3758.54545417,4428.75757531,2794.1818179,3306.24242391,234.909090886,3893.51515113,461.57575753,4155.72727231,387.393939355,4507.06060561,271.999999973,4177.87878746,3511.27272692,4336.54545411,3123.87878757,5025.3030298,3226.90909059,3854.36363598,148.363636349,4388.57575714,3787.39393902,4191.27272685,2637.57575731,4825.42424194,3123.87878757,4260.81818139,4141.8181814,42.0,42.0,?
2017-07-31 19:29:37.360570,4495.21212076,3758.54545417,4444.72727228,2794.1818179,3320.66666633,234.909090886,3886.30302991,461.57575753,4144.90909049,387.393939355,4509.63636319,271.999999973,4166.54545413,3511.27272692,4331.39393896,3123.87878757,5020.66666616,3226.90909059,3849.21212083,148.363636349,4390.6363632,3787.39393902,4189.72727231,2637.57575731,4821.30302982,3123.87878757,4264.424242,4141.8181814,42.0,42.0,?
2017-07-31 19:29:37.367945,4482.8484844,3758.54545417,4416.39393895,2794.1818179,3314.99999967,234.909090886,3920.81818143,461.57575753,4142.33333292,387.393939355,4496.75757531,271.999999973,4138.72727231,3511.27272692,4301.51515109,3123.87878757,4955.75757526,3226.90909059,3836.84848446,148.363636349,4378.78787835,3787.39393902,4193.33333291,2637.57575731,4815.63636315,3123.87878757,4264.424242,4141.8181814,42.0,42.0,?
2017-07-31 19:29:37.378597,4478.72727228,3758.54545417,4381.36363593,2794.1818179,3289.24242391,234.909090886,3946.06060567,461.57575753,4142.33333292,387.393939355,4486.96969652,271.999999973,4133.57575716,3511.27272692,4295.84848442,3123.87878757,4968.12121162,3226.90909059,3831.69696931,148.363636349,4370.54545411,3787.39393902,4189.72727231,2637.57575731,4814.60606012,3123.87878757,4254.1212117,4141.8181814,42.0,42.0,?
2017-07-31 19:29:37.385092,4493.1515147,3758.54545417,4382.90909047,2794.1818179,3286.66666634,234.909090886,3913.60606021,461.57575753,4151.09090868,387.393939355,4491.09090864,271.999999973,4147.48484807,3511.27272692,4309.75757533,3123.87878757,5020.66666616,3226.90909059,3836.33333295,148.363636349,4376.72727229,3787.39393902,4186.1212117,2637.57575731,4810.99999952,3123.87878757,4258.24242382,4141.8181814,42.0,42.0,?
2017-07-31 19:29:37.392819,4490.57575713,3758.54545417,4405.06060562,2794.1818179,3289.75757543,234.909090886,3832.72727234,461.57575753,4128.93939353,387.393939355,4487.99999955,271.999999973,4141.30302989,3511.27272692,4299.45454502,3123.87878757,4986.15151465,3226.90909059,3832.21212083,148.363636349,4373.12121168,3787.39393902,4190.75757534,2637.57575731,4806.8787874,3123.87878757,4254.63636321,4141.8181814,42.0,42.0,?
2017-07-31 19:29:37.398882,4465.33333289,3758.54545417,4392.18181774,2794.1818179,3282.0303027,234.909090886,3843.03030265,461.57575753,4098.54545414,387.393939355,4484.90909046,271.999999973,4126.87878747,3511.27272692,4286.57575715,3123.87878757,4928.96969648,3226.90909059,3813.66666629,148.363636349,4356.6363632,3787.39393902,4190.24242382,2637.57575731,4800.69696922,3123.87878757,4238.15151473,4141.8181814,42.0,42.0,?
2017-07-31 19:29:37.407079,4471.51515107,3758.54545417,4374.66666623,2794.1818179,3288.7272724,234.909090886,3950.18181779,461.57575753,4125.33333292,387.393939355,4493.1515147,271.999999973,4137.69696928,3511.27272692,4302.0303026,3123.87878757,4962.96969647,3226.90909059,3810.06060568,148.363636349,4362.30302987,3787.39393902,4186.63636322,2637.57575731,4802.24242376,3123.87878757,4257.21212079,4141.8181814,42.0,42.0,?
2017-07-31 19:29:37.416712,4500.36363591,3758.54545417,4387.03030259,2794.1818179,3303.66666634,234.909090886,3956.36363597,461.57575753,4150.06060565,387.393939355,4498.30302985,271.999999973,4154.18181777,3511.27272692,4316.45454502,3123.87878757,5026.84848435,3226.90909059,3831.1818178,148.363636349,4382.90909047,3787.39393902,4192.8181814,2637.57575731,4815.12121164,3123.87878757,4279.36363594,4141.8181814,42.0,42.0,?
2017-07-31 19:29:37.424347,4496.75757531,3758.54545417,4392.69696926,2794.1818179,3305.21212088,234.909090886,3863.12121173,461.57575753,4120.18181777,387.393939355,4492.63636319,271.999999973,4151.09090868,3511.27272692,4302.0303026,3123.87878757,4997.48484799,3226.90909059,3828.09090871,148.363636349,4376.72727229,3787.39393902,4191.27272685,2637.57575731,4813.06060558,3123.87878757,4259.78787836,4141.8181814,42.0,42.0,?
2017-07-31 19:29:37.430974,4482.8484844,3758.54545417,4392.18181774,2794.1818179,3299.54545422,234.909090886,3859.51515113,461.57575753,4109.36363595,387.393939355,4492.12121167,271.999999973,4149.54545413,3511.27272692,4298.42424199,3123.87878757,4966.57575708,3226.90909059,3808.51515113,148.363636349,4367.45454502,3787.39393902,4186.1212117,2637.57575731,4803.78787831,3123.87878757,4259.78787836,4141.8181814,42.0,42.0,?
2017-07-31 19:29:37.438848,4487.48484804,3758.54545417,4375.18181774,2794.1818179,3296.96969664,234.909090886,3935.24242385,461.57575753,4121.2121208,387.393939355,4491.60606016,271.999999973,4156.75757534,3511.27272692,4313.87878745,3123.87878757,4983.06060556,3226.90909059,3814.1818178,148.363636349,4375.18181774,3787.39393902,4194.36363594,2637.57575731,4808.42424194,3123.87878757,4279.36363594,4141.8181814,42.0,42.0,?
2017-07-31 19:29:37.446455,4482.8484844,3758.54545417,4343.75757532,2794.1818179,3301.09090876,234.909090886,3929.57575718,461.57575753,4102.15151474,387.393939355,4483.87878743,271.999999973,4157.78787837,3511.27272692,4312.3333329,3123.87878757,4970.6969692,3226.90909059,3810.57575719,148.363636349,4370.54545411,3787.39393902,4196.424242,2637.57575731,4805.33333285,3123.87878757,4263.39393897,4141.8181814,42.0,42.0,?
2017-07-31 19:29:37.455550,4466.36363592,3758.54545417,4354.57575714,2794.1818179,3311.39393906,234.909090886,3869.30302992,461.57575753,4090.81818141,387.393939355,4480.78787834,271.999999973,4158.30302989,3511.27272692,4301.51515109,3123.87878757,4985.12121162,3226.90909059,3789.96969659,148.363636349,4358.18181775,3787.39393902,4187.15151473,2637.57575731,4792.45454498,3123.87878757,4244.84848442,4141.8181814,42.0,42.0,?
2017-07-31 19:29:37.462980,4471.51515107,3758.54545417,4397.33333289,2794.1818179,3317.06060573,234.909090886,3880.63636325,461.57575753,4118.12121171,387.393939355,4487.48484804,271.999999973,4162.42424201,3511.27272692,4307.18181775,3123.87878757,5025.81818132,3226.90909059,3797.69696932,148.363636349,4366.9393935,3787.39393902,4187.66666625,2637.57575731,4798.63636316,3123.87878757,4264.424242,4141.8181814,42.0,42.0,?
2017-07-31 19:29:37.470401,4487.99999955,3758.54545417,4397.84848441,2794.1818179,3326.84848452,234.909090886,3906.393939,461.57575753,4132.03030262,387.393939355,4489.5454541,271.999999973,4159.84848443,3511.27272692,4313.36363593,3123.87878757,5002.63636314,3226.90909059,3813.15151477,148.363636349,4384.45454502,3787.39393902,4196.93939352,2637.57575731,4817.69696922,3123.87878757,4278.33333291,4141.8181814,42.0,42.0,?
2017-07-31 19:29:37.478744,4490.06060561,3758.54545417,4364.36363593,2794.1818179,3335.09090876,234.909090886,3875.4848481,461.57575753,4104.2121208,387.393939355,4485.42424198,271.999999973,4155.72727231,3511.27272692,4304.09090866,3123.87878757,4991.3030298,3226.90909059,3795.12121174,148.363636349,4378.27272683,3787.39393902,4192.30302988,2637.57575731,4813.06060558,3123.87878757,4264.424242,4141.8181814,42.0,42.0,?
2017-07-31 19:29:37.488076,4487.48484804,3758.54545417,4350.45454502,2794.1818179,3337.66666633,234.909090886,3888.36363597,461.57575753,4100.09090868,387.393939355,4492.63636319,271.999999973,4164.99999958,3511.27272692,4305.63636321,3123.87878757,5030.45454495,3226.90909059,3787.90909053,148.363636349,4370.03030259,3787.39393902,4185.60606019,2637.57575731,4806.36363588,3123.87878757,4262.36363594,4141.8181814,42.0,42.0,?
2017-07-31 19:29:37.493320,4481.81818137,3758.54545417,4349.9393935,2794.1818179,3340.75757542,234.909090886,3920.81818143,461.57575753,4117.09090868,387.393939355,4489.03030258,271.999999973,4168.09090867,3511.27272692,4313.87878745,3123.87878757,5023.24242374,3226.90909059,3798.72727235,148.363636349,4374.66666623,3787.39393902,4189.21212079,2637.57575731,4812.54545406,3123.87878757,4261.33333291,4141.8181814,42.0,42.0,?
2017-07-31 19:29:37.501006,4475.12121167,3758.54545417,4355.60606017,2794.1818179,3343.333333,234.909090886,3882.18181779,461.57575753,4105.24242383,387.393939355,4468.42424198,271.999999973,4149.03030262,3511.27272692,4304.60606018,3123.87878757,5003.15151465,3226.90909059,3781.72727235,148.363636349,4366.42424199,3787.39393902,4187.15151473,2637.57575731,4801.72727225,3123.87878757,4249.99999958,4141.8181814,42.0,42.0,?
2017-07-31 19:29:37.510813,4482.8484844,3758.54545417,4372.09090865,2794.1818179,3361.87878754,234.909090886,3866.72727234,461.57575753,4100.6060602,387.393939355,4471.51515107,271.999999973,4139.75757534,3511.27272692,4299.45454502,3123.87878757,5000.57575708,3226.90909059,3767.30302993,148.363636349,4362.81818138,3787.39393902,4186.1212117,2637.57575731,4797.60606013,3123.87878757,4258.24242382,4141.8181814,42.0,42.0,?
2017-07-31 19:29:37.519977,4492.12121167,3758.54545417,4377.75757532,2794.1818179,3375.78787845,234.909090886,3912.06060567,461.57575753,4123.27272686,387.393939355,4491.60606016,271.999999973,4156.75757534,3511.27272692,4315.42424199,3123.87878757,4995.93939344,3226.90909059,3780.69696932,148.363636349,4371.06060562,3787.39393902,4191.78787837,2637.57575731,4812.03030255,3123.87878757,4276.27272685,4141.8181814,42.0,42.0,?
2017-07-31 19:29:37.524528,4493.66666622,3758.54545417,4365.39393896,2794.1818179,3370.12121178,234.909090886,3915.66666628,461.57575753,4131.5151511,387.393939355,4494.18181773,271.999999973,4166.54545413,3511.27272692,4325.21212078,3123.87878757,5030.96969647,3226.90909059,3790.48484811,148.363636349,4375.18181774,3787.39393902,4194.36363594,2637.57575731,4817.69696922,3123.87878757,4275.24242381,4141.8181814,42.0,42.0,?
2017-07-31 19:29:37.531973,4492.63636319,3758.54545417,4345.30302987,2794.1818179,3365.99999966,234.909090886,3874.45454507,461.57575753,4116.06060565,387.393939355,4486.45454501,271.999999973,4153.15151474,3511.27272692,4312.84848442,3123.87878757,5030.96969647,3226.90909059,3783.78787841,148.363636349,4372.60606017,3787.39393902,4190.24242382,2637.57575731,4815.12121164,3123.87878757,4264.93939351,4141.8181814,42.0,42.0,?
2017-07-31 19:29:37.541143,4486.96969652,3758.54545417,4338.09090866,2794.1818179,3367.54545421,234.909090886,3869.81818143,461.57575753,4109.87878747,387.393939355,4490.57575713,271.999999973,4155.2121208,3511.27272692,4309.24242381,3123.87878757,5009.33333283,3226.90909059,3769.36363599,148.363636349,4364.87878744,3787.39393902,4185.09090867,2637.57575731,4810.99999952,3123.87878757,4261.33333291,4141.8181814,42.0,42.0,?
2017-07-31 19:29:37.547983,4487.48484804,3758.54545417,4346.84848441,2794.1818179,3372.18181784,234.909090886,3887.84848446,461.57575753,4111.42424201,387.393939355,4491.09090864,271.999999973,4168.60606019,3511.27272692,4321.09090866,3123.87878757,5062.39393889,3226.90909059,3772.45454508,148.363636349,4366.42424199,3787.39393902,4188.69696928,2637.57575731,4815.12121164,3123.87878757,4266.48484806,4141.8181814,42.0,42.0,?
2017-07-31 19:29:37.556845,4507.06060561,3758.54545417,4368.99999956,2794.1818179,3396.39393905,234.909090886,3889.90909052,461.57575753,4118.12121171,387.393939355,4492.12121167,271.999999973,4162.93939352,3511.27272692,4330.36363593,3123.87878757,5094.84848434,3226.90909059,3800.27272689,148.363636349,4388.06060562,3787.39393902,4193.84848443,2637.57575731,4831.60606012,3123.87878757,4291.7272723,4141.8181814,42.0,42.0,?
2017-07-31 19:29:37.564505,4517.36363591,3758.54545417,4370.54545411,2794.1818179,3410.30302996,234.909090886,3899.69696931,461.57575753,4136.66666625,387.393939355,4502.42424197,271.999999973,4158.30302989,3511.27272692,4333.45454502,3123.87878757,5087.12121161,3226.90909059,3802.84848447,148.363636349,4398.36363592,3787.39393902,4186.63636322,2637.57575731,4835.72727224,3123.87878757,4308.7272723,4141.8181814,42.0,42.0,?
2017-07-31 19:29:37.572088,4504.48484803,3758.54545417,4344.27272684,2794.1818179,3397.42424208,234.909090886,3928.54545415,461.57575753,4143.36363595,387.393939355,4511.69696925,271.999999973,4169.1212117,3511.27272692,4334.48484805,3123.87878757,5069.6060601,3226.90909059,3776.5757572,148.363636349,4384.45454502,3787.39393902,4186.63636322,2637.57575731,4825.42424194,3123.87878757,4288.12121169,4141.8181814,42.0,42.0,?
2017-07-31 19:29:37.579373,4498.81818137,3758.54545417,4349.42424199,2794.1818179,3400.51515118,234.909090886,3910.51515112,461.57575753,4145.42424201,387.393939355,4513.24242379,271.999999973,4166.03030261,3511.27272692,4332.93939351,3123.87878757,5003.66666617,3226.90909059,3780.69696932,148.363636349,4378.27272683,3787.39393902,4196.424242,2637.57575731,4825.42424194,3123.87878757,4277.30302988,4141.8181814,42.0,42.0,?
2017-07-31 19:29:37.586903,4504.48484803,3758.54545417,4371.06060562,2794.1818179,3409.78787845,234.909090886,3870.84848446,461.57575753,4138.2121208,387.393939355,4511.18181773,271.999999973,4151.09090868,3511.27272692,4331.90909048,3123.87878757,5016.54545404,3226.90909059,3790.48484811,148.363636349,4382.90909047,3787.39393902,4190.75757534,2637.57575731,4832.63636315,3123.87878757,4289.15151472,4141.8181814,42.0,42.0,?
2017-07-31 19:29:37.595829,4497.78787834,3758.54545417,4351.99999956,2794.1818179,3401.54545421,234.909090886,3903.81818143,461.57575753,4118.12121171,387.393939355,4515.81818137,271.999999973,4167.57575716,3511.27272692,4341.69696926,3123.87878757,5141.2121207,3226.90909059,3773.48484811,148.363636349,4378.78787835,3787.39393902,4181.48484807,2637.57575731,4834.1818177,3123.87878757,4281.93939351,4141.8181814,42.0,42.0,?
2017-07-31 19:29:37.602960,4495.72727228,3758.54545417,4324.18181775,2794.1818179,3401.03030269,234.909090886,3931.12121173,461.57575753,4133.57575716,387.393939355,4523.03030258,271.999999973,4197.45454503,3511.27272692,4357.15151472,3123.87878757,5125.24242373,3226.90909059,3776.06060568,148.363636349,4370.03030259,3787.39393902,4184.57575716,2637.57575731,4829.54545406,3123.87878757,4270.60606018,4141.8181814,42.0,42.0,?
2017-07-31 19:29:37.610985,4505.51515106,3758.54545417,4340.15151472,2794.1818179,3413.39393905,234.909090886,3902.7878784,461.57575753,4157.27272686,387.393939355,4525.60606015,271.999999973,4190.24242382,3511.27272692,4351.99999956,3123.87878757,4992.33333283,3226.90909059,3784.30302992,148.363636349,4375.18181774,3787.39393902,4180.45454504,2637.57575731,4835.72727224,3123.87878757,4278.84848442,4141.8181814,42.0,42.0,?
2017-07-31 19:29:37.618518,4507.57575713,3758.54545417,4361.78787835,2794.1818179,3421.63636329,234.909090886,3884.24242385,461.57575753,4138.72727231,387.393939355,4525.09090864,271.999999973,4170.15151473,3511.27272692,4342.72727229,3123.87878757,5000.06060556,3226.90909059,3786.8787875,148.363636349,4384.45454502,3787.39393902,4179.93939352,2637.57575731,4846.54545406,3123.87878757,4288.12121169,4141.8181814,42.0,42.0,?
2017-07-31 19:29:37.626150,4518.39393894,3758.54545417,4349.9393935,2794.1818179,3431.9393936,234.909090886,3900.72727234,461.57575753,4143.87878746,387.393939355,4528.69696924,271.999999973,4178.39393898,3511.27272692,4358.69696926,3123.87878757,5046.93939343,3226.90909059,3814.1818178,148.363636349,4399.90909047,3787.39393902,4196.93939352,2637.57575731,4853.75757527,3123.87878757,4298.93939351,4141.8181814,42.0,42.0,?
2017-07-31 19:29:37.644270,4511.69696925,3758.54545417,4340.66666623,2794.1818179,3436.06060572,234.909090886,3910.51515112,461.57575753,4151.60606019,387.393939355,4527.66666621,271.999999973,4183.54545413,3511.27272692,4361.27272684,3123.87878757,5025.3030298,3226.90909059,3804.39393901,148.363636349,4402.48484804,3787.39393902,4180.96969655,2637.57575731,4852.21212073,3123.87878757,4302.54545412,4141.8181814,42.0,42.0,?
2017-07-31 19:29:37.644683,4511.69696925,3758.54545417,4346.3333329,2794.1818179,3423.69696935,234.909090886,3882.69696931,461.57575753,4151.60606019,387.393939355,4516.33333288,271.999999973,4162.42424201,3511.27272692,4341.69696926,3123.87878757,5033.54545404,3226.90909059,3755.96969659,148.363636349,4371.06060562,3787.39393902,4163.96969655,2637.57575731,4828.51515103,3123.87878757,4281.93939351,4141.8181814,42.0,42.0,?
2017-07-31 19:29:37.649921,4500.36363591,3758.54545417,4348.90909047,2794.1818179,3437.09090875,234.909090886,3886.81818143,461.57575753,4122.24242383,387.393939355,4517.87878743,271.999999973,4163.96969655,3511.27272692,4355.09090866,3123.87878757,5040.24242374,3226.90909059,3779.66666629,148.363636349,4358.69696926,3787.39393902,4204.15151473,2637.57575731,4809.45454497,3123.87878757,4281.93939351,4141.8181814,42.0,42.0,?
2017-07-31 19:29:37.657162,4524.06060561,3758.54545417,4352.51515108,2794.1818179,3469.5454542,234.909090886,3932.66666627,461.57575753,4175.8181814,387.393939355,4533.8484844,271.999999973,4189.21212079,3511.27272692,4386.51515108,3123.87878757,5060.84848434,3226.90909059,3831.1818178,148.363636349,4393.21212077,3787.39393902,4227.33333291,2637.57575731,4829.54545406,3123.87878757,4309.24242381,4141.8181814,42.0,42.0,?
2017-07-31 19:29:37.666905,4534.36363591,3758.54545417,4354.06060563,2794.1818179,3465.42424208,234.909090886,3925.96969658,461.57575753,4194.36363594,387.393939355,4539.51515106,271.999999973,4202.60606019,3511.27272692,4384.45454502,3123.87878757,5133.99999949,3226.90909059,3795.63636326,148.363636349,4415.87878744,3787.39393902,4194.87878746,2637.57575731,4858.90909042,3123.87878757,4307.69696927,4141.8181814,42.0,42.0,?
2017-07-31 19:29:37.673089,4520.454545,3779.15151477,4347.36363593,2794.1818179,3456.15151481,234.909090886,3902.27272688,461.57575753,4157.27272686,387.393939355,4533.8484844,271.999999973,4197.96969655,3511.27272692,4366.9393935,3123.87878757,5115.45454494,3226.90909059,3736.39393902,148.363636349,4396.81818138,3787.39393902,4181.99999958,2637.57575731,4847.06060558,3123.87878757,4296.36363593,4141.8181814,42.0,42.0,?
2017-07-31 19:29:37.681285,4526.63636318,3779.15151477,4351.99999956,2798.30303002,3483.96969662,234.909090886,3920.30302991,461.57575753,4179.42424201,387.393939355,4538.99999955,271.999999973,4190.75757534,3511.27272692,4371.06060562,3123.87878757,5064.96969646,3226.90909059,3738.45454508,148.363636349,4387.54545411,3787.39393902,4196.93939352,2637.57575731,4832.12121164,3123.87878757,4316.96969654,4141.8181814,42.0,42.0,?
2017-07-31 19:29:37.690534,4536.93939349,3779.15151477,4353.54545411,2798.30303002,3489.63636329,234.909090886,3918.24242385,461.57575753,4201.06060564,387.393939355,4540.03030258,271.999999973,4190.75757534,3511.27272692,4374.66666623,3123.87878757,5135.03030252,3226.90909059,3751.84848447,148.363636349,4402.48484804,3787.39393902,4187.66666625,2637.57575731,4853.75757527,3123.87878757,4323.66666623,4207.75757534,42.0,42.0,?
2017-07-31 19:29:37.697964,4529.21212076,3779.15151477,4336.54545411,2798.30303002,3462.33333299,234.909090886,3909.99999961,461.57575753,4150.57575716,387.393939355,4527.66666621,271.999999973,4190.24242382,3511.27272692,4362.30302987,3123.87878757,5127.81818131,3226.90909059,3732.78787841,148.363636349,4404.54545411,3787.39393902,4184.57575716,2637.57575731,4865.0909086,3123.87878757,4304.09090866,4207.75757534,42.0,42.0,?
2017-07-31 19:29:37.705770,4528.18181773,3779.15151477,4340.15151472,2798.30303002,3471.60606026,234.909090886,3915.66666628,494.545454496,4152.12121171,387.393939355,4531.27272682,271.999999973,4192.30302988,3511.27272692,4365.39393896,3123.87878757,5039.72727222,3226.90909059,3734.84848448,148.363636349,4406.09090865,3787.39393902,4197.45454503,2637.57575731,4858.39393891,3123.87878757,4310.78787836,4207.75757534,42.0,42.0,?
2017-07-31 19:29:37.712572,4541.06060561,3779.15151477,4357.15151472,2798.30303002,3500.96969662,234.909090886,3889.393939,494.545454496,4209.30302988,387.393939355,4542.60606015,271.999999973,4201.57575716,3511.27272692,4372.09090865,3123.87878757,5079.39393889,3226.90909059,3766.78787841,148.363636349,4411.2424238,3787.39393902,4190.75757534,2637.57575731,4859.42424194,3123.87878757,4330.36363593,4207.75757534,42.0,42.0,?
2017-07-31 19:29:37.720364,4539.51515106,3779.15151477,4343.24242381,2798.30303002,3496.8484845,234.909090886,3897.63636325,494.545454496,4184.06060564,387.393939355,4535.39393894,263.757575731,4191.27272685,3511.27272692,4348.90909047,3123.87878757,5125.24242373,3226.90909059,3762.66666629,148.363636349,4399.90909047,3787.39393902,4182.5151511,2637.57575731,4855.81818133,3123.87878757,4318.51515108,4207.75757534,42.0,42.0,?
2017-07-31 19:29:37.728065,4524.06060561,3779.15151477,4329.3333329,2798.30303002,3487.06060571,234.909090886,3936.78787839,494.545454496,4140.27272686,387.393939355,4526.63636318,263.757575731,4172.72727231,3556.60606025,4332.42424199,3123.87878757,5093.30302979,3226.90909059,3732.78787841,148.363636349,4390.6363632,3787.39393902,4199.5151511,2637.57575731,4846.03030255,3123.87878757,4308.21212078,4207.75757534,42.0,42.0,?
2017-07-31 19:29:37.737768,4529.21212076,3779.15151477,4348.90909047,2798.30303002,3503.5454542,234.909090886,3909.48484809,494.545454496,4178.39393898,387.393939355,4541.57575712,263.757575731,4195.39393897,3556.60606025,4362.30302987,3165.09090877,5140.69696918,3226.90909059,3730.21212084,148.363636349,4406.60606017,3787.39393902,4205.18181776,2637.57575731,4857.36363588,3123.87878757,4327.27272684,4207.75757534,42.0,42.0,?
2017-07-31 19:29:37.746260,4540.03030258,3779.15151477,4364.87878744,2798.30303002,3518.48484813,234.909090886,3889.90909052,494.545454496,4210.84848443,387.393939355,4551.87878742,263.757575731,4215.48484806,3556.60606025,4379.81818138,3165.09090877,5206.63636312,3198.06060574,3736.39393902,148.363636349,4419.48484804,3787.39393902,4185.09090867,2637.57575731,4870.24242376,3123.87878757,4336.0303026,4207.75757534,42.0,42.0,?
2017-07-31 19:29:37.757502,4530.7575753,3779.15151477,4345.30302987,2798.30303002,3514.36363601,234.909090886,3931.63636324,494.545454496,4186.1212117,387.393939355,4539.51515106,263.757575731,4186.63636322,3556.60606025,4350.45454502,3165.09090877,5147.39393888,3198.06060574,3721.45454508,148.363636349,4406.09090865,3787.39393902,4186.63636322,2637.57575731,4853.75757527,3123.87878757,4323.15151472,4207.75757534,42.0,42.0,?
2017-07-31 19:29:37.761728,4526.12121167,3779.15151477,4325.72727229,2798.30303002,3512.81818147,234.909090886,3939.36363597,494.545454496,4188.18181776,387.393939355,4537.96969652,263.757575731,4176.84848443,3556.60606025,4346.3333329,3165.09090877,5117.515151,3198.06060574,3715.2727269,148.363636349,4391.15151471,3795.63636326,4198.48484806,2637.57575731,4837.27272679,3123.87878757,4323.15151472,4207.75757534,42.0,42.0,?
2017-07-31 19:29:37.770859,4538.48484803,3779.15151477,4332.93939351,2798.30303002,3518.99999965,234.909090886,3902.27272688,494.545454496,4210.84848443,387.393939355,4550.33333288,263.757575731,4207.75757534,3556.60606025,4375.69696926,3165.09090877,5196.84848433,3198.06060574,3725.5757572,148.363636349,4396.81818138,3795.63636326,4195.39393897,2641.69696943,4849.63636315,3123.87878757,4331.90909048,4207.75757534,42.0,42.0,?
2017-07-31 19:29:37.778714,4534.87878743,3779.15151477,4341.69696926,2798.30303002,3517.4545451,234.909090886,3890.42424204,494.545454496,4189.21212079,387.393939355,4545.69696924,263.757575731,4206.21212079,3556.60606025,4366.9393935,3165.09090877,5220.03030251,3198.06060574,3720.42424205,148.363636349,4392.69696926,3795.63636326,4195.90909049,2641.69696943,4852.72727224,3099.15151484,4321.09090866,4207.75757534,42.0,42.0,?
2017-07-31 19:29:37.787984,4528.18181773,3779.15151477,4336.0303026,2798.30303002,3522.09090874,234.909090886,3901.75757537,494.545454496,4161.90909049,387.393939355,4529.21212076,263.757575731,4186.1212117,3556.60606025,4341.69696926,3165.09090877,5177.27272675,3198.06060574,3709.09090872,148.363636349,4375.18181774,3795.63636326,4197.45454503,2641.69696943,4838.81818133,3099.15151484,4313.87878745,4207.75757534,42.0,42.0,?
2017-07-31 19:29:37.795251,4534.36363591,3779.15151477,4327.27272684,2798.30303002,3533.42424207,234.909090886,3908.45454506,494.545454496,4175.30302989,387.393939355,4529.72727227,263.757575731,4200.03030261,3556.60606025,4357.15151472,3165.09090877,5195.8181813,3198.06060574,3710.12121175,148.363636349,4376.72727229,3795.63636326,4194.87878746,2641.69696943,4844.484848,3099.15151484,4323.66666623,4207.75757534,42.0,42.0,?
2017-07-31 19:29:37.798497,4535.39393894,3779.15151477,4323.66666623,2798.30303002,3543.21212086,234.909090886,3909.48484809,494.545454496,4206.21212079,387.393939355,4546.21212076,263.757575731,4219.09090867,3556.60606025,4376.72727229,3165.09090877,5244.24242372,3198.06060574,3720.93939357,148.363636349,4389.60606017,3795.63636326,4193.33333291,2641.69696943,4856.84848436,3099.15151484,4330.87878745,4207.75757534,42.0,42.0,?
2017-07-31 19:29:37.806223,4536.42424197,3779.15151477,4326.75757532,2798.30303002,3549.39393904,234.909090886,3923.393939,494.545454496,4197.96969655,387.393939355,4548.27272682,263.757575731,4210.84848443,3556.60606025,4363.84848441,3165.09090877,5225.18181766,3198.06060574,3724.54545417,148.363636349,4390.12121168,3795.63636326,4192.30302988,2641.69696943,4854.27272679,3099.15151484,4332.93939351,4207.75757534,42.0,42.0,?
2017-07-31 19:29:37.816295,4533.8484844,3779.15151477,4326.24242381,2798.30303002,3530.8484845,234.909090886,3913.0909087,494.545454496,4149.03030262,387.393939355,4525.60606015,263.757575731,4186.63636322,3556.60606025,4342.21212078,3165.09090877,5172.63636312,3198.06060574,3705.99999963,148.363636349,4371.57575714,3795.63636326,4190.75757534,2641.69696943,4839.33333285,3099.15151484,4319.0303026,4207.75757534,42.0,42.0,?
2017-07-31 19:29:37.823940,4533.8484844,3779.15151477,4334.48484805,2798.30303002,3523.63636328,234.909090886,3885.27272688,494.545454496,4165.5151511,387.393939355,4528.69696924,263.757575731,4191.78787837,3556.60606025,4349.9393935,3165.09090877,5161.30302979,3198.06060574,3708.5757572,148.363636349,4376.72727229,3795.63636326,4193.33333291,2641.69696943,4842.93939346,3099.15151484,4312.3333329,4207.75757534,42.0,42.0,?
2017-07-31 19:29:37.833533,4532.30302985,3779.15151477,4345.30302987,2798.30303002,3550.93939358,234.909090886,3910.51515112,494.545454496,4215.48484806,387.393939355,4551.36363591,263.757575731,4213.93939352,3556.60606025,4368.99999956,3165.09090877,5187.57575706,3198.06060574,3739.48484811,148.363636349,4402.48484804,3795.63636326,4197.45454503,2641.69696943,4862.51515103,3099.15151484,4330.87878745,4207.75757534,42.0,42.0,?
2017-07-31 19:29:37.839159,4524.06060561,3779.15151477,4307.69696927,2798.30303002,3547.84848449,234.909090886,3923.393939,494.545454496,4185.60606019,387.393939355,4550.33333288,263.757575731,4206.21212079,3556.60606025,4363.84848441,3165.09090877,5198.90909039,3198.06060574,3744.63636326,148.363636349,4399.39393895,3795.63636326,4195.39393897,2641.69696943,4859.42424194,3099.15151484,4334.48484805,4207.75757534,42.0,42.0,?
2017-07-31 19:29:37.847778,4524.06060561,3779.15151477,4294.30302987,2798.30303002,3528.78787844,234.909090886,3878.57575719,494.545454496,4155.72727231,387.393939355,4544.66666621,263.757575731,4194.87878746,3556.60606025,4358.18181775,3165.09090877,5187.57575706,3198.06060574,3727.63636326,148.363636349,4388.06060562,3795.63636326,4191.78787837,2641.69696943,4851.69696921,3099.15151484,4324.18181775,4207.75757534,42.0,42.0,?
2017-07-31 19:29:37.853315,4530.24242379,3779.15151477,4333.45454502,2798.30303002,3541.1515148,234.909090886,3851.7878784,494.545454496,4194.87878746,387.393939355,4542.60606015,263.757575731,4206.72727231,3556.60606025,4369.51515108,3165.09090877,5188.09090857,3198.06060574,3725.06060569,148.363636349,4393.72727229,3795.63636326,4192.8181814,2641.69696943,4855.81818133,3099.15151484,4331.39393896,4207.75757534,42.0,42.0,?
2017-07-31 19:29:37.861082,4526.12121167,3779.15151477,4314.90909048,2798.30303002,3544.24242389,234.909090886,3884.24242385,494.545454496,4201.06060564,387.393939355,4540.54545409,263.757575731,4223.7272723,3556.60606025,4378.27272683,3165.09090877,5175.21212069,3198.06060574,3734.33333296,148.363636349,4395.78787835,3795.63636326,4196.93939352,2641.69696943,4856.84848436,3099.15151484,4333.96969654,4207.75757534,42.0,42.0,?
2017-07-31 19:29:37.868644,4511.18181773,3779.15151477,4307.18181775,2798.30303002,3537.54545419,234.909090886,3943.99999961,494.545454496,4169.1212117,387.393939355,4549.81818136,263.757575731,4218.57575715,3556.60606025,4376.72727229,3165.09090877,5155.63636312,3198.06060574,3735.87878751,148.363636349,4391.15151471,3795.63636326,4196.93939352,2641.69696943,4851.69696921,3099.15151484,4326.24242381,4207.75757534,42.0,42.0,?
2017-07-31 19:29:37.876608,4521.99999955,3779.15151477,4351.48484805,2798.30303002,3542.69696934,234.909090886,3945.03030264,494.545454496,4187.15151473,387.393939355,4555.48484803,263.757575731,4203.1212117,3556.60606025,4378.78787835,3165.09090877,5171.60606009,3198.06060574,3733.81818144,148.363636349,4391.66666623,3795.63636326,4190.75757534,2641.69696943,4849.63636315,3099.15151484,4321.09090866,4207.75757534,42.0,42.0,?
2017-07-31 19:29:37.884010,4538.48484803,3779.15151477,4330.36363593,2798.30303002,3532.90909056,234.909090886,3882.18181779,494.545454496,4202.09090867,387.393939355,4544.66666621,263.757575731,4198.99999958,3556.60606025,4378.27272683,3165.09090877,5183.45454494,3198.06060574,3728.66666629,148.363636349,4389.09090865,3795.63636326,4190.24242382,2641.69696943,4846.54545406,3099.15151484,4316.45454502,4207.75757534,42.0,42.0,?
2017-07-31 19:29:37.894752,4539.51515106,3779.15151477,4299.45454502,2798.30303002,3521.06060571,234.909090886,3861.06060567,494.545454496,4188.69696928,387.393939355,4543.63636318,263.757575731,4210.84848443,3556.60606025,4376.72727229,3165.09090877,5167.48484797,3198.06060574,3731.24242387,148.363636349,4394.2424238,3795.63636326,4196.93939352,2641.69696943,4854.7878783,3099.15151484,4327.27272684,4207.75757534,42.0,42.0,?
2017-07-31 19:29:37.900454,4538.48484803,3779.15151477,4342.72727229,2798.30303002,3529.30302995,234.909090886,3929.06060567,494.545454496,4201.06060564,387.393939355,4561.1515147,263.757575731,4224.75757534,3556.60606025,4384.45454502,3165.09090877,5157.69696918,3198.06060574,3734.84848448,148.363636349,4403.51515107,3795.63636326,4197.45454503,2641.69696943,4865.60606012,3099.15151484,4344.27272684,4207.75757534,42.0,42.0,?
2017-07-31 19:29:37.907971,4532.30302985,3779.15151477,4352.51515108,2798.30303002,3548.87878752,234.909090886,3982.12121172,494.545454496,4225.78787837,387.393939355,4574.54545409,263.757575731,4227.33333291,3556.60606025,4392.18181774,3165.09090877,5170.57575706,3198.06060574,3733.81818144,148.363636349,4408.15151471,3795.63636326,4195.39393897,2641.69696943,4870.24242376,3099.15151484,4351.99999956,4207.75757534,42.0,42.0,?
2017-07-31 19:29:37.915724,4541.06060561,3779.15151477,4312.3333329,2798.30303002,3560.72727237,234.909090886,3944.51515112,494.545454496,4227.84848443,387.393939355,4573.51515106,263.757575731,4226.8181814,3556.60606025,4396.30302986,3165.09090877,5193.24242372,3198.06060574,3749.78787841,148.363636349,4419.48484804,3795.63636326,4196.424242,2641.69696943,4880.54545406,3099.15151484,4362.81818138,4207.75757534,42.0,42.0,?
2017-07-31 19:29:37.924170,4552.39393894,3779.15151477,4314.39393896,2798.30303002,3521.06060571,234.909090886,3871.87878749,494.545454496,4195.90909049,387.393939355,4549.81818136,263.757575731,4205.69696928,3556.60606025,4377.2424238,3165.09090877,5176.24242372,3198.06060574,3747.21212084,148.363636349,4406.60606017,3795.63636326,4190.75757534,2641.69696943,4868.1818177,3099.15151484,4348.90909047,4207.75757534,42.0,42.0,?
2017-07-31 19:29:37.931026,4538.99999955,3779.15151477,4345.81818138,2798.30303002,3476.75757541,234.909090886,3867.24242386,494.545454496,4171.69696928,387.393939355,4535.39393894,263.757575731,4183.54545413,3556.60606025,4357.15151472,3165.09090877,5136.06060555,3198.06060574,3738.45454508,148.363636349,4387.54545411,3795.63636326,4190.75757534,2641.69696943,4849.12121164,3099.15151484,4321.09090866,4207.75757534,42.0,42.0,?
2017-07-31 19:29:37.940400,4525.09090864,3779.15151477,4370.54545411,2798.30303002,3510.24242389,234.909090886,3944.51515112,494.545454496,4201.57575716,387.393939355,4566.30302985,263.757575731,4209.30302988,3556.60606025,4374.66666623,3165.09090877,5121.63636312,3198.06060574,3787.90909053,148.363636349,4415.87878744,3795.63636326,4202.60606019,2641.69696943,4875.90909042,3099.15151484,4352.51515108,4207.75757534,42.0,42.0,?
2017-07-31 19:29:37.947916,4546.72727227,3779.15151477,4368.99999956,2798.30303002,3550.93939358,234.909090886,3973.87878748,494.545454496,4243.81818139,387.393939355,4594.12121166,263.757575731,4242.27272685,3556.60606025,4405.57575714,3165.09090877,5140.69696918,3198.06060574,3841.99999962,148.363636349,4455.03030258,3795.63636326,4205.18181776,2641.69696943,4914.03030254,3099.15151484,4402.48484804,4207.75757534,42.0,42.0,?
2017-07-31 19:29:37.955280,4566.30302985,3779.15151477,4339.6363632,2798.30303002,3522.09090874,234.909090886,3915.15151476,494.545454496,4226.30302988,387.393939355,4570.93939348,263.757575731,4220.1212117,3556.60606025,4393.72727229,3165.09090877,5170.06060554,3198.06060574,3814.69696932,148.363636349,4429.78787834,3795.63636326,4188.18181776,2641.69696943,4888.7878783,3099.15151484,4375.69696926,4207.75757534,42.0,42.0,?
2017-07-31 19:29:37.962410,4541.57575712,3779.15151477,4327.78787836,2798.30303002,3488.60606026,234.909090886,3902.27272688,494.545454496,4204.15151473,387.393939355,4543.12121167,263.757575731,4186.1212117,3556.60606025,4355.60606017,3165.09090877,5154.09090858,3198.06060574,3782.24242386,148.363636349,4388.06060562,3795.63636326,4184.57575716,2641.69696943,4847.57575709,3099.15151484,4328.30302987,4207.75757534,42.0,42.0,?
2017-07-31 19:29:37.970048,4526.63636318,3779.15151477,4353.03030259,2798.30303002,3502.51515116,234.909090886,3958.93939354,494.545454496,4239.69696927,387.393939355,4567.84848439,263.757575731,4203.1212117,3556.60606025,4359.21212078,3165.09090877,5104.63636313,3198.06060574,3818.30302992,148.363636349,4406.60606017,3795.63636326,4202.09090867,2641.69696943,4866.63636315,3099.15151484,4343.24242381,4207.75757534,42.0,42.0,?
2017-07-31 19:29:37.979403,4532.81818136,3779.15151477,4360.75757532,2798.30303002,3517.4545451,234.909090886,3985.21212081,494.545454496,4261.33333291,387.393939355,4594.63636318,263.757575731,4225.27272685,3556.60606025,4387.03030259,3165.09090877,5103.09090858,3198.06060574,3839.42424204,148.363636349,4429.27272683,3795.63636326,4202.60606019,2641.69696943,4888.27272678,3099.15151484,4367.96969653,4207.75757534,42.0,42.0,?
2017-07-31 19:29:37.985936,4530.7575753,3779.15151477,4334.99999957,2798.30303002,3486.03030268,234.909090886,3920.81818143,494.545454496,4222.18181776,387.393939355,4578.15151469,263.757575731,4211.87878746,3556.60606025,4382.90909047,3165.09090877,5127.81818131,3198.06060574,3809.03030265,148.363636349,4409.18181774,3795.63636326,4191.78787837,2641.69696943,4870.24242376,3099.15151484,4348.90909047,4207.75757534,42.0,42.0,?
2017-07-31 19:29:37.995648,4526.12121167,3779.15151477,4346.3333329,2798.30303002,3464.90909056,234.909090886,3881.15151476,494.545454496,4198.48484806,387.393939355,4563.21212076,263.757575731,4212.90909049,3556.60606025,4376.72727229,3165.09090877,5149.45454494,3198.06060574,3802.84848447,148.363636349,4398.87878744,3795.63636326,4193.33333291,2641.69696943,4863.03030254,3099.15151484,4340.66666623,4207.75757534,42.0,42.0,?
2017-07-31 19:29:38.001824,4537.454545,3779.15151477,4378.78787835,2798.30303002,3495.30302995,234.909090886,3930.60606021,494.545454496,4228.87878746,387.393939355,4564.24242379,263.757575731,4230.93939352,3556.60606025,4391.66666623,3165.09090877,5157.18181767,3198.06060574,3837.87878749,148.363636349,4422.06060562,3795.63636326,4201.06060564,2641.69696943,4883.12121163,3099.15151484,4363.84848441,4207.75757534,42.0,42.0,?
2017-07-31 19:29:38.010561,4551.36363591,3779.15151477,4348.39393896,2798.30303002,3500.96969662,234.909090886,3940.393939,494.545454496,4244.84848442,387.393939355,4555.99999954,263.757575731,4218.57575715,3556.60606025,4387.03030259,3165.09090877,5132.96969646,3198.06060574,3851.7878784,148.363636349,4431.84848441,3795.63636326,4202.09090867,2641.69696943,4890.84848436,3099.15151484,4364.87878744,4207.75757534,42.0,42.0,?
2017-07-31 19:29:38.017936,4544.66666621,3779.15151477,4320.06060563,2798.30303002,3477.27272692,234.909090886,3927.51515112,494.545454496,4236.09090867,387.393939355,4558.0606056,263.757575731,4206.21212079,3556.60606025,4378.78787835,3165.09090877,5136.57575706,3198.06060574,3841.99999962,148.363636349,4423.09090865,3795.63636326,4196.424242,2641.69696943,4885.18181769,3099.15151484,4359.72727229,4207.75757534,42.0,42.0,?
2017-07-31 19:29:38.026366,4525.60606015,3779.15151477,4330.87878745,2798.30303002,3476.24242389,234.909090886,3922.87878749,494.545454496,4219.09090867,387.393939355,4562.69696924,263.757575731,4207.24242382,3556.60606025,4376.72727229,3165.09090877,5152.54545403,3198.06060574,3833.75757537,148.363636349,4413.30302986,3795.63636326,4191.27272685,2641.69696943,4874.36363588,3099.15151484,4359.21212078,4207.75757534,42.0,42.0,?
2017-07-31 19:29:38.034070,4512.21212076,3779.15151477,4331.90909048,2798.30303002,3480.87878753,234.909090886,3891.45454507,494.545454496,4203.1212117,387.393939355,4545.69696924,263.757575731,4193.84848443,3556.60606025,4357.15151472,3165.09090877,5121.63636312,3198.06060574,3832.72727234,148.363636349,4404.54545411,3795.63636326,4194.36363594,2641.69696943,4863.54545406,3099.15151484,4349.42424199,4207.75757534,42.0,42.0,?
2017-07-31 19:29:38.041872,4533.8484844,3779.15151477,4353.54545411,2798.30303002,3488.09090874,234.909090886,3910.51515112,494.545454496,4220.1212117,387.393939355,4548.78787833,263.757575731,4201.06060564,3556.60606025,4365.90909047,3165.09090877,5123.18181767,3198.06060574,3862.0909087,148.363636349,4421.5454541,3795.63636326,4201.06060564,2641.69696943,4880.03030254,3099.15151484,4362.30302987,4207.75757534,42.0,42.0,?
2017-07-31 19:29:38.048114,4557.03030257,3779.15151477,4363.84848441,2798.30303002,3500.4545451,234.909090886,3954.81818142,494.545454496,4242.78787836,387.393939355,4565.27272682,263.757575731,4219.09090867,3556.60606025,4387.03030259,3165.09090877,5138.12121161,3198.06060574,3881.15151476,148.363636349,4435.45454501,3795.63636326,4196.424242,2641.69696943,4895.484848,3099.15151484,4370.54545411,4207.75757534,42.0,42.0,?
2017-07-31 19:29:38.056078,4542.60606015,3779.15151477,4331.90909048,2798.30303002,3498.39393904,234.909090886,3942.96969658,494.545454496,4246.39393897,387.393939355,4566.30302985,263.757575731,4214.96969655,3556.60606025,4377.2424238,3165.09090877,5109.27272676,3198.06060574,3870.33333295,148.363636349,4425.15151471,3795.63636326,4192.30302988,2641.69696943,4888.7878783,3099.15151484,4360.75757532,4207.75757534,42.0,42.0,?
2017-07-31 19:29:38.066545,4529.72727227,3779.15151477,4328.30302987,2798.30303002,3487.06060571,234.909090886,3921.33333294,494.545454496,4241.75757533,387.393939355,4564.7575753,263.757575731,4212.39393897,3556.60606025,4368.48484805,3165.09090877,5092.27272676,3198.06060574,3868.27272689,148.363636349,4422.06060562,3795.63636326,4197.45454503,2641.69696943,4887.75757527,3099.15151484,4364.87878744,4207.75757534,42.0,42.0,?
2017-07-31 19:29:38.072170,4528.18181773,3779.15151477,4353.03030259,2798.30303002,3477.78787844,234.909090886,3908.96969658,494.545454496,4227.33333291,387.393939355,4552.39393894,263.757575731,4202.60606019,3556.60606025,4358.69696926,3165.09090877,5106.18181767,3198.06060574,3858.4848481,148.363636349,4412.27272683,3795.63636326,4193.84848443,2641.69696943,4873.84848436,3099.15151484,4354.06060563,4207.75757534,42.0,42.0,?
2017-07-31 19:29:38.080062,4520.454545,3779.15151477,4351.48484805,2798.30303002,3478.81818147,234.909090886,3890.93939355,494.545454496,4204.66666625,387.393939355,4543.63636318,263.757575731,4189.72727231,3556.60606025,4343.75757532,3165.09090877,5121.63636312,3198.06060574,3850.24242386,148.363636349,4394.2424238,3795.63636326,4192.8181814,2641.69696943,4855.81818133,3099.15151484,4336.0303026,4207.75757534,42.0,42.0,?
2017-07-31 19:29:38.087598,4530.24242379,3779.15151477,4340.66666623,2798.30303002,3504.57575723,234.909090886,3942.96969658,494.545454496,4220.63636321,387.393939355,4570.93939348,263.757575731,4215.48484806,3556.60606025,4368.99999956,3165.09090877,5122.66666615,3198.06060574,3886.30302991,148.363636349,4419.48484804,3795.63636326,4204.66666625,2641.69696943,4885.18181769,3099.15151484,4364.87878744,4207.75757534,42.0,42.0,?
2017-07-31 19:29:38.096096,4540.54545409,3779.15151477,4316.45454502,2798.30303002,3510.24242389,234.909090886,3966.15151475,494.545454496,4253.60606018,387.393939355,4579.69696924,263.757575731,4226.30302988,3556.60606025,4386.51515108,3165.09090877,5095.87878737,3198.06060574,3902.27272688,148.363636349,4435.96969653,3795.63636326,4198.99999958,2641.69696943,4894.96969648,3099.15151484,4373.6363632,4207.75757534,42.0,42.0,?
2017-07-31 19:29:38.103789,4526.63636318,3779.15151477,4313.87878745,2798.30303002,3493.75757541,234.909090886,3886.30302991,494.545454496,4242.27272685,387.393939355,4550.33333288,263.757575731,4190.24242382,3556.60606025,4358.18181775,3165.09090877,5096.9090904,3198.06060574,3869.81818143,148.363636349,4405.06060562,3795.63636326,4184.57575716,2641.69696943,4859.93939345,3099.15151484,4340.15151472,4207.75757534,42.0,42.0,?
2017-07-31 19:29:38.111325,4521.48484803,3779.15151477,4363.3333329,2798.30303002,3509.21212086,234.909090886,3872.39393901,494.545454496,4232.99999958,387.393939355,4550.84848439,263.757575731,4191.78787837,3556.60606025,4354.57575714,3165.09090877,5118.54545403,3198.06060574,3877.03030264,148.363636349,4404.54545411,3795.63636326,4193.84848443,2641.69696943,4867.15151466,3099.15151484,4347.87878744,4207.75757534,42.0,42.0,?
2017-07-31 19:29:38.121074,4527.1515147,3779.15151477,4368.99999956,2798.30303002,3525.69696934,234.909090886,3949.66666627,494.545454496,4241.24242382,387.393939355,4567.84848439,263.757575731,4215.99999958,3556.60606025,4369.51515108,3165.09090877,5101.54545404,3198.06060574,3894.54545416,148.363636349,4415.87878744,3795.63636326,4199.5151511,2641.69696943,4882.0909086,3099.15151484,4363.84848441,4207.75757534,42.0,42.0,?
2017-07-31 19:29:38.126991,4525.09090864,3779.15151477,4336.54545411,2798.30303002,3523.12121177,234.909090886,3993.45454506,494.545454496,4235.57575715,387.393939355,4566.81818136,263.757575731,4213.424242,3556.60606025,4369.51515108,3165.09090877,5112.36363585,3198.06060574,3880.63636325,148.363636349,4403.51515107,3795.63636326,4192.8181814,2641.69696943,4867.66666618,3099.15151484,4351.99999956,4207.75757534,42.0,42.0,?
2017-07-31 19:29:38.135694,4526.12121167,3779.15151477,4334.99999957,2798.30303002,3527.24242389,234.909090886,3941.93939355,494.545454496,4232.99999958,387.393939355,4562.69696924,263.757575731,4208.78787837,3556.60606025,4365.39393896,3165.09090877,5123.69696918,3198.06060574,3888.87878749,148.363636349,4402.48484804,3795.63636326,4192.8181814,2641.69696943,4871.27272679,3099.15151484,4347.36363593,4207.75757534,42.0,42.0,?
