Timestamp,F3 Value,F3 Quality,FC5 Value,FC5 Quality,F7 Value,F7 Quality,T7 Value,T7 Quality,P7 Value,P7 Quality,O1 Value,O1 Quality,O2 Value,O2 Quality,P8 Value,P8 Quality,T8 Value,T8 Quality,F8 Value,F8 Quality,AF4 Value,AF4 Quality,FC6 Value,FC6 Quality,F4 Value,F4 Quality,AF3 Value,AF3 Quality,X Value,Y Value,Z Value
2017-07-31 18:52:43.866340,4277.30302988,0,4194.36363594,0,4346.84848441,0,3939.36363597,0,4138.2121208,0,4566.81818136,0,4034.66666626,0,4247.93939351,0,4860.45454497,0,4634.30302984,0,4217.03030261,0,4221.66666624,0,4703.33333286,0,4373.6363632,0,42.0,42.0,?
2017-07-31 18:52:43.866439,4801.72727225,0,4241.24242382,0,4011.9999996,0,3942.96969658,0,4326.75757532,0,5004.18181768,0,4222.18181776,0,4370.03030259,0,5061.36363586,0,4392.69696926,0,4382.90909047,0,4230.424242,0,5021.18181768,0,4455.5454541,0,42.0,42.0,?
2017-07-31 18:52:43.866528,4822.84848437,0,4260.30302988,0,3991.90909051,0,3935.75757536,0,4321.09090866,0,4992.33333283,0,4211.87878746,0,4359.21212078,0,5055.69696919,0,4406.09090865,0,4388.06060562,0,4229.39393897,0,5040.24242374,0,4464.81818137,0,42.0,42.0,?
2017-07-31 18:52:43.867003,4822.84848437,2188.36363614,4260.30302988,0,3991.90909051,0,3935.75757536,0,4321.09090866,0,5008.81818132,0,4224.24242382,0,4366.9393935,0,5055.69696919,0,4406.09090865,0,4395.27272683,0,4229.39393897,0,5039.21212071,0,4482.8484844,0,42.0,42.0,?
2017-07-31 18:52:43.872581,4802.24242376,2188.36363614,4281.93939351,890.181818093,4023.84848445,0,3932.15151476,0,4309.75757533,0,5006.24242374,0,4202.09090867,0,4358.69696926,0,5069.6060601,0,4427.72727228,0,4369.51515108,0,4238.15151473,0,5001.60606011,0,4458.12121168,2942.54545425,42.0,42.0,?
2017-07-31 18:52:43.875079,4815.63636315,2188.36363614,4242.78787836,890.181818093,4022.81818142,0,3932.15151476,0,4341.69696926,0,5006.24242374,0,4202.09090867,0,4358.69696926,0,5101.54545404,0,4427.72727228,0,4369.51515108,0,4232.48484806,0,5001.60606011,0,4458.12121168,2942.54545425,42.0,42.0,?
2017-07-31 18:52:43.878241,4830.06060558,2188.36363614,4242.78787836,890.181818093,4022.81818142,4022.3030299,3965.63636324,0,4322.6363632,0,5031.9999995,0,4245.36363594,0,4392.69696926,0,5101.54545404,0,4447.81818137,0,4400.42424198,0,4232.48484806,0,5025.3030298,0,4482.8484844,2942.54545425,42.0,42.0,?
2017-07-31 18:52:43.881696,4816.66666619,2188.36363614,4265.45454503,890.181818093,4004.27272687,4022.3030299,3932.66666627,111.272727262,4327.27272684,0,5023.24242374,0,4238.66666624,0,4384.45454502,0,5080.42424192,0,4410.21212077,0,4404.54545411,0,4235.06060564,0,5038.18181768,0,4485.42424198,2942.54545425,42.0,42.0,?
2017-07-31 18:52:43.885403,4816.66666619,2188.36363614,4265.45454503,890.181818093,4031.57575717,4022.3030299,3891.96969658,111.272727262,4327.27272684,3985.21212081,5031.48484798,0,4224.75757534,0,4376.21212077,0,5068.06060555,0,4407.6363632,0,4407.12121168,0,4235.06060564,0,5027.87878738,0,4476.66666622,2942.54545425,42.0,42.0,?
2017-07-31 18:52:43.888412,4815.63636315,2188.36363614,4251.54545412,890.181818093,4076.9090905,4022.3030299,3901.24242385,111.272727262,4344.27272684,3985.21212081,5059.81818131,3717.33333296,4250.51515109,0,4407.6363632,0,5118.03030252,0,4460.18181774,0,4425.66666622,0,4237.63636321,0,5021.69696919,0,4486.96969652,2942.54545425,42.0,42.0,?
2017-07-31 18:52:43.891145,4824.39393891,2188.36363614,4251.54545412,890.181818093,4068.15151474,4022.3030299,3904.84848446,111.272727262,4357.66666623,3985.21212081,5041.78787828,3717.33333296,4237.63636321,3045.57575727,4405.57575714,0,5117.515151,0,4416.39393895,0,4434.9393935,0,4234.03030261,0,5013.96969647,0,4489.03030258,2942.54545425,42.0,42.0,?
2017-07-31 18:52:43.894133,4826.96969649,2188.36363614,4251.54545412,890.181818093,4068.15151474,4022.3030299,3904.84848446,111.272727262,4338.60606017,3985.21212081,5062.9090904,3717.33333296,4259.27272685,3045.57575727,4405.57575714,2835.39393911,5117.515151,0,4416.39393895,0,4434.9393935,0,4234.03030261,0,5033.03030253,0,4509.12121167,2942.54545425,42.0,42.0,?
2017-07-31 18:52:43.897069,4826.96969649,2188.36363614,4272.66666624,890.181818093,4062.48484808,4022.3030299,3888.87878749,111.272727262,4338.60606017,3985.21212081,5054.66666616,3717.33333296,4238.66666624,3045.57575727,4389.60606017,2835.39393911,5116.48484797,2538.66666641,4404.54545411,0,4422.57575713,0,4237.63636321,0,5026.84848435,0,4504.48484803,2942.54545425,42.0,42.0,?
2017-07-31 18:52:43.901631,4820.78787831,2188.36363614,4272.66666624,890.181818093,4043.42424202,4022.3030299,3876.51515113,111.272727262,4332.93939351,3985.21212081,5051.57575707,3717.33333296,4224.24242382,3045.57575727,4381.87878744,2835.39393911,5136.06060555,2538.66666641,4423.60606016,3189.8181815,4398.87878744,0,4234.54545412,0,4995.93939344,0,4494.69696925,2942.54545425,42.0,42.0,?
2017-07-31 18:52:43.906129,4806.8787874,2188.36363614,4257.21212079,890.181818093,4056.3030299,4022.3030299,3897.63636325,111.272727262,4355.60606017,3985.21212081,5072.69696919,3717.33333296,4246.90909048,3045.57575727,4402.48484804,2835.39393911,5166.45454494,2538.66666641,4431.84848441,3189.8181815,4411.75757532,3292.84848452,4234.03030261,0,4999.03030253,0,4499.8484844,2942.54545425,42.0,42.0,?
2017-07-31 18:52:43.910710,4790.39393891,2188.36363614,4283.48484806,890.181818093,4048.06060566,4022.3030299,3877.54545416,111.272727262,4320.57575714,3985.21212081,5045.9090904,3717.33333296,4218.57575715,3045.57575727,4372.60606017,2835.39393911,5141.2121207,2538.66666641,4368.99999956,3189.8181815,4405.57575714,3292.84848452,4237.63636321,12.3636363624,5006.24242374,0,4479.75757531,2942.54545425,42.0,42.0,?
2017-07-31 18:52:43.918091,4809.96969649,2188.36363614,4248.96969654,890.181818093,4071.24242384,4022.3030299,3902.7878784,111.272727262,4346.3333329,3985.21212081,5065.48484798,3717.33333296,4243.81818139,3045.57575727,4393.72727229,2835.39393911,5174.69696918,2538.66666641,4377.75757532,3189.8181815,4427.21212077,3292.84848452,4235.57575715,12.3636363624,5010.36363586,2180.1212119,4493.66666622,2942.54545425,42.0,42.0,?
2017-07-31 18:52:43.928058,4824.39393891,2188.36363614,4266.99999957,890.181818093,4039.81818141,4022.3030299,3888.87878749,111.272727262,4343.24242381,3985.21212081,5063.42424192,3717.33333296,4236.09090867,3045.57575727,4383.9393935,2835.39393911,5173.66666615,2538.66666641,4382.90909047,3185.69696938,4409.69696926,3292.84848452,4239.18181776,12.3636363624,4990.27272677,2180.1212119,4496.75757531,2942.54545425,42.0,42.0,?
2017-07-31 18:52:43.934692,4796.06060558,2188.36363614,4279.87878745,890.181818093,4018.18181778,4022.3030299,3882.18181779,111.272727262,4325.72727229,3985.21212081,5040.75757525,3717.33333296,4208.27272685,3045.57575727,4362.81818138,2835.39393911,5156.66666615,2538.66666641,4373.6363632,3185.69696938,4383.9393935,3284.60606028,4232.99999958,12.3636363624,4973.78787829,2180.1212119,4483.87878743,2942.54545425,42.0,42.0,?
2017-07-31 18:52:43.944106,4800.69696922,2188.36363614,4259.27272685,890.181818093,4057.33333293,4022.3030299,3924.93939355,111.272727262,4356.6363632,3985.21212081,5044.36363586,3717.33333296,4235.57575715,3045.57575727,4401.45454501,2835.39393911,5198.90909039,2538.66666641,4406.60606017,3185.69696938,4424.12121168,3284.60606028,4232.99999958,12.3636363624,5000.57575708,2180.1212119,4511.18181773,2942.54545425,42.0,42.0,?
2017-07-31 18:52:43.950128,4821.30302982,2188.36363614,4289.66666624,890.181818093,4045.9999996,4022.3030299,3893.51515113,111.272727262,4331.90909048,3985.21212081,5014.9999995,3717.33333296,4206.72727231,3045.57575727,4377.75757532,2835.39393911,5177.78787827,2538.66666641,4383.42424199,3185.69696938,4419.48484804,3284.60606028,4242.27272685,12.3636363624,5001.09090859,2180.1212119,4510.1515147,2942.54545425,42.0,42.0,?
2017-07-31 18:52:43.958990,4807.90909043,2188.36363614,4263.39393897,890.181818093,4073.3030299,4022.3030299,3907.93939355,111.272727262,4347.87878744,3985.21212081,5043.84848434,3717.33333296,4219.60606018,3045.57575727,4383.42424199,2835.39393911,5186.54545403,2538.66666641,4390.6363632,3185.69696938,4413.81818138,3284.60606028,4234.03030261,12.3636363624,4986.15151465,2180.1212119,4493.1515147,2942.54545425,42.0,42.0,?
2017-07-31 18:52:43.965514,4795.54545407,2188.36363614,4272.15151472,890.181818093,4078.96969656,4022.3030299,3918.75757537,111.272727262,4353.03030259,3985.21212081,5056.72727222,3717.33333296,4236.09090867,3045.57575727,4392.18181774,2835.39393911,5196.33333281,2538.66666641,4388.06060562,3185.69696938,4419.48484804,3284.60606028,4232.48484806,12.3636363624,4987.6969692,2180.1212119,4477.18181773,2942.54545425,42.0,42.0,?
2017-07-31 18:52:43.973098,4807.90909043,2188.36363614,4283.48484806,890.181818093,4045.9999996,4022.3030299,3901.75757537,111.272727262,4337.57575714,3985.21212081,5045.9090904,3717.33333296,4226.30302988,3045.57575727,4379.81818138,2835.39393911,5188.60606009,2538.66666641,4376.21212077,3185.69696938,4417.42424198,3284.60606028,4231.45454503,12.3636363624,4985.12121162,2180.1212119,4492.12121167,2942.54545425,42.0,42.0,?
2017-07-31 18:52:43.983065,4819.24242376,2188.36363614,4252.57575715,890.181818093,4066.09090868,4022.3030299,3925.96969658,111.272727262,4372.60606017,3985.21212081,5085.57575707,3717.33333296,4260.30302988,3045.57575727,4413.81818138,2835.39393911,5219.51515099,2538.66666641,4412.78787835,3185.69696938,4433.90909047,3284.60606028,4228.36363594,12.3636363624,4989.24242374,2180.1212119,4531.27272682,2942.54545425,42.0,42.0,?
2017-07-31 18:52:44.001684,4809.96969649,2188.36363614,4279.87878745,890.181818093,4044.96969657,4022.3030299,3899.69696931,111.272727262,4353.03030259,3985.21212081,5073.72727222,3717.33333296,4238.15151473,3045.57575727,4391.66666623,2835.39393911,5187.57575706,2538.66666641,4389.60606017,3185.69696938,4413.30302986,3284.60606028,4234.54545412,12.3636363624,4980.48484799,2180.1212119,4505.51515106,2942.54545425,42.0,42.0,?
2017-07-31 18:52:44.001776,4795.54545407,2188.36363614,4258.24242382,890.181818093,4057.84848444,4022.3030299,3919.7878784,111.272727262,4359.72727229,3985.21212081,5081.96969646,3717.33333296,4241.75757533,3045.57575727,4393.72727229,2835.39393911,5193.24242372,2538.66666641,4373.12121168,3185.69696938,4418.45454501,3284.60606028,4231.45454503,12.3636363624,4985.12121162,2180.1212119,4481.81818137,2942.54545425,42.0,42.0,?
2017-07-31 18:52:44.004574,4792.45454498,2188.36363614,4264.93939351,890.181818093,4068.15151474,4022.3030299,3942.45454506,111.272727262,4363.3333329,3985.21212081,5091.75757525,3717.33333296,4257.21212079,3045.57575727,4410.21212077,2835.39393911,5207.66666615,2538.66666641,4362.81818138,3185.69696938,4427.21212077,3284.60606028,4230.93939352,12.3636363624,4991.3030298,2180.1212119,4498.81818137,2942.54545425,42.0,42.0,?
2017-07-31 18:52:44.013916,4803.27272679,2188.36363614,4285.54545412,890.181818093,4030.54545414,4022.3030299,3920.30302991,111.272727262,4342.72727229,3985.21212081,5073.2121207,3717.33333296,4237.63636321,3045.57575727,4389.60606017,2835.39393911,5181.39393888,2538.66666641,4359.21212078,3185.69696938,4406.60606017,3284.60606028,4228.36363594,12.3636363624,4964.51515102,2180.1212119,4516.8484844,2942.54545425,42.0,42.0,?
2017-07-31 18:52:44.021080,4802.75757528,2188.36363614,4248.96969654,890.181818093,4051.66666626,4022.3030299,3945.03030264,111.272727262,4353.54545411,3985.21212081,5088.15151464,3717.33333296,4249.48484806,3045.57575727,4400.9393935,2835.39393911,5198.90909039,2538.66666641,4389.09090865,3185.69696938,4418.96969653,3284.60606028,4223.7272723,12.3636363624,4954.72727223,2180.1212119,4521.48484803,2942.54545425,42.0,42.0,?
2017-07-31 18:52:44.028857,4788.84848437,2188.36363614,4278.84848442,890.181818093,4042.39393899,4022.3030299,3931.63636324,111.272727262,4316.45454502,3985.21212081,5059.81818131,3717.33333296,4218.06060564,3045.57575727,4375.18181774,2835.39393911,5175.21212069,2538.66666641,4345.81818138,3185.69696938,4414.33333289,3284.60606028,4227.84848443,12.3636363624,4963.9999995,2180.1212119,4502.42424197,2942.54545425,42.0,42.0,?
2017-07-31 18:52:44.039811,4801.72727225,2188.36363614,4269.57575715,890.181818093,4042.9090905,4022.3030299,3943.48484809,111.272727262,4335.51515108,3985.21212081,5058.27272677,3717.33333296,4228.87878746,3045.57575727,4390.6363632,2835.39393911,5185.515151,2538.66666641,4367.96969653,3185.69696938,4437.51515107,3284.60606028,4227.84848443,12.3636363624,4977.90909041,2180.1212119,4525.09090864,2942.54545425,42.0,42.0,?
2017-07-31 18:52:44.054625,4812.03030255,2188.36363614,4264.93939351,890.181818093,4056.81818141,4022.3030299,3950.6969693,111.272727262,4327.27272684,3985.21212081,5069.6060601,3717.33333296,4249.48484806,3045.57575727,4415.87878744,2835.39393911,5214.36363584,2538.66666641,4431.33333289,3185.69696938,4445.75757531,3284.60606028,4232.48484806,12.3636363624,4970.18181768,2180.1212119,4540.03030258,2942.54545425,42.0,42.0,?
2017-07-31 18:52:44.055053,4812.54545406,2188.36363614,4259.78787836,890.181818093,4056.3030299,4022.3030299,3946.06060567,111.272727262,4375.69696926,3985.21212081,5090.2121207,3717.33333296,4260.30302988,3045.57575727,4418.96969653,2835.39393911,5218.48484796,2538.66666641,4356.12121169,3185.69696938,4484.39393895,3284.60606028,4231.96969655,12.3636363624,5017.57575707,2180.1212119,4523.03030258,2942.54545425,42.0,42.0,?
2017-07-31 18:52:44.060408,4812.54545406,2188.36363614,4259.78787836,890.181818093,4056.3030299,4022.3030299,3946.06060567,111.272727262,4375.69696926,3985.21212081,5090.2121207,3717.33333296,4260.30302988,3045.57575727,4418.96969653,2835.39393911,5218.48484796,2538.66666641,4356.12121169,3185.69696938,4484.39393895,3284.60606028,4231.96969655,12.3636363624,5017.57575707,2180.1212119,4567.33333288,2942.54545425,42.0,42.0,?
2017-07-31 18:52:44.068063,4832.63636315,2188.36363614,4283.99999957,890.181818093,4029.51515111,4022.3030299,3929.57575718,111.272727262,4384.96969653,3985.21212081,5066.51515101,3717.33333296,4257.7272723,3045.57575727,4416.90909047,2835.39393911,5222.09090857,2538.66666641,4383.9393935,3185.69696938,4481.30302985,3284.60606028,4237.1212117,12.3636363624,5003.15151465,2180.1212119,4576.09090863,2942.54545425,42.0,42.0,?
2017-07-31 18:52:44.079268,4808.93939346,2188.36363614,4274.21212078,890.181818093,4062.48484808,4022.3030299,3924.93939355,111.272727262,4376.72727229,3985.21212081,5031.9999995,3717.33333296,4251.03030261,3045.57575727,4407.12121168,2835.39393911,5211.78787827,2538.66666641,4416.90909047,3185.69696938,4457.60606016,3284.60606028,4232.48484806,12.3636363624,4977.3939389,2180.1212119,4544.1515147,2942.54545425,42.0,42.0,?
2017-07-31 18:52:44.082190,4801.21212073,2188.36363614,4263.90909048,890.181818093,4083.6060602,4022.3030299,3938.84848445,111.272727262,4389.60606017,3985.21212081,5016.54545404,3717.33333296,4277.81818139,3045.57575727,4434.9393935,2835.39393911,5223.1212116,2538.66666641,4412.78787835,3185.69696938,4488.51515107,3284.60606028,4234.03030261,12.3636363624,5010.87878738,2180.1212119,4552.39393894,2942.54545425,42.0,42.0,?
2017-07-31 18:52:44.092204,4786.27272679,2188.36363614,4290.69696927,890.181818093,4007.87878748,4022.3030299,3904.84848446,111.272727262,4342.21212078,3985.21212081,4944.42424193,3717.33333296,4242.27272685,3045.57575727,4402.48484804,2835.39393911,5191.18181766,2538.66666641,4345.81818138,3185.69696938,4468.93939349,3284.60606028,4234.54545412,12.3636363624,4992.84848435,2180.1212119,4529.72727227,2942.54545425,42.0,42.0,?
2017-07-31 18:52:44.098434,4755.36363589,2188.36363614,4249.48484806,890.181818093,4020.75757536,4022.3030299,3921.33333294,111.272727262,4337.57575714,3985.21212081,4903.21212072,3717.33333296,4240.7272723,3045.57575727,4397.33333289,2835.39393911,5210.75757524,2538.66666641,4355.09090866,3185.69696938,4438.5454541,3284.60606028,4225.78787837,12.3636363624,4946.48484799,2180.1212119,4504.99999955,2942.54545425,42.0,42.0,?
2017-07-31 18:52:44.106547,4750.72727225,2188.36363614,4268.0303026,890.181818093,4049.6060602,4022.3030299,3900.21212082,111.272727262,4337.06060563,3985.21212081,4867.15151466,3717.33333296,4237.63636321,3045.57575727,4388.06060562,2835.39393911,5214.87878736,2538.66666641,4366.42424199,3185.69696938,4419.48484804,3284.60606028,4231.45454503,12.3636363624,4941.33333284,2180.1212119,4499.33333288,2942.54545425,42.0,42.0,?
2017-07-31 18:52:44.114181,4757.42424195,2188.36363614,4278.84848442,890.181818093,4046.51515111,4022.3030299,3893.51515113,111.272727262,4350.96969653,3985.21212081,4863.54545406,3717.33333296,4245.87878745,3045.57575727,4397.33333289,2835.39393911,5213.33333281,2538.66666641,4370.03030259,3185.69696938,4431.33333289,3284.60606028,4232.48484806,12.3636363624,4950.60606011,2180.1212119,4511.18181773,2942.54545425,42.0,42.0,?
2017-07-31 18:52:44.121672,4768.24242377,2188.36363614,4259.78787836,890.181818093,4032.09090869,4022.3030299,3929.06060567,111.272727262,4377.75757532,3985.21212081,4875.39393891,3717.33333296,4274.7272723,3045.57575727,4436.48484804,2835.39393911,5240.63636311,2538.66666641,4377.2424238,3185.69696938,4457.60606016,3284.60606028,4229.90909049,12.3636363624,4960.90909041,2180.1212119,4541.06060561,2942.54545425,42.0,42.0,?
2017-07-31 18:52:44.133299,4776.48484801,2188.36363614,4279.87878745,890.181818093,3986.75757536,4022.3030299,3893.51515113,111.272727262,4347.36363593,3985.21212081,4817.1818177,3717.33333296,4239.69696927,3045.57575727,4404.54545411,2835.39393911,5203.03030251,2538.66666641,4346.84848441,3185.69696938,4436.99999956,3284.60606028,4229.90909049,12.3636363624,4955.75757526,2180.1212119,4533.33333288,2942.54545425,42.0,42.0,?
2017-07-31 18:52:44.137027,4765.15151467,2188.36363614,4253.09090867,890.181818093,4023.33333293,4022.3030299,3900.72727234,111.272727262,4365.39393896,3985.21212081,4801.21212073,3717.33333296,4248.96969654,3045.57575727,4405.57575714,2835.39393911,5211.27272675,2538.66666641,4382.90909047,3185.69696938,4440.60606016,3284.60606028,4224.75757534,12.3636363624,4950.0909086,2180.1212119,4514.27272682,2942.54545425,42.0,42.0,?
2017-07-31 18:52:44.144981,4739.39393892,2188.36363614,4273.18181775,890.181818093,4050.63636323,4022.3030299,3917.21212082,111.272727262,4367.45454502,3985.21212081,4785.24242376,3717.33333296,4254.1212117,3045.57575727,4405.06060562,2835.39393911,5231.36363584,2538.66666641,4379.30302987,3185.69696938,4430.30302986,3284.60606028,4230.93939352,12.3636363624,4933.0909086,2180.1212119,4501.39393894,2942.54545425,42.0,42.0,?
2017-07-31 18:52:44.153472,4727.54545407,2188.36363614,4278.84848442,890.181818093,4038.78787838,4022.3030299,3925.45454506,111.272727262,4340.15151472,3985.21212081,4745.5757571,3717.33333296,4236.09090867,3045.57575727,4393.72727229,2835.39393911,5207.15151463,2538.66666641,4322.12121169,3185.69696938,4415.36363592,3284.60606028,4228.87878746,12.3636363624,4916.60606011,2180.1212119,4507.06060561,2942.54545425,42.0,42.0,?
2017-07-31 18:52:44.161836,4740.93939347,2188.36363614,4251.54545412,890.181818093,4024.87878748,4022.3030299,3937.81818142,111.272727262,4329.3333329,3985.21212081,4723.42424195,3717.33333296,4234.03030261,3045.57575727,4398.36363592,2835.39393911,5193.24242372,2538.66666641,4315.42424199,3185.69696938,4427.72727228,3284.60606028,4223.7272723,12.3636363624,4924.33333284,2180.1212119,4517.36363591,2942.54545425,42.0,42.0,?
2017-07-31 18:52:44.168300,4760.51515104,2188.36363614,4278.84848442,890.181818093,3967.18181779,4022.3030299,3892.4848481,111.272727262,4304.60606018,3985.21212081,4695.60606014,3717.33333296,4199.5151511,3045.57575727,4360.24242381,2835.39393911,5181.90909039,2538.66666641,4330.87878745,3185.69696938,4412.78787835,3284.60606028,4230.424242,12.3636363624,4920.72727224,2180.1212119,4511.18181773,2942.54545425,42.0,42.0,?
2017-07-31 18:52:44.176661,4758.45454498,2188.36363614,4261.33333291,890.181818093,4020.75757536,4022.3030299,3918.24242385,111.272727262,4363.84848441,3985.21212081,4729.09090862,3717.33333296,4236.09090867,3045.57575727,4392.69696926,2835.39393911,5246.81818129,2538.66666641,4381.36363593,3185.69696938,4435.45454501,3284.60606028,4229.90909049,12.3636363624,4923.81818133,2180.1212119,4526.63636318,2942.54545425,42.0,42.0,?
2017-07-31 18:52:44.187131,4734.24242377,2188.36363614,4274.7272723,890.181818093,4090.81818141,4022.3030299,3934.21212082,111.272727262,4385.48484805,3985.21212081,4713.12121165,3717.33333296,4251.03030261,3045.57575727,4411.2424238,2835.39393911,5279.27272674,2538.66666641,4371.57575714,3185.69696938,4449.36363592,3284.60606028,4231.96969655,12.3636363624,4929.99999951,2180.1212119,4516.8484844,2942.54545425,42.0,42.0,?
2017-07-31 18:52:44.196409,4737.84848437,2188.36363614,4305.63636321,890.181818093,4030.03030263,4022.3030299,3889.393939,111.272727262,4340.66666623,3985.21212081,4646.6666662,3717.33333296,4207.75757534,3045.57575727,4373.12121168,2835.39393911,5258.15151463,2538.66666641,4325.21212078,3185.69696938,4432.36363592,3284.60606028,4231.96969655,12.3636363624,4924.84848436,2180.1212119,4505.51515106,2942.54545425,42.0,42.0,?
2017-07-31 18:52:44.200690,4772.36363589,2188.36363614,4278.84848442,890.181818093,3976.96969657,4022.3030299,3897.12121173,111.272727262,4350.96969653,3985.21212081,4647.69696923,3717.33333296,4225.27272685,3045.57575727,4389.60606017,2835.39393911,5277.7272722,2538.66666641,4329.84848442,3185.69696938,4460.18181774,3284.60606028,4230.93939352,12.3636363624,4938.75757526,2180.1212119,4540.03030258,2942.54545425,42.0,42.0,?
2017-07-31 18:52:44.211523,4780.09090861,2188.36363614,4202.09090867,890.181818093,4072.27272687,4022.3030299,3988.81818142,111.272727262,4431.33333289,3985.21212081,4711.06060559,3717.33333296,4313.87878745,3045.57575727,4472.03030258,2835.39393911,5345.21212068,2538.66666641,4398.87878744,3185.69696938,4531.27272682,3284.60606028,4230.93939352,12.3636363624,4978.93939344,2180.1212119,4584.33333287,2942.54545425,42.0,42.0,?
2017-07-31 18:52:44.215662,4717.75757529,2188.36363614,4341.18181775,890.181818093,4033.12121172,4022.3030299,3895.57575719,111.272727262,4338.60606017,3985.21212081,4628.63636317,3717.33333296,4248.45454503,3045.57575727,4401.45454501,2835.39393911,5267.4242419,2538.66666641,4319.0303026,3185.69696938,4435.96969653,3284.60606028,4233.51515109,12.3636363624,4929.48484799,2180.1212119,4497.27272682,2942.54545425,42.0,42.0,?
2017-07-31 18:52:44.223299,4706.93939347,2188.36363614,4363.84848441,890.181818093,3929.57575718,4022.3030299,3795.63636326,111.272727262,4256.69696927,3985.21212081,4554.96969651,3717.33333296,4164.48484807,3045.57575727,4309.24242381,2835.39393911,5181.39393888,2538.66666641,4237.1212117,3185.69696938,4360.75757532,3284.60606028,4227.84848443,12.3636363624,4883.12121163,2180.1212119,4464.30302986,2942.54545425,42.0,42.0,?
2017-07-31 18:52:44.232604,4864.06060557,2188.36363614,3795.12121174,890.181818093,4410.21212077,4022.3030299,4337.57575714,111.272727262,4800.1818177,3985.21212081,5001.60606011,3717.33333296,4677.06060559,3045.57575727,4816.66666619,2835.39393911,5722.30302973,2538.66666641,4764.63636316,3185.69696938,4816.15151467,3284.60606028,4211.36363594,12.3636363624,5131.42424191,2180.1212119,4824.39393891,2942.54545425,42.0,42.0,?
2017-07-31 18:52:44.239628,4860.96969648,2188.36363614,3972.33333294,890.181818093,4410.72727229,4022.3030299,4334.48484805,111.272727262,4797.60606013,3985.21212081,4991.3030298,3717.33333296,4702.81818135,3045.57575727,4872.81818133,2835.39393911,5767.12121154,2538.66666641,4782.15151467,3185.69696938,4831.60606012,3284.60606028,4227.84848443,12.3636363624,5154.09090858,2180.1212119,4810.484848,2942.54545425,42.0,42.0,?
2017-07-31 18:52:44.247283,4695.60606014,2188.36363614,4510.66666622,890.181818093,3847.15151477,4022.3030299,3717.84848448,111.272727262,4186.63636322,3985.21212081,4472.03030258,3717.33333296,4093.9090905,3045.57575727,4275.24242381,2835.39393911,5129.87878737,2538.66666641,4157.27272686,3185.69696938,4341.18181775,3284.60606028,4230.93939352,12.3636363624,4878.484848,2180.1212119,4432.87878744,2942.54545425,42.0,42.0,?
2017-07-31 18:52:44.255160,4730.63636316,2188.36363614,4219.09090867,890.181818093,4029.51515111,4022.3030299,3892.99999961,111.272727262,4361.27272684,3985.21212081,4605.45454499,3717.33333296,4235.06060564,3045.57575727,4393.21212077,2835.39393911,5278.24242371,2538.66666641,4309.24242381,3185.69696938,4472.03030258,3284.60606028,4214.45454503,12.3636363624,4936.18181769,2180.1212119,4540.03030258,2942.54545425,42.0,42.0,?
2017-07-31 18:52:44.262788,4779.06060558,2188.36363614,4196.93939352,890.181818093,4114.5151511,4022.3030299,4009.93939354,111.272727262,4472.5454541,3985.21212081,4681.69696923,3717.33333296,4363.3333329,3045.57575727,4529.72727227,2835.39393911,5438.96969643,2538.66666641,4490.57575713,3185.69696938,4551.36363591,3284.60606028,4226.8181814,12.3636363624,4976.36363587,2180.1212119,4619.3636359,2942.54545425,42.0,42.0,?
2017-07-31 18:52:44.270798,4733.72727225,2188.36363614,4347.87878744,890.181818093,3929.57575718,4022.3030299,3848.1818178,111.272727262,4296.36363593,3985.21212081,4524.06060561,3717.33333296,4191.78787837,3045.57575727,4366.9393935,2835.39393911,5265.36363584,2538.66666641,4331.39393896,3185.69696938,4398.87878744,3284.60606028,4223.7272723,12.3636363624,4879.51515103,2180.1212119,4516.8484844,2942.54545425,42.0,42.0,?
2017-07-31 18:52:44.278394,4731.15151468,2188.36363614,4252.06060564,890.181818093,4034.15151475,4022.3030299,3934.21212082,111.272727262,4382.39393896,3985.21212081,4593.09090863,3717.33333296,4264.424242,3045.57575727,4428.2424238,2835.39393911,5344.18181765,2538.66666641,4363.84848441,3185.69696938,4462.2424238,3284.60606028,4217.03030261,12.3636363624,4907.84848436,2180.1212119,4542.09090864,2942.54545425,42.0,42.0,?
2017-07-31 18:52:44.286895,4737.33333286,2188.36363614,4281.424242,890.181818093,4039.81818141,4022.3030299,3928.03030264,111.272727262,4380.84848441,3985.21212081,4585.87878742,3717.33333296,4261.33333291,3045.57575727,4423.60606016,2835.39393911,5354.48484795,2538.66666641,4364.36363593,3185.69696938,4470.48484804,3284.60606028,4228.36363594,12.3636363624,4918.66666617,2180.1212119,4535.39393894,2942.54545425,42.0,42.0,?
2017-07-31 18:52:44.295199,4744.03030256,2188.36363614,4264.93939351,890.181818093,3999.63636324,4022.3030299,3928.03030264,111.272727262,4369.51515108,3985.21212081,4568.36363591,3717.33333296,4258.75757533,3045.57575727,4425.15151471,2835.39393911,5338.51515098,2538.66666641,4342.72727229,3185.69696938,4470.48484804,3284.60606028,4224.75757534,12.3636363624,4922.27272678,2180.1212119,4538.48484803,2942.54545425,42.0,42.0,?
2017-07-31 18:52:44.303811,4728.5757571,2188.36363614,4261.33333291,890.181818093,4015.09090869,4022.3030299,3939.87878748,111.272727262,4382.90909047,3985.21212081,4577.63636318,3717.33333296,4277.81818139,3045.57575727,4442.15151471,2835.39393911,5360.15151462,2538.66666641,4334.48484805,3185.69696938,4466.87878743,3284.60606028,4221.66666624,12.3636363624,4917.12121163,2180.1212119,4537.454545,2942.54545425,42.0,42.0,?
2017-07-31 18:52:44.313006,4710.03030256,2188.36363614,4280.90909048,890.181818093,4055.27272687,4022.3030299,3928.54545415,111.272727262,4385.99999956,3985.21212081,4578.66666621,3717.33333296,4277.30302988,3045.57575727,4433.90909047,2835.39393911,5372.51515098,2538.66666641,4363.3333329,3185.69696938,4451.93939349,3284.60606028,4223.7272723,12.3636363624,4899.60606012,2180.1212119,4518.90909046,2942.54545425,42.0,42.0,?
2017-07-31 18:52:44.317214,4726.51515104,2324.36363613,4258.75757533,890.181818093,4067.12121171,4022.3030299,3952.24242385,111.272727262,4408.66666623,3985.21212081,4588.96969651,3717.33333296,4307.18181775,3045.57575727,4462.2424238,2835.39393911,5390.03030249,2538.66666641,4395.27272683,3185.69696938,4469.96969652,3284.60606028,4221.66666624,12.3636363624,4901.66666618,2180.1212119,4529.21212076,2942.54545425,42.0,42.0,?
2017-07-31 18:52:44.324808,4746.09090862,2324.36363613,4265.45454503,848.969696885,4020.24242384,4022.3030299,3936.78787839,111.272727262,4385.99999956,3985.21212081,4559.09090864,3717.33333296,4286.06060563,3045.57575727,4444.72727228,2835.39393911,5365.30302977,2538.66666641,4343.75757532,3185.69696938,4477.69696925,3284.60606028,4227.33333291,12.3636363624,4912.99999951,2180.1212119,4534.87878743,2942.54545425,42.0,42.0,?
2017-07-31 18:52:44.334442,4745.06060559,2324.36363613,4262.87878745,848.969696885,4008.39393899,4022.3030299,3933.6969693,111.272727262,4379.81818138,3985.21212081,4544.1515147,3717.33333296,4277.30302988,3045.57575727,4433.39393895,2835.39393911,5364.78787825,2538.66666641,4329.84848442,3185.69696938,4493.66666622,3284.60606028,4228.87878746,12.3636363624,4924.84848436,2180.1212119,4540.03030258,2971.3939391,42.0,42.0,?
2017-07-31 18:52:44.339826,4734.24242377,2324.36363613,4263.39393897,848.969696885,4038.78787838,3824.4848481,3959.45454506,111.272727262,4396.30302986,3985.21212081,4545.69696924,3717.33333296,4298.42424199,3045.57575727,4456.06060561,2835.39393911,5387.45454492,2538.66666641,4363.84848441,3185.69696938,4503.454545,3284.60606028,4225.27272685,12.3636363624,4925.87878739,2180.1212119,4547.24242379,2971.3939391,42.0,42.0,?
2017-07-31 18:52:44.347781,4730.12121165,2324.36363613,4279.36363594,848.969696885,4054.24242384,3824.4848481,3955.33333294,61.818181812,4389.09090865,3985.21212081,4530.7575753,3717.33333296,4280.90909048,3045.57575727,4448.33333289,2835.39393911,5376.6363631,2538.66666641,4362.81818138,3185.69696938,4478.21212076,3284.60606028,4220.63636321,12.3636363624,4904.24242375,2180.1212119,4537.454545,2971.3939391,42.0,42.0,?
2017-07-31 18:52:44.356550,4735.2727268,2324.36363613,4260.81818139,848.969696885,4059.39393899,3824.4848481,3964.60606021,61.818181812,4406.09090865,4022.3030299,4543.63636318,3717.33333296,4279.36363594,3045.57575727,4453.99999955,2835.39393911,5393.12121158,2538.66666641,4390.6363632,3185.69696938,4467.90909046,3284.60606028,4218.57575715,12.3636363624,4882.60606012,2180.1212119,4541.57575712,2971.3939391,42.0,42.0,?
2017-07-31 18:52:44.363869,4751.75757528,2324.36363613,4262.36363594,848.969696885,4048.57575717,3824.4848481,3967.6969693,61.818181812,4413.81818138,4022.3030299,4542.09090864,3861.57575719,4294.30302987,3045.57575727,4467.90909046,2835.39393911,5398.78787825,2538.66666641,4407.6363632,3185.69696938,4505.51515106,3284.60606028,4228.36363594,12.3636363624,4909.3939389,2180.1212119,4561.66666621,2971.3939391,42.0,42.0,?
2017-07-31 18:52:44.373649,4753.30302983,2324.36363613,4266.99999957,848.969696885,4038.78787838,3824.4848481,3955.84848445,61.818181812,4399.90909047,4022.3030299,4518.39393894,3861.57575719,4296.87878745,3045.57575727,4468.42424198,2835.39393911,5369.9393934,2538.66666641,4371.57575714,3185.69696938,4533.33333288,3284.60606028,4225.78787837,12.3636363624,4935.66666617,2180.1212119,4560.63636318,2971.3939391,42.0,42.0,?
2017-07-31 18:52:44.379788,4732.18181771,2324.36363613,4258.75757533,848.969696885,4059.9090905,3824.4848481,3966.66666627,61.818181812,4399.90909047,4022.3030299,4508.60606016,3861.57575719,4294.81818139,3045.57575727,4466.87878743,2851.87878759,5368.90909037,2538.66666641,4345.81818138,3185.69696938,4509.12121167,3284.60606028,4219.60606018,12.3636363624,4909.90909042,2180.1212119,4540.03030258,2971.3939391,42.0,42.0,?
2017-07-31 18:52:44.389603,4730.63636316,2324.36363613,4271.12121169,848.969696885,4053.72727232,3824.4848481,3972.33333294,61.818181812,4397.33333289,4022.3030299,4489.5454541,3861.57575719,4278.33333291,3045.57575727,4453.48484804,2851.87878759,5378.18181764,2435.63636339,4358.18181775,3185.69696938,4472.03030258,3284.60606028,4225.78787837,12.3636363624,4872.81818133,2180.1212119,4537.96969652,2971.3939391,42.0,42.0,?
2017-07-31 18:52:44.395274,4738.8787874,2324.36363613,4262.87878745,848.969696885,4048.57575717,3824.4848481,3979.54545415,61.818181812,4411.2424238,4022.3030299,4490.57575713,3861.57575719,4286.06060563,3045.57575727,4463.27272683,2851.87878759,5388.99999946,2435.63636339,4381.36363593,3548.36363601,4491.60606016,3284.60606028,4222.18181776,12.3636363624,4885.69696921,2180.1212119,4554.96969651,2971.3939391,42.0,42.0,?
2017-07-31 18:52:44.402842,4733.21212074,2324.36363613,4265.96969654,848.969696885,4039.3030299,3824.4848481,3965.63636324,61.818181812,4405.06060562,4022.3030299,4493.1515147,3861.57575719,4282.96969654,3045.57575727,4458.63636319,2851.87878759,5385.39393886,2435.63636339,4376.72727229,3548.36363601,4508.09090864,3272.24242392,4220.63636321,12.3636363624,4901.15151466,2180.1212119,4550.33333288,2971.3939391,42.0,42.0,?
2017-07-31 18:52:44.411641,4718.78787832,2324.36363613,4267.51515109,848.969696885,4033.12121172,3824.4848481,3953.78787839,61.818181812,4392.69696926,4022.3030299,4493.1515147,3861.57575719,4270.60606018,3045.57575727,4440.60606016,2851.87878759,5374.57575704,2435.63636339,4392.69696926,3548.36363601,4478.72727228,3272.24242392,4220.63636321,8.2424242416,4868.1818177,2180.1212119,4528.69696924,2971.3939391,42.0,42.0,?
2017-07-31 18:52:44.421086,4711.5757571,2324.36363613,4254.63636321,848.969696885,4062.99999959,3824.4848481,3971.81818142,61.818181812,4404.54545411,4022.3030299,4501.90909046,3861.57575719,4286.57575715,3045.57575727,4455.5454541,2851.87878759,5378.69696916,2435.63636339,4417.42424198,3548.36363601,4476.1515147,3272.24242392,4218.57575715,8.2424242416,4855.81818133,2237.81818159,4528.69696924,2971.3939391,42.0,42.0,?
2017-07-31 18:52:44.432984,4735.78787831,2324.36363613,4271.12121169,848.969696885,4039.3030299,3824.4848481,3963.57575718,61.818181812,4386.51515108,4022.3030299,4480.27272682,3861.57575719,4278.33333291,3045.57575727,4451.42424198,2851.87878759,5369.42424189,2435.63636339,4379.30302987,3548.36363601,4503.454545,3272.24242392,4226.30302988,8.2424242416,4887.24242375,2237.81818159,4548.27272682,2971.3939391,42.0,42.0,?
2017-07-31 18:52:44.435782,4749.69696922,2324.36363613,4263.90909048,848.969696885,4009.42424202,3824.4848481,3960.9999996,61.818181812,4388.06060562,4022.3030299,4473.57575713,3861.57575719,4276.78787836,3045.57575727,4449.87878743,2851.87878759,5375.09090855,2435.63636339,4355.09090866,3548.36363601,4515.30302985,3263.99999967,4224.24242382,8.2424242416,4894.96969648,2237.81818159,4557.03030257,2971.3939391,42.0,42.0,?
2017-07-31 18:52:44.441776,4724.9696965,2324.36363613,4259.78787836,848.969696885,4032.6060602,3824.4848481,3966.15151475,61.818181812,4406.09090865,4022.3030299,4481.30302985,3861.57575719,4292.75757533,3045.57575727,4460.18181774,2851.87878759,5381.78787825,2435.63636339,4381.87878744,3548.36363601,4494.69696925,3263.99999967,4218.06060564,12.3636363624,4875.39393891,2237.81818159,4540.54545409,2971.3939391,42.0,42.0,?
2017-07-31 18:52:44.450221,4701.2727268,2324.36363613,4266.99999957,848.969696885,4062.99999959,3824.4848481,3968.72727233,61.818181812,4400.9393935,4022.3030299,4475.12121167,3861.57575719,4295.84848442,3045.57575727,4462.2424238,2851.87878759,5378.69696916,2435.63636339,4416.90909047,3548.36363601,4483.36363592,3263.99999967,4215.99999958,12.3636363624,4870.75757527,2237.81818159,4524.06060561,2971.3939391,42.0,42.0,?
2017-07-31 18:52:44.458711,4718.78787832,2324.36363613,4256.18181776,848.969696885,4045.48484808,3824.4848481,3981.60606021,61.818181812,4400.42424198,4022.3030299,4479.75757531,3861.57575719,4302.0303026,3045.57575727,4472.5454541,2851.87878759,5395.18181764,2435.63636339,4431.84848441,3548.36363601,4501.39393894,3263.99999967,4216.51515109,12.3636363624,4875.90909042,2237.81818159,4536.42424197,2971.3939391,42.0,42.0,?
2017-07-31 18:52:44.466385,4738.8787874,2324.36363613,4270.09090866,848.969696885,4013.54545414,3824.4848481,3968.21212082,61.818181812,4393.72727229,4022.3030299,4476.1515147,3861.57575719,4290.18181775,3045.57575727,4460.18181774,2851.87878759,5390.03030249,2435.63636339,4413.30302986,3548.36363601,4495.21212076,3263.99999967,4225.27272685,12.3636363624,4866.12121163,2237.81818159,4545.18181773,2971.3939391,42.0,42.0,?
2017-07-31 18:52:44.473650,4718.78787832,2324.36363613,4263.39393897,848.969696885,4065.06060565,3824.4848481,3980.57575718,61.818181812,4406.60606017,4022.3030299,4481.30302985,3861.57575719,4295.84848442,3045.57575727,4463.27272683,2851.87878759,5397.2424237,2435.63636339,4431.84848441,3548.36363601,4492.12121167,3263.99999967,4223.21212079,12.3636363624,4856.33333285,2237.81818159,4537.454545,2971.3939391,42.0,42.0,?
2017-07-31 18:52:44.481322,4727.03030256,2324.36363613,4260.30302988,848.969696885,4083.6060602,3824.4848481,3996.03030263,61.818181812,4416.39393895,4022.3030299,4481.30302985,3861.57575719,4302.54545412,3045.57575727,4475.63636319,2851.87878759,5399.30302976,2435.63636339,4451.93939349,3548.36363601,4527.66666621,3263.99999967,4222.69696927,12.3636363624,4882.60606012,2237.81818159,4553.93939348,2971.3939391,42.0,42.0,?
2017-07-31 18:52:44.489040,4756.90909043,2324.36363613,4276.78787836,848.969696885,4031.06060566,3824.4848481,3981.60606021,61.818181812,4404.03030259,4022.3030299,4468.93939349,3861.57575719,4286.06060563,3045.57575727,4462.75757531,2851.87878759,5368.90909037,2435.63636339,4409.18181774,3548.36363601,4540.54545409,3263.99999967,4224.75757534,12.3636363624,4901.15151466,2237.81818159,4568.36363591,2971.3939391,42.0,42.0,?
2017-07-31 18:52:44.497092,4747.12121165,2324.36363613,4262.87878745,848.969696885,4035.69696929,3824.4848481,3996.54545415,61.818181812,4418.96969653,4022.3030299,4479.75757531,3861.57575719,4299.96969654,3045.57575727,4473.06060561,2851.87878759,5386.42424189,2435.63636339,4408.15151471,3548.36363601,4511.69696925,3263.99999967,4220.1212117,12.3636363624,4875.39393891,2237.81818159,4560.12121167,2971.3939391,42.0,42.0,?
2017-07-31 18:52:44.505787,4715.18181771,2324.36363613,4268.54545412,848.969696885,4066.6060602,3824.4848481,3990.36363596,61.818181812,4413.81818138,4022.3030299,4474.09090864,3861.57575719,4303.06060563,3045.57575727,4473.06060561,2851.87878759,5401.36363582,2435.63636339,4443.69696925,3548.36363601,4482.33333289,3263.99999967,4225.78787837,12.3636363624,4849.63636315,2237.81818159,4535.90909046,2971.3939391,42.0,42.0,?
2017-07-31 18:52:44.513510,4697.6666662,2324.36363613,4266.48484806,848.969696885,4071.75757535,3824.4848481,3979.03030263,61.818181812,4401.96969653,4022.3030299,4473.06060561,3861.57575719,4302.0303026,3045.57575727,4468.42424198,2851.87878759,5392.09090855,2435.63636339,4445.75757531,3548.36363601,4481.30302985,3263.99999967,4224.24242382,12.3636363624,4837.7878783,2237.81818159,4516.8484844,2971.3939391,42.0,42.0,?
2017-07-31 18:52:44.521137,4712.09090862,2324.36363613,4259.27272685,848.969696885,4038.78787838,3824.4848481,3988.81818142,61.818181812,4406.60606017,4022.3030299,4484.90909046,3861.57575719,4312.3333329,3045.57575727,4474.09090864,2851.87878759,5386.9393934,2435.63636339,4413.81818138,3548.36363601,4493.66666622,3263.99999967,4217.03030261,12.3636363624,4840.36363588,2237.81818159,4527.66666621,2971.3939391,42.0,42.0,?
2017-07-31 18:52:44.528579,4724.9696965,2324.36363613,4272.66666624,848.969696885,4003.75757536,3824.4848481,3980.57575718,61.818181812,4405.57575714,4022.3030299,4475.63636319,3861.57575719,4304.60606018,3045.57575727,4465.33333289,2851.87878759,5375.60606007,2435.63636339,4395.78787835,3548.36363601,4489.03030258,3263.99999967,4218.57575715,12.3636363624,4845.51515103,2237.81818159,4540.03030258,2971.3939391,42.0,42.0,?
2017-07-31 18:52:44.537834,4703.33333286,2324.36363613,4262.87878745,848.969696885,4044.45454505,3824.4848481,3991.39393899,61.818181812,4416.39393895,4022.3030299,4478.72727228,3861.57575719,4313.87878745,3045.57575727,4472.03030258,2851.87878759,5386.42424189,2435.63636339,4425.15151471,3548.36363601,4485.42424198,3263.99999967,4218.57575715,12.3636363624,4840.36363588,2237.81818159,4533.33333288,2971.3939391,42.0,42.0,?
2017-07-31 18:52:44.546588,4688.90909044,2324.36363613,4265.96969654,848.969696885,4071.24242384,3824.4848481,3993.96969657,61.818181812,4399.90909047,4022.3030299,4472.5454541,3861.57575719,4298.93939351,3045.57575727,4459.15151471,2851.87878759,5380.2424237,2435.63636339,4418.45454501,3548.36363601,4477.18181773,3263.99999967,4222.18181776,12.3636363624,4830.06060558,2237.81818159,4518.39393894,2971.3939391,42.0,42.0,?
2017-07-31 18:52:44.555800,4702.81818135,2324.36363613,4263.39393897,848.969696885,4045.9999996,3824.4848481,3989.33333293,61.818181812,4394.75757532,4022.3030299,4466.87878743,3861.57575719,4280.39393897,3045.57575727,4445.2424238,2851.87878759,5368.39393886,2435.63636339,4384.45454502,3548.36363601,4481.30302985,3263.99999967,4219.60606018,12.3636363624,4825.93939346,2237.81818159,4520.96969652,2971.3939391,42.0,42.0,?
2017-07-31 18:52:44.571504,4703.33333286,2324.36363613,4271.63636321,848.969696885,4009.93939354,3824.4848481,3978.51515112,61.818181812,4390.12121168,4022.3030299,4455.03030258,3861.57575719,4263.90909048,3045.57575727,4440.09090865,2851.87878759,5377.66666613,2435.63636339,4424.63636319,3548.36363601,4440.60606016,3263.99999967,4224.24242382,12.3636363624,4820.27272679,2237.81818159,4532.81818136,2971.3939391,42.0,42.0,?
2017-07-31 18:52:44.571731,4672.93939347,2324.36363613,4259.78787836,848.969696885,4045.9999996,3824.4848481,3991.39393899,61.818181812,4390.12121168,4022.3030299,4461.21212077,3861.57575719,4260.30302988,3045.57575727,4432.36363592,2851.87878759,5372.51515098,2435.63636339,4424.12121168,3548.36363601,4404.54545411,3263.99999967,4220.63636321,12.3636363624,4793.99999952,2237.81818159,4509.63636319,2971.3939391,42.0,42.0,?
2017-07-31 18:52:44.574717,4672.93939347,2324.36363613,4259.78787836,848.969696885,4045.9999996,3824.4848481,3991.39393899,61.818181812,4390.12121168,4022.3030299,4461.21212077,3861.57575719,4260.30302988,3045.57575727,4432.36363592,2851.87878759,5372.51515098,2435.63636339,4424.12121168,3548.36363601,4404.54545411,3263.99999967,4220.63636321,12.3636363624,4793.99999952,2237.81818159,4509.63636319,2971.3939391,42.0,42.0,?
2017-07-31 18:52:44.582776,4689.42424196,2324.36363613,4260.81818139,848.969696885,4054.75757535,3824.4848481,4007.36363596,61.818181812,4402.48484804,4022.3030299,4467.39393895,3861.57575719,4276.27272685,3045.57575727,4441.63636319,2851.87878759,5366.84848431,2435.63636339,4387.03030259,3548.36363601,4427.21212077,3263.99999967,4221.66666624,12.3636363624,4816.15151467,2237.81818159,4515.30302985,2971.3939391,42.0,42.0,?
2017-07-31 18:52:44.592418,4723.42424195,2324.36363613,4263.90909048,848.969696885,4018.6969693,3824.4848481,4004.27272687,61.818181812,4404.03030259,4022.3030299,4461.21212077,3861.57575719,4281.93939351,3045.57575727,4448.33333289,2851.87878759,5372.51515098,2435.63636339,4380.3333329,3548.36363601,4451.93939349,3263.99999967,4222.69696927,12.3636363624,4841.90909042,2237.81818159,4537.454545,2971.3939391,42.0,42.0,?
2017-07-31 18:52:44.599453,4715.69696923,2324.36363613,4258.24242382,848.969696885,4022.3030299,3824.4848481,4007.87878748,61.818181812,4415.36363592,4022.3030299,4469.96969652,3861.57575719,4293.27272684,3045.57575727,4464.30302986,2851.87878759,5388.99999946,2435.63636339,4422.06060562,3548.36363601,4445.75757531,3263.99999967,4219.09090867,12.3636363624,4827.484848,2237.81818159,4548.78787833,2971.3939391,42.0,42.0,?
2017-07-31 18:52:44.605653,4680.6666662,2324.36363613,4277.30302988,848.969696885,4041.36363596,3824.4848481,3998.09090869,61.818181812,4399.39393895,4022.3030299,4461.72727228,3861.57575719,4282.45454503,3045.57575727,4451.93939349,2851.87878759,5369.42424189,2435.63636339,4412.78787835,3548.36363601,4411.2424238,3263.99999967,4220.63636321,12.3636363624,4805.33333285,2237.81818159,4521.99999955,2971.3939391,42.0,42.0,?
2017-07-31 18:52:44.613967,4671.39393893,2324.36363613,4258.24242382,848.969696885,4048.06060566,3824.4848481,4012.51515111,61.818181812,4402.48484804,4022.3030299,4470.48484804,3861.57575719,4289.66666624,3045.57575727,4453.99999955,2851.87878759,5376.12121158,2435.63636339,4404.54545411,3548.36363601,4408.15151471,3263.99999967,4219.09090867,12.3636363624,4803.78787831,2237.81818159,4501.39393894,2971.3939391,42.0,42.0,?
2017-07-31 18:52:44.623426,4705.39393892,2324.36363613,4252.57575715,848.969696885,4016.12121172,3824.4848481,4013.03030263,61.818181812,4407.6363632,4022.3030299,4481.30302985,3861.57575719,4296.87878745,3045.57575727,4460.69696925,2851.87878759,5390.54545401,2435.63636339,4416.90909047,3548.36363601,4432.36363592,3263.99999967,4224.24242382,12.3636363624,4810.99999952,2237.81818159,4521.99999955,2971.3939391,42.0,42.0,?
2017-07-31 18:52:44.630786,4703.33333286,2324.36363613,4275.75757533,848.969696885,4001.6969693,3824.4848481,3989.33333293,61.818181812,4385.99999956,4022.3030299,4463.78787834,3861.57575719,4277.30302988,3045.57575727,4442.15151471,2851.87878759,5369.9393934,2435.63636339,4391.66666623,3548.36363601,4437.51515107,3263.99999967,4222.69696927,12.3636363624,4815.63636315,2237.81818159,4528.18181773,2971.3939391,42.0,42.0,?
2017-07-31 18:52:44.637642,4674.48484802,2324.36363613,4265.45454503,848.969696885,4049.09090869,3824.4848481,4004.78787839,61.818181812,4393.72727229,4022.3030299,4469.96969652,3861.57575719,4293.78787836,3045.57575727,4454.51515107,2851.87878759,5378.18181764,2435.63636339,4409.18181774,3548.36363601,4449.36363592,3263.99999967,4219.60606018,12.3636363624,4828.51515103,2237.81818159,4523.54545409,2971.3939391,42.0,42.0,?
2017-07-31 18:52:44.647419,4689.42424196,2324.36363613,4270.09090866,848.969696885,4051.15151475,3824.4848481,4006.84848445,61.818181812,4398.36363592,4022.3030299,4479.75757531,3861.57575719,4307.69696927,3045.57575727,4463.27272683,2851.87878759,5385.90909037,2435.63636339,4452.96969652,3548.36363601,4446.27272683,3263.99999967,4227.33333291,12.3636363624,4821.81818134,2237.81818159,4530.24242379,2971.3939391,42.0,42.0,?
2017-07-31 18:52:44.653262,4717.24242377,2324.36363613,4265.96969654,848.969696885,4018.18181778,3824.4848481,4000.66666627,61.818181812,4401.96969653,4022.3030299,4483.36363592,3861.57575719,4310.78787836,3045.57575727,4466.36363592,2851.87878759,5385.90909037,2435.63636339,4434.42424198,3548.36363601,4441.12121168,3263.99999967,4224.24242382,12.3636363624,4813.57575709,2237.81818159,4542.09090864,2971.3939391,42.0,42.0,?
2017-07-31 18:52:44.664300,4714.6666662,2324.36363613,4260.81818139,848.969696885,4023.84848445,3824.4848481,4009.93939354,61.818181812,4408.66666623,4022.3030299,4471.51515107,3861.57575719,4316.45454502,3045.57575727,4473.57575713,2851.87878759,5393.6363631,2435.63636339,4401.45454501,3548.36363601,4455.03030258,3263.99999967,4223.7272723,12.3636363624,4826.45454497,2237.81818159,4544.1515147,2971.3939391,42.0,42.0,?
2017-07-31 18:52:44.669132,4698.69696923,2324.36363613,4271.12121169,848.969696885,4047.54545414,3824.4848481,4007.87878748,61.818181812,4400.9393935,4022.3030299,4450.90909046,3861.57575719,4311.30302987,3045.57575727,4469.45454501,2851.87878759,5390.54545401,2435.63636339,4417.9393935,3548.36363601,4459.66666622,3263.99999967,4225.27272685,12.3636363624,4826.45454497,2237.81818159,4538.48484803,2971.3939391,42.0,42.0,?
2017-07-31 18:52:44.678333,4699.72727226,2324.36363613,4262.36363594,848.969696885,4070.72727232,3824.4848481,4011.48484808,61.818181812,4411.75757532,4022.3030299,4461.21212077,3861.57575719,4324.18181775,3045.57575727,4482.33333289,2851.87878759,5391.57575704,2435.63636339,4435.96969653,3548.36363601,4470.48484804,3263.99999967,4218.57575715,12.3636363624,4832.12121164,2237.81818159,4549.30302985,2971.3939391,42.0,42.0,?
2017-07-31 18:52:44.686903,4713.12121165,2324.36363613,4269.57575715,848.969696885,4047.54545414,3824.4848481,4001.6969693,61.818181812,4404.03030259,4022.3030299,4453.48484804,3861.57575719,4311.81818139,3045.57575727,4469.96969652,2851.87878759,5373.03030249,2435.63636339,4399.39393895,3548.36363601,4468.42424198,3263.99999967,4222.69696927,12.3636363624,4840.36363588,2237.81818159,4550.84848439,2971.3939391,42.0,42.0,?
2017-07-31 18:52:44.692140,4717.24242377,2324.36363613,4263.90909048,848.969696885,4016.12121172,3824.4848481,4001.18181778,61.818181812,4399.90909047,4022.3030299,4443.69696925,3861.57575719,4302.54545412,3045.57575727,4457.60606016,2851.87878759,5373.54545401,2435.63636339,4407.12121168,3548.36363601,4441.63636319,3263.99999967,4224.24242382,12.3636363624,4808.93939346,2237.81818159,4536.42424197,2971.3939391,42.0,42.0,?
2017-07-31 18:52:44.701527,4703.33333286,2324.36363613,4261.84848442,848.969696885,4026.42424202,3824.4848481,4005.3030299,61.818181812,4404.03030259,4022.3030299,4447.30302986,3861.57575719,4306.66666624,3045.57575727,4462.2424238,2851.87878759,5389.51515098,2435.63636339,4444.21212077,3548.36363601,4428.75757531,3263.99999967,4223.21212079,12.3636363624,4788.33333285,2237.81818159,4533.33333288,2971.3939391,42.0,42.0,?
2017-07-31 18:52:44.708035,4679.12121165,2324.36363613,4274.21212078,848.969696885,4052.18181778,3824.4848481,3998.60606021,61.818181812,4393.72727229,4022.3030299,4434.42424198,3861.57575719,4284.51515109,3045.57575727,4446.27272683,2851.87878759,5373.54545401,2435.63636339,4423.60606016,3548.36363601,4433.39393895,3263.99999967,4225.78787837,12.3636363624,4799.66666619,2237.81818159,4525.09090864,2971.3939391,42.0,42.0,?
2017-07-31 18:52:44.715537,4678.09090862,2324.36363613,4255.66666624,848.969696885,4056.81818141,3824.4848481,4010.45454505,61.818181812,4406.60606017,4022.3030299,4442.15151471,3861.57575719,4289.66666624,3045.57575727,4449.87878743,2851.87878759,5371.99999946,2435.63636339,4397.84848441,3548.36363601,4451.93939349,3263.99999967,4221.15151473,12.3636363624,4813.06060558,2237.81818159,4518.39393894,2971.3939391,42.0,42.0,?
2017-07-31 18:52:44.725090,4706.42424195,2324.36363613,4262.87878745,848.969696885,4002.21212081,3824.4848481,3998.60606021,61.818181812,4400.9393935,4022.3030299,4442.15151471,3861.57575719,4300.99999957,3045.57575727,4449.87878743,2851.87878759,5363.75757522,2435.63636339,4387.54545411,3548.36363601,4453.48484804,3263.99999967,4220.63636321,12.3636363624,4820.27272679,2237.81818159,4527.1515147,2971.3939391,42.0,42.0,?
2017-07-31 18:52:44.732280,4698.18181771,2324.36363613,4268.0303026,848.969696885,4003.75757536,3824.4848481,3996.54545415,61.818181812,4393.72727229,4022.3030299,4438.5454541,3861.57575719,4301.51515109,3045.57575727,4446.27272683,2851.87878759,5356.03030249,2435.63636339,4400.9393935,3548.36363601,4439.57575713,3263.99999967,4221.15151473,12.3636363624,4803.78787831,2237.81818159,4529.21212076,2971.3939391,42.0,42.0,?
2017-07-31 18:52:44.740140,4667.27272681,2324.36363613,4263.39393897,848.969696885,4073.3030299,3824.4848481,4010.96969657,61.818181812,4399.90909047,4022.3030299,4436.48484804,3861.57575719,4300.48484805,3045.57575727,4448.8484844,2851.87878759,5361.69696916,2435.63636339,4402.99999956,3548.36363601,4442.66666622,3263.99999967,4222.69696927,12.3636363624,4790.90909043,2237.81818159,4523.54545409,2971.3939391,42.0,42.0,?
2017-07-31 18:52:44.749817,4676.03030256,2324.36363613,4272.15151472,848.969696885,4065.06060565,3824.4848481,3993.96969657,61.818181812,4388.06060562,4022.3030299,4419.99999956,3861.57575719,4290.69696927,3045.57575727,4432.87878744,2851.87878759,5354.48484795,2435.63636339,4384.45454502,3548.36363601,4439.06060562,3263.99999967,4223.21212079,12.3636363624,4790.39393891,2237.81818159,4524.06060561,2971.3939391,42.0,42.0,?
2017-07-31 18:52:44.755368,4700.75757529,2324.36363613,4256.18181776,848.969696885,4021.78787839,3824.4848481,3999.12121172,61.818181812,4399.90909047,4022.3030299,4431.84848441,3861.57575719,4302.54545412,3045.57575727,4439.06060562,2851.87878759,5369.42424189,2435.63636339,4399.90909047,3548.36363601,4428.75757531,3263.99999967,4218.57575715,12.3636363624,4779.5757571,2237.81818159,4542.60606015,2971.3939391,42.0,42.0,?
2017-07-31 18:52:44.762776,4701.78787832,2324.36363613,4265.45454503,848.969696885,4010.45454505,3824.4848481,3998.09090869,61.818181812,4396.81818138,4022.3030299,4433.90909047,3861.57575719,4289.66666624,3045.57575727,4433.39393895,2851.87878759,5360.66666613,2435.63636339,4384.96969653,3548.36363601,4436.99999956,3263.99999967,4222.69696927,12.3636363624,4791.42424195,2237.81818159,4549.81818136,2971.3939391,42.0,42.0,?
2017-07-31 18:52:44.772798,4686.84848438,2324.36363613,4271.12121169,848.969696885,4026.42424202,3824.4848481,3988.3030299,61.818181812,4391.15151471,4022.3030299,4429.27272683,3861.57575719,4282.96969654,3045.57575727,4423.60606016,2851.87878759,5342.12121159,2435.63636339,4361.78787835,3548.36363601,4459.66666622,3263.99999967,4221.15151473,12.3636363624,4817.1818177,2237.81818159,4538.99999955,2971.3939391,42.0,42.0,?
2017-07-31 18:52:44.779693,4687.87878741,2324.36363613,4258.75757533,848.969696885,4039.81818141,3824.4848481,3995.51515112,61.818181812,4407.12121168,4022.3030299,4440.09090865,3861.57575719,4302.0303026,3045.57575727,4439.57575713,2851.87878759,5360.66666613,2435.63636339,4384.96969653,3548.36363601,4458.12121168,3263.99999967,4217.54545412,12.3636363624,4807.39393891,2237.81818159,4536.42424197,2971.3939391,42.0,42.0,?
2017-07-31 18:52:44.788778,4693.54545408,2324.36363613,4268.0303026,848.969696885,4033.12121172,3824.4848481,3986.75757536,61.818181812,4399.39393895,4022.3030299,4430.81818138,3861.57575719,4280.90909048,3045.57575727,4435.45454501,2851.87878759,5361.18181765,2435.63636339,4386.51515108,3548.36363601,4433.90909047,3263.99999967,4221.66666624,12.3636363624,4781.63636316,2237.81818159,4537.96969652,2971.3939391,42.0,42.0,?
2017-07-31 18:52:44.794320,4684.2727268,2324.36363613,4253.09090867,848.969696885,4038.78787838,3824.4848481,3989.33333293,61.818181812,4402.99999956,4022.3030299,4442.66666622,3861.57575719,4283.99999957,3045.57575727,4441.12121168,2851.87878759,5358.60606007,2435.63636339,4382.39393896,3548.36363601,4444.72727228,3263.99999967,4219.09090867,12.3636363624,4788.33333285,2237.81818159,4545.69696924,2971.3939391,42.0,42.0,?
2017-07-31 18:52:44.801557,4689.42424196,2324.36363613,4257.7272723,848.969696885,4025.39393899,3824.4848481,3975.93939354,61.818181812,4394.2424238,4022.3030299,4452.96969652,3861.57575719,4298.42424199,3045.57575727,4443.18181774,2851.87878759,5346.75757522,2435.63636339,4382.39393896,3548.36363601,4455.5454541,3263.99999967,4223.21212079,12.3636363624,4803.27272679,2237.81818159,4549.81818136,2971.3939391,42.0,42.0,?
2017-07-31 18:52:44.812494,4697.15151468,2324.36363613,4263.90909048,848.969696885,4021.27272687,3824.4848481,3968.72727233,61.818181812,4383.9393935,4022.3030299,4453.99999955,3861.57575719,4299.96969654,3045.57575727,4440.60606016,2851.87878759,5343.66666613,2435.63636339,4371.57575714,3548.36363601,4450.90909046,3263.99999967,4223.21212079,12.3636363624,4804.30302982,2237.81818159,4542.60606015,2971.3939391,42.0,42.0,?
2017-07-31 18:52:44.818499,4687.36363589,2324.36363613,4251.03030261,848.969696885,4053.72727232,3824.4848481,3988.3030299,61.818181812,4405.06060562,4022.3030299,4468.42424198,3861.57575719,4315.42424199,3045.57575727,4455.03030258,2851.87878759,5367.36363583,2435.63636339,4368.99999956,3548.36363601,4460.18181774,3263.99999967,4218.06060564,12.3636363624,4806.8787874,2237.81818159,4540.03030258,2971.3939391,42.0,42.0,?
2017-07-31 18:52:44.825341,4689.93939347,2386.18181794,4267.51515109,848.969696885,4036.72727232,3824.4848481,3970.78787839,61.818181812,4401.96969653,4022.3030299,4458.63636319,3861.57575719,4299.96969654,3045.57575727,4439.57575713,2851.87878759,5358.60606007,2435.63636339,4383.9393935,3548.36363601,4449.87878743,3263.99999967,4224.24242382,12.3636363624,4798.63636316,2237.81818159,4542.60606015,2971.3939391,42.0,42.0,?
2017-07-31 18:52:44.832951,4705.39393892,2386.18181794,4260.81818139,927.27272718,4018.6969693,3824.4848481,3975.93939354,61.818181812,4406.09090865,4022.3030299,4469.96969652,3861.57575719,4307.18181775,3045.57575727,4448.33333289,2851.87878759,5367.36363583,2435.63636339,4418.96969653,3548.36363601,4446.78787834,3263.99999967,4226.8181814,12.3636363624,4793.48484801,2237.81818159,4554.454545,2971.3939391,42.0,42.0,?
2017-07-31 18:52:44.840530,4705.90909044,2386.18181794,4257.7272723,927.27272718,4034.15151475,3824.4848481,3985.21212081,61.818181812,4401.45454501,4022.3030299,4478.21212076,3861.57575719,4327.78787836,3045.57575727,4463.78787834,2851.87878759,5380.2424237,2435.63636339,4399.39393895,3548.36363601,4459.15151471,3263.99999967,4227.84848443,12.3636363624,4815.63636315,2237.81818159,4551.87878742,3152.72727241,42.0,42.0,?
2017-07-31 18:52:44.851043,4688.39393893,2386.18181794,4262.36363594,927.27272718,4044.45454505,4051.15151475,3968.21212082,61.818181812,4387.03030259,4022.3030299,4462.75757531,3861.57575719,4319.0303026,3045.57575727,4451.93939349,2851.87878759,5361.69696916,2435.63636339,4362.81818138,3548.36363601,4458.12121168,3263.99999967,4221.15151473,12.3636363624,4819.24242376,2237.81818159,4535.39393894,3152.72727241,42.0,42.0,?
2017-07-31 18:52:44.857005,4688.90909044,2386.18181794,4253.09090867,927.27272718,4045.9999996,4051.15151475,3982.12121172,103.03030302,4409.18181774,4022.3030299,4484.39393895,3861.57575719,4317.99999957,3045.57575727,4463.78787834,2851.87878759,5364.78787825,2435.63636339,4389.60606017,3548.36363601,4475.12121167,3263.99999967,4215.48484806,12.3636363624,4811.51515103,2237.81818159,4550.84848439,3152.72727241,42.0,42.0,?
2017-07-31 18:52:44.865682,4713.63636317,2386.18181794,4269.57575715,927.27272718,4021.27272687,4051.15151475,3981.60606021,103.03030302,4405.06060562,4121.2121208,4496.24242379,3861.57575719,4300.48484805,3045.57575727,4458.12121168,2851.87878759,5368.90909037,2435.63636339,4413.81818138,3548.36363601,4476.1515147,3263.99999967,4226.8181814,12.3636363624,4808.42424194,2237.81818159,4567.33333288,3152.72727241,42.0,42.0,?
2017-07-31 18:52:44.872225,4706.42424195,2386.18181794,4259.27272685,927.27272718,4024.87878748,4051.15151475,3977.48484809,103.03030302,4397.33333289,4121.2121208,4492.12121167,3939.87878748,4299.96969654,3045.57575727,4447.81818137,2851.87878759,5368.39393886,2435.63636339,4415.87878744,3548.36363601,4452.96969652,3263.99999967,4225.27272685,12.3636363624,4793.48484801,2237.81818159,4549.30302985,3152.72727241,42.0,42.0,?
2017-07-31 18:52:44.879744,4684.78787832,2386.18181794,4257.7272723,927.27272718,4041.87878747,4051.15151475,3978.51515112,103.03030302,4404.03030259,4121.2121208,4487.48484804,3939.87878748,4308.21212078,3111.5151512,4450.90909046,2851.87878759,5354.48484795,2435.63636339,4407.12121168,3548.36363601,4446.78787834,3263.99999967,4220.1212117,12.3636363624,4791.93939346,2237.81818159,4534.87878743,3152.72727241,42.0,42.0,?
2017-07-31 18:52:44.888505,4695.60606014,2386.18181794,4270.09090866,927.27272718,4026.42424202,4051.15151475,3975.42424203,103.03030302,4406.09090865,4121.2121208,4491.09090864,3939.87878748,4295.84848442,3111.5151512,4448.33333289,2942.54545425,5347.27272674,2435.63636339,4395.78787835,3548.36363601,4465.8484844,3263.99999967,4220.63636321,12.3636363624,4809.45454497,2237.81818159,4553.93939348,3152.72727241,42.0,42.0,?
2017-07-31 18:52:44.895550,4698.69696923,2386.18181794,4252.57575715,927.27272718,4044.96969657,4051.15151475,3991.90909051,103.03030302,4416.90909047,4121.2121208,4517.87878743,3939.87878748,4304.09090866,3111.5151512,4458.12121168,2942.54545425,5377.15151461,2530.42424217,4417.42424198,3548.36363601,4479.75757531,3263.99999967,4220.1212117,12.3636363624,4810.99999952,2237.81818159,4567.84848439,3152.72727241,42.0,42.0,?
2017-07-31 18:52:44.906960,4695.60606014,2386.18181794,4261.84848442,927.27272718,4039.3030299,4051.15151475,3979.03030263,103.03030302,4396.30302986,4121.2121208,4519.42424197,3939.87878748,4300.99999957,3111.5151512,4445.75757531,2942.54545425,5363.75757522,2530.42424217,4417.42424198,3564.84848449,4467.39393895,3263.99999967,4225.27272685,12.3636363624,4802.24242376,2237.81818159,4552.90909045,3152.72727241,42.0,42.0,?
2017-07-31 18:52:44.911497,4709.51515104,2386.18181794,4262.87878745,927.27272718,4015.6060602,4051.15151475,3975.93939354,103.03030302,4396.30302986,4121.2121208,4525.60606015,3939.87878748,4306.15151472,3111.5151512,4449.36363592,2942.54545425,5349.84848431,2530.42424217,4397.33333289,3564.84848449,4478.72727228,3581.33333298,4223.21212079,12.3636363624,4815.12121164,2237.81818159,4556.51515106,3152.72727241,42.0,42.0,?
2017-07-31 18:52:44.920349,4712.60606013,2386.18181794,4258.75757533,927.27272718,4031.57575717,4051.15151475,3986.24242384,103.03030302,4416.39393895,4121.2121208,4543.12121167,3939.87878748,4326.24242381,3111.5151512,4470.48484804,2942.54545425,5373.54545401,2530.42424217,4410.72727229,3564.84848449,4491.60606016,3581.33333298,4222.18181776,12.3636363624,4821.81818134,2237.81818159,4573.51515106,3152.72727241,42.0,42.0,?
2017-07-31 18:52:44.927923,4691.99999953,2386.18181794,4269.57575715,927.27272718,4045.9999996,4051.15151475,3974.90909051,103.03030302,4404.54545411,4121.2121208,4540.54545409,3939.87878748,4321.09090866,3111.5151512,4458.63636319,2942.54545425,5364.78787825,2530.42424217,4408.15151471,3564.84848449,4473.06060561,3581.33333298,4224.24242382,12.3636363624,4810.484848,2464.48484824,4567.33333288,3152.72727241,42.0,42.0,?
2017-07-31 18:52:44.935133,4691.48484802,2386.18181794,4255.66666624,927.27272718,4052.18181778,4051.15151475,3989.33333293,103.03030302,4404.54545411,4121.2121208,4550.33333288,3939.87878748,4325.21212078,3111.5151512,4463.78787834,2942.54545425,5362.72727219,2530.42424217,4407.6363632,3564.84848449,4483.87878743,3581.33333298,4220.63636321,12.3636363624,4817.1818177,2464.48484824,4568.87878742,3152.72727241,42.0,42.0,?
2017-07-31 18:52:44.942813,4724.9696965,2386.18181794,4265.96969654,927.27272718,4026.93939354,4051.15151475,3979.03030263,103.03030302,4391.15151471,4121.2121208,4545.18181773,3939.87878748,4319.54545411,3111.5151512,4463.78787834,2942.54545425,5367.87878734,2530.42424217,4422.06060562,3564.84848449,4500.36363591,3589.57575722,4225.27272685,12.3636363624,4830.57575709,2464.48484824,4580.72727227,3152.72727241,42.0,42.0,?
2017-07-31 18:52:44.950093,4710.03030256,2386.18181794,4268.0303026,927.27272718,4030.54545414,4051.15151475,3957.393939,103.03030302,4382.90909047,4121.2121208,4541.06060561,3939.87878748,4312.3333329,3111.5151512,4450.90909046,2942.54545425,5366.84848431,2530.42424217,4425.15151471,3564.84848449,4487.48484804,3589.57575722,4223.7272723,12.3636363624,4819.75757528,2464.48484824,4564.24242379,3152.72727241,42.0,42.0,?
2017-07-31 18:52:44.957859,4666.24242378,2386.18181794,4259.27272685,927.27272718,4061.96969656,4051.15151475,3968.72727233,103.03030302,4393.72727229,4121.2121208,4552.90909045,3939.87878748,4313.87878745,3111.5151512,4447.30302986,2942.54545425,5362.21212068,2530.42424217,4402.99999956,3564.84848449,4473.57575713,3589.57575722,4220.63636321,12.3636363624,4806.8787874,2464.48484824,4544.66666621,3152.72727241,42.0,42.0,?
2017-07-31 18:52:44.967521,4682.72727226,2386.18181794,4270.09090866,927.27272718,4019.72727233,4051.15151475,3964.09090869,103.03030302,4381.36363593,4121.2121208,4551.36363591,3939.87878748,4300.48484805,3111.5151512,4435.45454501,2942.54545425,5342.6363631,2530.42424217,4379.30302987,3564.84848449,4468.93939349,3589.57575722,4222.18181776,12.3636363624,4804.81818134,2464.48484824,4560.12121167,3152.72727241,42.0,42.0,?
2017-07-31 18:52:44.974081,4708.48484801,2386.18181794,4254.63636321,927.27272718,3992.42424203,4051.15151475,3965.63636324,103.03030302,4384.45454502,4121.2121208,4561.66666621,3939.87878748,4310.27272684,3111.5151512,4447.30302986,2942.54545425,5357.06060552,2530.42424217,4415.87878744,3564.84848449,4472.03030258,3589.57575722,4219.09090867,12.3636363624,4796.06060558,2464.48484824,4569.39393894,3152.72727241,42.0,42.0,?
2017-07-31 18:52:44.983177,4683.75757529,2386.18181794,4262.36363594,927.27272718,4029.51515111,4051.15151475,3964.60606021,103.03030302,4379.81818138,4121.2121208,4559.60606015,3939.87878748,4303.57575715,3111.5151512,4443.18181774,2942.54545425,5356.54545401,2530.42424217,4423.09090865,3564.84848449,4467.90909046,3589.57575722,4225.78787837,12.3636363624,4798.12121164,2464.48484824,4542.60606015,3152.72727241,42.0,42.0,?
2017-07-31 18:52:44.989550,4658.51515105,2386.18181794,4266.99999957,927.27272718,4058.36363596,4051.15151475,3962.54545415,103.03030302,4375.69696926,4121.2121208,4562.69696924,3939.87878748,4289.66666624,3111.5151512,4427.72727228,2942.54545425,5340.06060553,2530.42424217,4394.2424238,3564.84848449,4462.2424238,3589.57575722,4223.21212079,12.3636363624,4797.60606013,2464.48484824,4529.72727227,3152.72727241,42.0,42.0,?
2017-07-31 18:52:44.997838,4676.54545408,2386.18181794,4250.51515109,927.27272718,4025.90909051,4051.15151475,3968.21212082,103.03030302,4385.48484805,4121.2121208,4581.24242378,3939.87878748,4299.45454502,3111.5151512,4439.06060562,2942.54545425,5348.81818128,2530.42424217,4385.99999956,3564.84848449,4466.36363592,3589.57575722,4217.03030261,12.3636363624,4783.69696922,2464.48484824,4547.24242379,3152.72727241,42.0,42.0,?
2017-07-31 18:52:45.005489,4687.87878741,2386.18181794,4263.90909048,927.27272718,3984.18181778,4051.15151475,3964.60606021,103.03030302,4370.54545411,4121.2121208,4578.66666621,3939.87878748,4287.60606018,3111.5151512,4432.87878744,2942.54545425,5339.0303025,2530.42424217,4374.66666623,3564.84848449,4457.09090865,3589.57575722,4221.66666624,12.3636363624,4781.63636316,2464.48484824,4540.03030258,3152.72727241,42.0,42.0,?
2017-07-31 18:52:45.012502,4674.99999953,2386.18181794,4259.27272685,927.27272718,4019.72727233,4051.15151475,3983.66666627,103.03030302,4384.96969653,4121.2121208,4602.87878742,3939.87878748,4297.39393896,3111.5151512,4442.15151471,2942.54545425,5349.84848431,2530.42424217,4402.48484804,3564.84848449,4458.63636319,3589.57575722,4220.1212117,12.3636363624,4792.45454498,2464.48484824,4528.69696924,3152.72727241,42.0,42.0,?
2017-07-31 18:52:45.023176,4672.42424196,2386.18181794,4261.33333291,927.27272718,4054.75757535,4051.15151475,3980.57575718,103.03030302,4394.2424238,4121.2121208,4616.78787833,3939.87878748,4308.7272723,3111.5151512,4449.36363592,2942.54545425,5358.60606007,2530.42424217,4418.45454501,3564.84848449,4468.93939349,3589.57575722,4224.75757534,12.3636363624,4799.66666619,2464.48484824,4538.99999955,3152.72727241,42.0,42.0,?
2017-07-31 18:52:45.029051,4668.30302984,2386.18181794,4263.90909048,927.27272718,4049.6060602,4051.15151475,3965.12121172,103.03030302,4377.75757532,4121.2121208,4604.42424196,3939.87878748,4303.06060563,3111.5151512,4441.63636319,2942.54545425,5346.75757522,2530.42424217,4396.30302986,3564.84848449,4471.51515107,3589.57575722,4225.78787837,12.3636363624,4798.63636316,2464.48484824,4539.51515106,3152.72727241,42.0,42.0,?
2017-07-31 18:52:45.038031,4684.2727268,2386.18181794,4252.57575715,927.27272718,4033.63636323,4051.15151475,3978.51515112,103.03030302,4389.60606017,4121.2121208,4621.42424196,3939.87878748,4319.54545411,3111.5151512,4457.60606016,2942.54545425,5359.6363631,2530.42424217,4393.21212077,3564.84848449,4486.45454501,3589.57575722,4219.60606018,12.3636363624,4811.51515103,2464.48484824,4550.84848439,3152.72727241,42.0,42.0,?
2017-07-31 18:52:45.045320,4706.93939347,2386.18181794,4269.06060563,927.27272718,4015.6060602,4051.15151475,3969.24242385,103.03030302,4385.99999956,4121.2121208,4630.18181772,3939.87878748,4309.75757533,3111.5151512,4448.8484844,2942.54545425,5355.51515098,2530.42424217,4393.72727229,3564.84848449,4480.78787834,3589.57575722,4224.24242382,12.3636363624,4806.36363588,2464.48484824,4560.63636318,3152.72727241,42.0,42.0,?
2017-07-31 18:52:45.051694,4674.48484802,2386.18181794,4260.30302988,927.27272718,4038.78787838,4051.15151475,3975.93939354,103.03030302,4379.81818138,4121.2121208,4638.93939348,3939.87878748,4300.99999957,3111.5151512,4438.5454541,2942.54545425,5346.24242371,2530.42424217,4405.57575714,3564.84848449,4464.81818137,3589.57575722,4223.7272723,12.3636363624,4777.51515104,2464.48484824,4547.7575753,3152.72727241,42.0,42.0,?
2017-07-31 18:52:45.062025,4647.18181772,2386.18181794,4258.75757533,927.27272718,4039.81818141,4051.15151475,3980.06060566,103.03030302,4375.18181774,4121.2121208,4644.60606014,3939.87878748,4307.69696927,3111.5151512,4438.03030259,2942.54545425,5331.30302977,2530.42424217,4389.60606017,3564.84848449,4469.45454501,3589.57575722,4223.7272723,12.3636363624,4787.81818134,2464.48484824,4539.51515106,3152.72727241,42.0,42.0,?
2017-07-31 18:52:45.070252,4663.6666662,2386.18181794,4271.12121169,927.27272718,4018.6969693,4051.15151475,3965.12121172,103.03030302,4371.06060562,4121.2121208,4643.0606056,3939.87878748,4303.57575715,3111.5151512,4429.78787834,2942.54545425,5310.18181765,2530.42424217,4360.24242381,3564.84848449,4470.48484804,3589.57575722,4222.18181776,12.3636363624,4801.72727225,2464.48484824,4541.06060561,3152.72727241,42.0,42.0,?
2017-07-31 18:52:45.076331,4680.15151468,2386.18181794,4255.66666624,927.27272718,4027.96969657,4051.15151475,3978.51515112,103.03030302,4385.99999956,4121.2121208,4659.54545408,3939.87878748,4304.60606018,3111.5151512,4438.5454541,2942.54545425,5324.60606007,2530.42424217,4376.72727229,3564.84848449,4464.30302986,3589.57575722,4217.54545412,12.3636363624,4786.27272679,2464.48484824,4554.96969651,3152.72727241,42.0,42.0,?
2017-07-31 18:52:45.082957,4674.48484802,2386.18181794,4263.90909048,927.27272718,4014.57575717,4051.15151475,3970.27272688,103.03030302,4370.03030259,4121.2121208,4659.54545408,3939.87878748,4281.424242,3111.5151512,4421.5454541,2942.54545425,5319.45454492,2530.42424217,4374.15151471,3564.84848449,4457.09090865,3589.57575722,4223.21212079,12.3636363624,4778.03030255,2464.48484824,4549.81818136,3152.72727241,42.0,42.0,?
2017-07-31 18:52:45.091617,4662.63636317,2386.18181794,4262.36363594,927.27272718,4005.3030299,4051.15151475,3965.12121172,103.03030302,4364.87878744,4121.2121208,4672.42424196,3939.87878748,4278.84848442,3111.5151512,4410.21212077,2942.54545425,5308.12121159,2530.42424217,4371.57575714,3564.84848449,4459.15151471,3589.57575722,4224.24242382,12.3636363624,4778.54545407,2464.48484824,4536.93939349,3152.72727241,42.0,42.0,?
2017-07-31 18:52:45.099082,4679.63636317,2386.18181794,4261.33333291,927.27272718,3993.45454506,4051.15151475,3966.66666627,103.03030302,4370.54545411,4121.2121208,4686.84848438,3939.87878748,4288.63636321,3111.5151512,4417.42424198,2942.54545425,5307.09090856,2530.42424217,4381.87878744,3564.84848449,4468.42424198,3589.57575722,4224.75757534,12.3636363624,4783.69696922,2464.48484824,4549.81818136,3152.72727241,42.0,42.0,?
2017-07-31 18:52:45.106432,4682.21212074,2386.18181794,4269.06060563,927.27272718,3990.87878748,4051.15151475,3952.24242385,103.03030302,4361.27272684,4121.2121208,4678.60606014,3939.87878748,4276.27272685,3111.5151512,4414.84848441,2942.54545425,5305.0303025,2530.42424217,4374.15151471,3564.84848449,4462.75757531,3589.57575722,4221.66666624,12.3636363624,4782.66666619,2464.48484824,4547.24242379,3152.72727241,42.0,42.0,?
2017-07-31 18:52:45.115586,4653.87878741,2386.18181794,4248.45454503,927.27272718,4043.42424202,4051.15151475,3968.21212082,103.03030302,4380.84848441,4121.2121208,4694.57575711,3939.87878748,4296.87878745,3111.5151512,4441.63636319,2942.54545425,5325.6363631,2530.42424217,4390.12121168,3564.84848449,4467.90909046,3589.57575722,4220.1212117,12.3636363624,4787.81818134,2464.48484824,4533.33333288,3152.72727241,42.0,42.0,?
2017-07-31 18:52:45.121488,4649.24242378,2386.18181794,4257.7272723,927.27272718,4055.78787838,4051.15151475,3973.36363597,103.03030302,4380.3333329,4121.2121208,4702.30302983,3939.87878748,4297.90909048,3111.5151512,4444.72727228,2942.54545425,5321.51515098,2530.42424217,4395.78787835,3564.84848449,4470.48484804,3589.57575722,4228.36363594,12.3636363624,4795.54545407,2464.48484824,4536.42424197,3152.72727241,42.0,42.0,?
2017-07-31 18:52:45.129464,4662.63636317,2386.18181794,4265.45454503,927.27272718,4020.75757536,4051.15151475,3973.36363597,103.03030302,4372.60606017,4121.2121208,4705.39393892,3939.87878748,4292.24242381,3111.5151512,4432.87878744,2942.54545425,5318.93939341,2530.42424217,4384.96969653,3564.84848449,4459.66666622,3589.57575722,4220.63636321,12.3636363624,4783.1818177,2464.48484824,4546.72727227,3152.72727241,42.0,42.0,?
2017-07-31 18:52:45.138862,4662.63636317,2386.18181794,4253.09090867,927.27272718,4010.96969657,4051.15151475,3988.3030299,103.03030302,4385.48484805,4121.2121208,4723.93939347,3939.87878748,4321.09090866,3111.5151512,4448.8484844,2942.54545425,5336.45454492,2530.42424217,4391.15151471,3564.84848449,4467.39393895,3589.57575722,4219.60606018,12.3636363624,4788.33333285,2464.48484824,4549.30302985,3152.72727241,42.0,42.0,?
2017-07-31 18:52:45.148554,4654.39393893,2386.18181794,4243.81818139,927.27272718,4021.27272687,4051.15151475,3987.78787839,103.03030302,4388.57575714,4121.2121208,4740.93939347,3939.87878748,4337.06060563,3111.5151512,4460.18181774,2942.54545425,5330.27272674,2530.42424217,4398.87878744,3564.84848449,4484.90909046,3589.57575722,4227.33333291,12.3636363624,4810.484848,2464.48484824,4542.09090864,3152.72727241,42.0,42.0,?
2017-07-31 18:52:45.154232,4644.60606014,2386.18181794,4244.33333291,927.27272718,4034.66666626,4051.15151475,3977.48484809,103.03030302,4383.9393935,4121.2121208,4753.30302983,3939.87878748,4329.84848442,3111.5151512,4455.03030258,2942.54545425,5324.60606007,2530.42424217,4401.45454501,3564.84848449,4477.69696925,3589.57575722,4221.66666624,12.3636363624,4796.5757571,2464.48484824,4531.27272682,3152.72727241,42.0,42.0,?
2017-07-31 18:52:45.163277,4638.42424196,2386.18181794,4282.96969654,927.27272718,4017.15151475,4051.15151475,3948.12121173,103.03030302,4352.51515108,4121.2121208,4731.15151468,3939.87878748,4288.12121169,3111.5151512,4417.42424198,2942.54545425,5301.42424189,2530.42424217,4380.3333329,3564.84848449,4436.99999956,3589.57575722,4223.21212079,12.3636363624,4763.60606013,2464.48484824,4510.66666622,3152.72727241,42.0,42.0,?
2017-07-31 18:52:45.170684,4651.81818135,2386.18181794,4274.21212078,927.27272718,3993.45454506,4051.15151475,3952.24242385,103.03030302,4357.66666623,4121.2121208,4732.18181771,3939.87878748,4282.96969654,3111.5151512,4417.9393935,2942.54545425,5293.69696917,2530.42424217,4371.57575714,3564.84848449,4455.03030258,3589.57575722,4224.75757534,12.3636363624,4782.66666619,2464.48484824,4518.90909046,3152.72727241,42.0,42.0,?
2017-07-31 18:52:45.176533,4672.42424196,2386.18181794,4243.30302988,927.27272718,4006.84848445,4051.15151475,3978.51515112,103.03030302,4390.6363632,4121.2121208,4768.24242377,3939.87878748,4316.45454502,3111.5151512,4449.36363592,2942.54545425,5319.45454492,2530.42424217,4387.54545411,3564.84848449,4507.06060561,3589.57575722,4222.69696927,12.3636363624,4820.78787831,2464.48484824,4551.87878742,3152.72727241,42.0,42.0,?
2017-07-31 18:52:45.185349,4669.33333287,2386.18181794,4271.12121169,927.27272718,4007.87878748,4051.15151475,3955.84848445,103.03030302,4359.72727229,4121.2121208,4757.93939346,3939.87878748,4290.18181775,3111.5151512,4419.48484804,2942.54545425,5306.06060553,2530.42424217,4392.18181774,3564.84848449,4471.51515107,3589.57575722,4224.75757534,12.3636363624,4791.93939346,2464.48484824,4549.81818136,3152.72727241,42.0,42.0,?
2017-07-31 18:52:45.193128,4651.81818135,2386.18181794,4266.48484806,927.27272718,4027.96969657,4051.15151475,3966.66666627,103.03030302,4353.03030259,4121.2121208,4757.42424195,3939.87878748,4274.21212078,3111.5151512,4416.90909047,2942.54545425,5304.51515098,2530.42424217,4404.03030259,3564.84848449,4447.81818137,3589.57575722,4222.69696927,12.3636363624,4770.30302983,2464.48484824,4535.90909046,3152.72727241,42.0,42.0,?
2017-07-31 18:52:45.200372,4648.72727226,2386.18181794,4259.27272685,927.27272718,4050.63636323,4051.15151475,3986.75757536,103.03030302,4371.57575714,4121.2121208,4773.90909043,3939.87878748,4284.51515109,3111.5151512,4436.99999956,2942.54545425,5314.81818129,2530.42424217,4393.21212077,3564.84848449,4473.57575713,3589.57575722,4226.30302988,12.3636363624,4791.93939346,2464.48484824,4531.27272682,3152.72727241,42.0,42.0,?
2017-07-31 18:52:45.207799,4645.12121166,2386.18181794,4266.48484806,927.27272718,4024.87878748,4051.15151475,3970.78787839,103.03030302,4366.42424199,4121.2121208,4776.48484801,3939.87878748,4283.99999957,3111.5151512,4425.66666622,2942.54545425,5305.0303025,2530.42424217,4378.27272683,3564.84848449,4467.39393895,3589.57575722,4225.78787837,12.3636363624,4779.06060558,2464.48484824,4532.30302985,3152.72727241,42.0,42.0,?
2017-07-31 18:52:45.215368,4644.60606014,2386.18181794,4251.54545412,927.27272718,3994.9999996,4051.15151475,3972.33333294,103.03030302,4372.09090865,4121.2121208,4785.24242376,3939.87878748,4290.69696927,3111.5151512,4426.69696925,2942.54545425,5309.15151462,2530.42424217,4398.87878744,3564.84848449,4460.18181774,3589.57575722,4221.66666624,12.3636363624,4768.75757528,2464.48484824,4548.27272682,3152.72727241,42.0,42.0,?
2017-07-31 18:52:45.225972,4649.75757529,2386.18181794,4265.96969654,927.27272718,3988.81818142,4051.15151475,3964.09090869,103.03030302,4359.72727229,4121.2121208,4780.60606013,3939.87878748,4271.63636321,3111.5151512,4412.78787835,2942.54545425,5291.12121159,2530.42424217,4387.03030259,3564.84848449,4459.15151471,3589.57575722,4225.78787837,12.3636363624,4786.27272679,2464.48484824,4540.03030258,3152.72727241,42.0,42.0,?
2017-07-31 18:52:45.232675,4636.87878742,2386.18181794,4261.84848442,927.27272718,4030.03030263,4051.15151475,3976.45454506,103.03030302,4365.39393896,4121.2121208,4792.96969649,3939.87878748,4276.27272685,3111.5151512,4414.33333289,2942.54545425,5290.60606008,2530.42424217,4378.78787835,3564.84848449,4452.45454501,3589.57575722,4222.18181776,12.3636363624,4777.51515104,2464.48484824,4513.24242379,3152.72727241,42.0,42.0,?
2017-07-31 18:52:45.241466,4638.42424196,2386.18181794,4261.33333291,927.27272718,4026.42424202,4051.15151475,3985.21212081,103.03030302,4376.72727229,4121.2121208,4802.24242376,3939.87878748,4293.78787836,3111.5151512,4426.18181774,2942.54545425,5302.96969644,2530.42424217,4390.12121168,3564.84848449,4443.18181774,3589.57575722,4222.69696927,12.3636363624,4760.51515104,2464.48484824,4520.96969652,3152.72727241,42.0,42.0,?
2017-07-31 18:52:45.249850,4639.45454499,2386.18181794,4265.45454503,927.27272718,3992.42424203,4051.15151475,3968.72727233,103.03030302,4371.57575714,4121.2121208,4803.27272679,3939.87878748,4291.21212078,3111.5151512,4418.45454501,2942.54545425,5291.63636311,2530.42424217,4383.42424199,3564.84848449,4440.60606016,3589.57575722,4224.75757534,12.3636363624,4763.09090861,2464.48484824,4529.72727227,3152.72727241,42.0,42.0,?
2017-07-31 18:52:45.256080,4636.3636359,2386.18181794,4268.0303026,927.27272718,3996.03030263,4051.15151475,3974.90909051,103.03030302,4372.60606017,4121.2121208,4806.8787874,3939.87878748,4312.84848442,3111.5151512,4438.03030259,2942.54545425,5299.87878735,2530.42424217,4387.03030259,3564.84848449,4470.99999955,3589.57575722,4225.27272685,12.3636363624,4792.96969649,2464.48484824,4524.57575712,3152.72727241,42.0,42.0,?
2017-07-31 18:52:45.265095,4636.3636359,2386.18181794,4268.0303026,927.27272718,3996.03030263,4051.15151475,3974.90909051,103.03030302,4372.60606017,4121.2121208,4806.8787874,3939.87878748,4312.84848442,3111.5151512,4438.03030259,2942.54545425,5299.87878735,2530.42424217,4387.03030259,3564.84848449,4470.99999955,3589.57575722,4225.27272685,12.3636363624,4792.96969649,2464.48484824,4524.57575712,3152.72727241,42.0,42.0,?
2017-07-31 18:52:45.271218,4644.09090863,2386.18181794,4259.78787836,927.27272718,3986.75757536,4051.15151475,3966.66666627,103.03030302,4365.90909047,4121.2121208,4805.84848437,3939.87878748,4303.57575715,3111.5151512,4431.33333289,2942.54545425,5292.66666614,2530.42424217,4388.57575714,3564.84848449,4472.03030258,3589.57575722,4222.18181776,12.3636363624,4790.39393891,2464.48484824,4530.7575753,3152.72727241,42.0,42.0,?
2017-07-31 18:52:45.282130,4627.60606014,2386.18181794,4258.24242382,927.27272718,4019.72727233,4051.15151475,3973.36363597,103.03030302,4374.66666623,4121.2121208,4829.03030255,3939.87878748,4303.57575715,3111.5151512,4434.42424198,2942.54545425,5305.0303025,2530.42424217,4409.69696926,3564.84848449,4463.78787834,3589.57575722,4223.7272723,12.3636363624,4781.12121164,2464.48484824,4523.03030258,3152.72727241,42.0,42.0,?
2017-07-31 18:52:45.288556,4631.72727226,2386.18181794,4271.63636321,927.27272718,4022.81818142,4051.15151475,3979.54545415,103.03030302,4376.21212077,4121.2121208,4836.24242376,3939.87878748,4299.96969654,3111.5151512,4439.57575713,2942.54545425,5309.15151462,2530.42424217,4409.69696926,3564.84848449,4471.51515107,3589.57575722,4224.24242382,12.3636363624,4790.90909043,2464.48484824,4529.21212076,3152.72727241,42.0,42.0,?
2017-07-31 18:52:45.295067,4644.60606014,2386.18181794,4257.7272723,927.27272718,4023.84848445,4051.15151475,3991.90909051,103.03030302,4381.36363593,4121.2121208,4843.96969649,3939.87878748,4313.87878745,3111.5151512,4455.03030258,2942.54545425,5318.42424189,2530.42424217,4410.72727229,3564.84848449,4489.03030258,3589.57575722,4222.18181776,12.3636363624,4800.69696922,2464.48484824,4541.57575712,3152.72727241,42.0,42.0,?
2017-07-31 18:52:45.302258,4653.87878741,2386.18181794,4265.96969654,927.27272718,4008.39393899,4051.15151475,3977.9999996,103.03030302,4363.3333329,4121.2121208,4837.27272679,3939.87878748,4309.24242381,3111.5151512,4443.18181774,2942.54545425,5306.57575705,2530.42424217,4400.9393935,3564.84848449,4489.5454541,3589.57575722,4227.84848443,12.3636363624,4808.42424194,2464.48484824,4537.96969652,3152.72727241,42.0,42.0,?
2017-07-31 18:52:45.310761,4657.48484802,2386.18181794,4264.93939351,927.27272718,4003.75757536,4051.15151475,3974.393939,103.03030302,4365.39393896,4121.2121208,4841.90909042,3939.87878748,4309.75757533,3111.5151512,4444.72727228,2942.54545425,5300.39393886,2530.42424217,4400.9393935,3564.84848449,4491.09090864,3589.57575722,4221.66666624,12.3636363624,4806.8787874,2464.48484824,4546.21212076,3152.72727241,42.0,42.0,?
2017-07-31 18:52:45.317339,4646.6666662,2386.18181794,4258.24242382,927.27272718,4031.57575717,4051.15151475,3977.48484809,103.03030302,4375.18181774,4121.2121208,4855.30302982,3939.87878748,4310.27272684,3111.5151512,4453.48484804,2942.54545425,5303.99999947,2530.42424217,4426.18181774,3564.84848449,4480.27272682,3589.57575722,4220.63636321,12.3636363624,4789.36363588,2464.48484824,4548.78787833,3152.72727241,42.0,42.0,?
2017-07-31 18:52:45.327507,4645.63636317,2588.12121186,4259.78787836,927.27272718,4027.45454505,4051.15151475,3973.87878748,103.03030302,4368.99999956,4121.2121208,4860.96969648,3939.87878748,4303.06060563,3111.5151512,4442.15151471,2942.54545425,5302.96969644,2530.42424217,4433.90909047,3564.84848449,4472.5454541,3589.57575722,4227.84848443,12.3636363624,4788.84848437,2464.48484824,4538.48484803,3152.72727241,42.0,42.0,?
2017-07-31 18:52:45.334395,4659.54545408,2588.12121186,4264.424242,865.454545368,3993.45454506,4051.15151475,3974.393939,103.03030302,4371.06060562,4121.2121208,4868.1818177,3939.87878748,4309.75757533,3111.5151512,4440.60606016,2942.54545425,5300.39393886,2530.42424217,4398.36363592,3564.84848449,4492.12121167,3589.57575722,4224.75757534,12.3636363624,4806.8787874,2464.48484824,4544.1515147,3152.72727241,42.0,42.0,?
2017-07-31 18:52:45.342247,4662.12121166,2588.12121186,4270.09090866,865.454545368,4005.3030299,4051.15151475,3970.27272688,103.03030302,4366.42424199,4121.2121208,4866.63636315,3939.87878748,4302.54545412,3111.5151512,4436.48484804,2942.54545425,5280.81818129,2530.42424217,4375.18181774,3564.84848449,4507.57575713,3589.57575722,4225.27272685,12.3636363624,4818.21212073,2464.48484824,4555.99999954,3358.78787845,42.0,42.0,?
2017-07-31 18:52:45.348721,4638.93939348,2588.12121186,4236.60606018,865.454545368,4074.84848444,3692.60606024,4006.84848445,103.03030302,4393.21212077,4121.2121208,4891.87878739,3939.87878748,4314.39393896,3111.5151512,4454.51515107,2942.54545425,5307.09090856,2530.42424217,4441.63636319,3564.84848449,4502.93939349,3589.57575722,4225.78787837,12.3636363624,4806.8787874,2464.48484824,4554.454545,3358.78787845,42.0,42.0,?
2017-07-31 18:52:45.356348,4638.93939348,2588.12121186,4250.51515109,865.454545368,4041.36363596,3692.60606024,4002.72727233,144.242424228,4384.45454502,4121.2121208,4889.30302981,3939.87878748,4305.63636321,3111.5151512,4447.30302986,2942.54545425,5310.18181765,2530.42424217,4451.42424198,3564.84848449,4481.81818137,3589.57575722,4226.30302988,12.3636363624,4791.42424195,2464.48484824,4542.09090864,3358.78787845,42.0,42.0,?
2017-07-31 18:52:45.365197,4666.24242378,2588.12121186,4277.81818139,865.454545368,3963.06060566,3692.60606024,3966.15151475,144.242424228,4345.81818138,4203.63636322,4867.15151466,3939.87878748,4281.424242,3111.5151512,4417.9393935,2942.54545425,5276.18181765,2530.42424217,4384.96969653,3564.84848449,4479.24242379,3589.57575722,4225.78787837,12.3636363624,4797.09090861,2464.48484824,4548.78787833,3358.78787845,42.0,42.0,?
2017-07-31 18:52:45.372784,4661.60606014,2588.12121186,4250.51515109,865.454545368,4015.6060602,3692.60606024,3995.51515112,144.242424228,4370.54545411,4203.63636322,4900.63636315,3943.99999961,4305.12121169,3111.5151512,4440.60606016,2942.54545425,5296.27272674,2530.42424217,4396.81818138,3564.84848449,4494.18181773,3589.57575722,4222.18181776,12.3636363624,4802.75757528,2464.48484824,4561.1515147,3358.78787845,42.0,42.0,?
2017-07-31 18:52:45.382367,4637.39393893,2588.12121186,4265.96969654,865.454545368,4057.84848444,3692.60606024,3993.45454506,144.242424228,4372.60606017,4203.63636322,4904.24242375,3943.99999961,4297.90909048,3198.06060574,4440.09090865,2942.54545425,5296.27272674,2530.42424217,4413.81818138,3564.84848449,4482.8484844,3589.57575722,4229.90909049,12.3636363624,4796.06060558,2464.48484824,4542.60606015,3358.78787845,42.0,42.0,?
2017-07-31 18:52:45.387673,4625.54545408,2588.12121186,4268.0303026,865.454545368,4034.66666626,3692.60606024,3981.60606021,144.242424228,4363.3333329,4203.63636322,4894.96969648,3943.99999961,4288.63636321,3198.06060574,4433.39393895,3024.96969667,5288.0303025,2530.42424217,4409.69696926,3564.84848449,4479.75757531,3589.57575722,4225.78787837,12.3636363624,4788.84848437,2464.48484824,4528.18181773,3358.78787845,42.0,42.0,?
2017-07-31 18:52:45.395493,4631.21212075,2588.12121186,4249.99999958,865.454545368,4009.42424202,3692.60606024,3995.51515112,144.242424228,4372.60606017,4203.63636322,4911.96969648,3943.99999961,4304.60606018,3198.06060574,4447.81818137,3024.96969667,5304.51515098,2666.42424216,4422.06060562,3564.84848449,4486.96969652,3589.57575722,4219.60606018,12.3636363624,4788.84848437,2464.48484824,4537.96969652,3358.78787845,42.0,42.0,?
2017-07-31 18:52:45.405679,4648.72727226,2588.12121186,4268.54545412,865.454545368,3984.18181778,3692.60606024,3981.09090869,144.242424228,4362.81818138,4203.63636322,4908.36363587,3943.99999961,4293.78787836,3198.06060574,4437.51515107,3024.96969667,5299.87878735,2666.42424216,4429.78787834,3824.4848481,4472.03030258,3589.57575722,4227.33333291,12.3636363624,4785.24242376,2464.48484824,4543.63636318,3358.78787845,42.0,42.0,?
2017-07-31 18:52:45.412098,4654.90909044,2588.12121186,4258.75757533,865.454545368,4013.54545414,3692.60606024,3989.84848445,144.242424228,4382.90909047,4203.63636322,4922.27272678,3943.99999961,4314.39393896,3198.06060574,4457.60606016,3024.96969667,5314.81818129,2666.42424216,4430.81818138,3824.4848481,4501.39393894,3375.27272694,4225.78787837,12.3636363624,4808.42424194,2464.48484824,4558.57575712,3358.78787845,42.0,42.0,?
2017-07-31 18:52:45.420825,4649.75757529,2588.12121186,4262.87878745,865.454545368,4041.36363596,3692.60606024,4001.18181778,144.242424228,4391.66666623,4203.63636322,4924.33333284,3943.99999961,4328.30302987,3198.06060574,4472.5454541,3024.96969667,5317.90909038,2666.42424216,4414.84848441,3824.4848481,4526.12121167,3375.27272694,4225.78787837,12.3636363624,4829.03030255,2464.48484824,4571.454545,3358.78787845,42.0,42.0,?
2017-07-31 18:52:45.428590,4635.84848438,2588.12121186,4285.0303026,865.454545368,4023.84848445,3692.60606024,3982.63636324,144.242424228,4366.9393935,4203.63636322,4897.03030254,3943.99999961,4296.87878745,3198.06060574,4443.69696925,3024.96969667,5291.12121159,2666.42424216,4415.36363592,3824.4848481,4475.63636319,3375.27272694,4224.75757534,12.3636363624,4791.42424195,2349.09090886,4536.93939349,3358.78787845,42.0,42.0,?
2017-07-31 18:52:45.434222,4641.51515105,2588.12121186,4278.84848442,865.454545368,3989.84848445,3692.60606024,3969.24242385,144.242424228,4348.39393896,4203.63636322,4883.63636315,3943.99999961,4285.54545412,3198.06060574,4428.2424238,3024.96969667,5278.75757523,2666.42424216,4406.09090865,3824.4848481,4455.03030258,3375.27272694,4221.66666624,12.3636363624,4771.84848437,2349.09090886,4517.36363591,3358.78787845,42.0,42.0,?
2017-07-31 18:52:45.444068,4648.21212075,2588.12121186,4269.57575715,865.454545368,3980.57575718,3692.60606024,3970.27272688,144.242424228,4339.12121169,4203.63636322,4888.27272678,3943.99999961,4290.69696927,3198.06060574,4429.78787834,3024.96969667,5282.87878735,2666.42424216,4381.36363593,3824.4848481,4487.48484804,3367.03030269,4225.78787837,12.3636363624,4795.03030255,2349.09090886,4535.90909046,3358.78787845,42.0,42.0,?
2017-07-31 18:52:45.450591,4637.39393893,2588.12121186,4251.03030261,865.454545368,4019.21212081,3692.60606024,3996.03030263,144.242424228,4373.12121168,4203.63636322,4927.42424193,3943.99999961,4316.45454502,3198.06060574,4457.09090865,3024.96969667,5312.24242371,2666.42424216,4428.2424238,3824.4848481,4505.51515106,3367.03030269,4223.7272723,4.1212121208,4802.24242376,2349.09090886,4560.63636318,3358.78787845,42.0,42.0,?
2017-07-31 18:52:45.458176,4634.30302984,2588.12121186,4261.33333291,865.454545368,4032.6060602,3692.60606024,3992.93939354,144.242424228,4388.06060562,4203.63636322,4947.51515102,3943.99999961,4319.54545411,3198.06060574,4461.21212077,3024.96969667,5307.09090856,2666.42424216,4457.60606016,3824.4848481,4487.99999955,3367.03030269,4226.30302988,4.1212121208,4791.42424195,2349.09090886,4560.12121167,3358.78787845,42.0,42.0,?
2017-07-31 18:52:45.469203,4635.33333287,2588.12121186,4266.48484806,865.454545368,4015.6060602,3692.60606024,3974.90909051,144.242424228,4367.96969653,4203.63636322,4934.63636314,3943.99999961,4299.96969654,3198.06060574,4440.60606016,3024.96969667,5281.33333281,2666.42424216,4396.30302986,3824.4848481,4478.72727228,3367.03030269,4226.30302988,4.1212121208,4789.8787874,2349.09090886,4536.42424197,3358.78787845,42.0,42.0,?
2017-07-31 18:52:45.474699,4633.27272681,2588.12121186,4245.36363594,865.454545368,4013.54545414,3692.60606024,3994.48484809,144.242424228,4378.27272683,4203.63636322,4942.87878738,3943.99999961,4307.69696927,3198.06060574,4449.87878743,3024.96969667,5296.27272674,2666.42424216,4372.09090865,3824.4848481,4494.69696925,3367.03030269,4220.1212117,4.1212121208,4796.06060558,2349.09090886,4534.87878743,3358.78787845,42.0,42.0,?
2017-07-31 18:52:45.483222,4622.96969651,2588.12121186,4262.36363594,865.454545368,4017.15151475,3692.60606024,3989.84848445,144.242424228,4371.06060562,4203.63636322,4938.75757526,3943.99999961,4290.18181775,3198.06060574,4438.5454541,3024.96969667,5279.27272674,2666.42424216,4397.84848441,3824.4848481,4486.45454501,3367.03030269,4224.75757534,4.1212121208,4789.8787874,2349.09090886,4535.39393894,3358.78787845,42.0,42.0,?
2017-07-31 18:52:45.490054,4610.09090863,2588.12121186,4260.81818139,865.454545368,4028.9999996,3692.60606024,3987.78787839,144.242424228,4364.87878744,4203.63636322,4937.72727223,3943.99999961,4285.0303026,3198.06060574,4433.39393895,3024.96969667,5268.96969644,2666.42424216,4407.6363632,3824.4848481,4474.09090864,3367.03030269,4224.75757534,4.1212121208,4779.5757571,2349.09090886,4530.24242379,3358.78787845,42.0,42.0,?
2017-07-31 18:52:45.497273,4616.27272681,2588.12121186,4256.69696927,865.454545368,4015.09090869,3692.60606024,3994.48484809,144.242424228,4366.9393935,4203.63636322,4943.90909041,3943.99999961,4299.96969654,3198.06060574,4440.60606016,3024.96969667,5292.66666614,2666.42424216,4406.09090865,3824.4848481,4468.93939349,3367.03030269,4225.27272685,4.1212121208,4780.09090861,2349.09090886,4533.8484844,3358.78787845,42.0,42.0,?
2017-07-31 18:52:45.505831,4621.93939348,2588.12121186,4264.424242,865.454545368,4009.93939354,3692.60606024,3986.75757536,144.242424228,4362.30302987,4203.63636322,4955.75757526,3943.99999961,4299.96969654,3198.06060574,4439.06060562,3024.96969667,5294.7272722,2666.42424216,4419.99999956,3824.4848481,4460.18181774,3367.03030269,4226.30302988,4.1212121208,4781.12121164,2349.09090886,4531.78787833,3358.78787845,42.0,42.0,?
2017-07-31 18:52:45.513223,4626.0606056,2588.12121186,4250.51515109,865.454545368,4032.09090869,3692.60606024,3998.60606021,144.242424228,4381.36363593,4203.63636322,4985.12121162,3943.99999961,4315.93939351,3198.06060574,4461.21212077,3024.96969667,5300.39393886,2666.42424216,4434.9393935,3824.4848481,4478.72727228,3367.03030269,4225.78787837,4.1212121208,4790.39393891,2349.09090886,4538.99999955,3358.78787845,42.0,42.0,?
2017-07-31 18:52:45.521168,4642.03030257,2588.12121186,4265.96969654,865.454545368,4005.3030299,3692.60606024,3991.90909051,144.242424228,4378.78787835,4203.63636322,4977.3939389,3943.99999961,4310.27272684,3198.06060574,4456.57575713,3024.96969667,5291.63636311,2666.42424216,4400.9393935,3824.4848481,4496.24242379,3367.03030269,4230.424242,4.1212121208,4811.51515103,2349.09090886,4550.33333288,3358.78787845,42.0,42.0,?
2017-07-31 18:52:45.528674,4625.54545408,2588.12121186,4266.48484806,865.454545368,4005.81818142,3692.60606024,3988.81818142,144.242424228,4373.12121168,4203.63636322,4974.81818132,3943.99999961,4307.18181775,3198.06060574,4445.2424238,3024.96969667,5280.81818129,2666.42424216,4387.54545411,3824.4848481,4483.87878743,3367.03030269,4226.30302988,4.1212121208,4805.33333285,2349.09090886,4538.48484803,3358.78787845,42.0,42.0,?
2017-07-31 18:52:45.536924,4609.57575711,2588.12121186,4255.66666624,865.454545368,4028.48484808,3692.60606024,3992.42424203,144.242424228,4379.81818138,4203.63636322,4994.90909041,3943.99999961,4322.6363632,3198.06060574,4456.06060561,3024.96969667,5282.36363584,2666.42424216,4403.51515107,3824.4848481,4477.18181773,3367.03030269,4223.7272723,4.1212121208,4797.60606013,2349.09090886,4527.66666621,3358.78787845,42.0,42.0,?
2017-07-31 18:52:45.544245,4623.99999954,2588.12121186,4262.87878745,865.454545368,4005.81818142,3692.60606024,3982.63636324,144.242424228,4369.51515108,4203.63636322,4990.78787829,3943.99999961,4312.3333329,3198.06060574,4446.78787834,3024.96969667,5275.15151462,2666.42424216,4389.60606017,3824.4848481,4479.75757531,3367.03030269,4224.24242382,4.1212121208,4797.09090861,2349.09090886,4534.36363591,3358.78787845,42.0,42.0,?
2017-07-31 18:52:45.553709,4618.84848439,2588.12121186,4253.09090867,865.454545368,4020.75757536,3692.60606024,3994.48484809,144.242424228,4377.2424238,4203.63636322,4992.84848435,3943.99999961,4304.09090866,3198.06060574,4441.63636319,3024.96969667,5285.96969644,2666.42424216,4400.42424198,3824.4848481,4466.36363592,3367.03030269,4222.69696927,4.1212121208,4775.45454498,2349.09090886,4530.24242379,3358.78787845,42.0,42.0,?
2017-07-31 18:52:45.562666,4616.27272681,2588.12121186,4263.39393897,865.454545368,4025.39393899,3692.60606024,3987.78787839,144.242424228,4372.60606017,4203.63636322,4992.84848435,3943.99999961,4288.63636321,3198.06060574,4431.84848441,3024.96969667,5280.81818129,2666.42424216,4415.87878744,3824.4848481,4450.90909046,3367.03030269,4228.87878746,4.1212121208,4768.24242377,2349.09090886,4525.09090864,3358.78787845,42.0,42.0,?
2017-07-31 18:52:45.569301,4631.21212075,2588.12121186,4265.96969654,865.454545368,4003.24242384,3692.60606024,3980.57575718,144.242424228,4363.84848441,4203.63636322,4990.78787829,3943.99999961,4282.96969654,3198.06060574,4428.75757531,3024.96969667,5265.36363584,2666.42424216,4396.81818138,3824.4848481,4469.96969652,3367.03030269,4225.78787837,4.1212121208,4788.84848437,2349.09090886,4540.54545409,3358.78787845,42.0,42.0,?
2017-07-31 18:52:45.575997,4631.72727226,2588.12121186,4262.36363594,865.454545368,4010.45454505,3692.60606024,3985.72727233,144.242424228,4366.42424199,4203.63636322,4990.27272677,3943.99999961,4284.51515109,3198.06060574,4431.33333289,3024.96969667,5259.69696917,2666.42424216,4365.90909047,3824.4848481,4484.39393895,3367.03030269,4221.66666624,4.1212121208,4798.12121164,2349.09090886,4546.72727227,3358.78787845,42.0,42.0,?
2017-07-31 18:52:45.583799,4626.57575711,2588.12121186,4271.12121169,865.454545368,4004.27272687,3692.60606024,3973.36363597,144.242424228,4355.60606017,4203.63636322,4984.09090859,3943.99999961,4266.48484806,3198.06060574,4413.81818138,3024.96969667,5244.24242372,2666.42424216,4361.27272684,3824.4848481,4467.90909046,3367.03030269,4223.7272723,4.1212121208,4786.27272679,2349.09090886,4537.96969652,3358.78787845,42.0,42.0,?
2017-07-31 18:52:45.592806,4635.84848438,2588.12121186,4258.24242382,865.454545368,4005.3030299,3692.60606024,3984.6969693,144.242424228,4362.81818138,4203.63636322,5000.57575708,3943.99999961,4280.90909048,3198.06060574,4419.99999956,3024.96969667,5250.4242419,2666.42424216,4398.87878744,3824.4848481,4473.57575713,3367.03030269,4221.66666624,4.1212121208,4786.78787831,2349.09090886,4545.18181773,3358.78787845,42.0,42.0,?
2017-07-31 18:52:45.598948,4639.96969651,2588.12121186,4267.51515109,865.454545368,4021.78787839,3692.60606024,3992.93939354,144.242424228,4363.3333329,4203.63636322,5005.21212071,3943.99999961,4285.0303026,3198.06060574,4422.57575713,3024.96969667,5252.99999947,2666.42424216,4391.66666623,3824.4848481,4484.39393895,3367.03030269,4228.36363594,4.1212121208,4800.1818177,2349.09090886,4547.7575753,3358.78787845,42.0,42.0,?
2017-07-31 18:52:45.606268,4622.45454499,2588.12121186,4264.93939351,865.454545368,4032.6060602,3692.60606024,3991.90909051,144.242424228,4362.30302987,4203.63636322,5005.72727223,3943.99999961,4278.33333291,3198.06060574,4418.45454501,3024.96969667,5249.39393887,2666.42424216,4363.84848441,3824.4848481,4478.21212076,3367.03030269,4225.78787837,4.1212121208,4793.99999952,2349.09090886,4533.33333288,3358.78787845,42.0,42.0,?
2017-07-31 18:52:45.615762,4620.90909045,2588.12121186,4254.1212117,865.454545368,4018.6969693,3692.60606024,3992.42424203,144.242424228,4363.84848441,4203.63636322,5018.6060601,3943.99999961,4300.99999957,3198.06060574,4429.78787834,3024.96969667,5256.60606008,2666.42424216,4383.9393935,3824.4848481,4478.72727228,3367.03030269,4220.63636321,4.1212121208,4786.27272679,2349.09090886,4534.36363591,3358.78787845,42.0,42.0,?
2017-07-31 18:52:45.622205,4640.99999954,2588.12121186,4269.57575715,865.454545368,3993.45454506,3692.60606024,3980.57575718,144.242424228,4351.99999956,4203.63636322,5019.12121162,3943.99999961,4305.12121169,3198.06060574,4426.69696925,3024.96969667,5254.0303025,2666.42424216,4404.03030259,3824.4848481,4485.93939349,3367.03030269,4226.30302988,4.1212121208,4795.54545407,2349.09090886,4550.84848439,3358.78787845,42.0,42.0,?
2017-07-31 18:52:45.630956,4634.30302984,2588.12121186,4256.69696927,865.454545368,4019.72727233,3692.60606024,3991.39393899,144.242424228,4367.45454502,4203.63636322,5028.90909041,3943.99999961,4297.90909048,3198.06060574,4431.33333289,3024.96969667,5261.24242372,2666.42424216,4401.45454501,3824.4848481,4492.12121167,3367.03030269,4224.24242382,4.1212121208,4799.15151467,2349.09090886,4551.87878742,3358.78787845,42.0,42.0,?
2017-07-31 18:52:45.638177,4619.3636359,2588.12121186,4261.33333291,865.454545368,4043.42424202,3692.60606024,3983.66666627,144.242424228,4363.84848441,4203.63636322,5017.57575707,3943.99999961,4280.39393897,3198.06060574,4420.51515107,3024.96969667,5244.24242372,2666.42424216,4372.60606017,3824.4848481,4481.30302985,3367.03030269,4226.8181814,4.1212121208,4792.45454498,2349.09090886,4534.36363591,3358.78787845,42.0,42.0,?
2017-07-31 18:52:45.650570,4622.96969651,2588.12121186,4266.48484806,865.454545368,4019.21212081,3692.60606024,3973.36363597,144.242424228,4353.54545411,4203.63636322,4999.54545405,3943.99999961,4277.81818139,3198.06060574,4413.30302986,3024.96969667,5236.51515099,2666.42424216,4363.84848441,3824.4848481,4472.5454541,3367.03030269,4226.8181814,4.1212121208,4787.81818134,2349.09090886,4530.24242379,3358.78787845,42.0,42.0,?
2017-07-31 18:52:45.657215,4620.39393893,2588.12121186,4252.57575715,865.454545368,4000.66666627,3692.60606024,3988.81818142,144.242424228,4365.90909047,4203.63636322,5003.66666617,3943.99999961,4288.12121169,3198.06060574,4426.69696925,3024.96969667,5259.18181766,2666.42424216,4385.99999956,3824.4848481,4483.36363592,3367.03030269,4221.66666624,4.1212121208,4789.36363588,2349.09090886,4544.66666621,3358.78787845,42.0,42.0,?
2017-07-31 18:52:45.666735,4625.54545408,2588.12121186,4265.45454503,865.454545368,3990.36363596,3692.60606024,3970.27272688,144.242424228,4348.39393896,4203.63636322,4995.42424192,3943.99999961,4266.48484806,3198.06060574,4409.69696926,3024.96969667,5241.66666614,2666.42424216,4366.42424199,3824.4848481,4487.99999955,3367.03030269,4226.30302988,4.1212121208,4797.09090861,2349.09090886,4552.90909045,3358.78787845,42.0,42.0,?
2017-07-31 18:52:45.670175,4627.09090863,2588.12121186,4259.78787836,865.454545368,4017.15151475,3692.60606024,3974.393939,144.242424228,4351.99999956,4203.63636322,5013.45454495,3943.99999961,4274.7272723,3198.06060574,4413.81818138,3024.96969667,5235.99999948,2666.42424216,4361.27272684,3824.4848481,4489.03030258,3367.03030269,4224.75757534,4.1212121208,4798.12121164,2349.09090886,4553.42424197,3358.78787845,42.0,42.0,?
2017-07-31 18:52:45.678897,4612.66666621,2588.12121186,4260.30302988,865.454545368,4051.66666626,3692.60606024,3994.48484809,144.242424228,4365.39393896,4203.63636322,5033.54545404,3943.99999961,4293.78787836,3198.06060574,4427.72727228,3024.96969667,5250.4242419,2666.42424216,4387.54545411,3824.4848481,4475.63636319,3367.03030269,4223.7272723,4.1212121208,4787.81818134,2349.09090886,4540.03030258,3358.78787845,42.0,42.0,?
2017-07-31 18:52:45.684240,4621.42424196,2588.12121186,4264.93939351,865.454545368,4028.9999996,3692.60606024,3984.18181778,144.242424228,4359.21212078,4203.63636322,5029.93939344,3943.99999961,4286.57575715,3198.06060574,4418.96969653,3024.96969667,5244.24242372,2666.42424216,4381.87878744,3824.4848481,4467.90909046,3367.03030269,4224.24242382,4.1212121208,4782.66666619,2349.09090886,4535.39393894,3358.78787845,42.0,42.0,?
2017-07-31 18:52:45.692324,4634.81818135,2588.12121186,4253.09090867,865.454545368,3999.12121172,3692.60606024,3981.60606021,144.242424228,4371.57575714,4203.63636322,5042.3030298,3943.99999961,4289.66666624,3198.06060574,4425.66666622,3024.96969667,5245.27272675,2666.42424216,4381.36363593,3824.4848481,4476.1515147,3367.03030269,4222.69696927,4.1212121208,4781.12121164,2349.09090886,4554.454545,3358.78787845,42.0,42.0,?
2017-07-31 18:52:45.700848,4619.87878742,2588.12121186,4264.93939351,865.454545368,3996.54545415,3692.60606024,3973.36363597,144.242424228,4371.06060562,4203.63636322,5042.3030298,3943.99999961,4273.18181775,3198.06060574,4411.2424238,3024.96969667,5227.75757523,2666.42424216,4378.27272683,3824.4848481,4457.60606016,3367.03030269,4228.36363594,4.1212121208,4769.78787831,2349.09090886,4546.21212076,3358.78787845,42.0,42.0,?
2017-07-31 18:52:45.709779,4596.69696924,2588.12121186,4258.24242382,865.454545368,4031.57575717,3692.60606024,3980.06060566,144.242424228,4366.9393935,4203.63636322,5042.3030298,3943.99999961,4279.36363594,3198.06060574,4407.12121168,3024.96969667,5221.57575705,2666.42424216,4369.51515108,3824.4848481,4451.93939349,3367.03030269,4227.33333291,4.1212121208,4769.2727268,2349.09090886,4520.454545,3358.78787845,42.0,42.0,?
2017-07-31 18:52:45.716944,4607.51515105,2588.12121186,4256.18181776,865.454545368,4041.36363596,3692.60606024,3990.87878748,144.242424228,4362.81818138,4203.63636322,5045.9090904,3943.99999961,4300.48484805,3198.06060574,4426.69696925,3024.96969667,5239.09090857,2666.42424216,4360.24242381,3824.4848481,4474.09090864,3367.03030269,4226.30302988,4.1212121208,4792.45454498,2349.09090886,4525.60606015,3358.78787845,42.0,42.0,?
2017-07-31 18:52:45.726560,4627.09090863,2588.12121186,4266.99999957,865.454545368,4009.93939354,3692.60606024,3985.21212081,144.242424228,4359.72727229,4203.63636322,5042.81818131,3943.99999961,4290.18181775,3198.06060574,4428.2424238,3024.96969667,5243.7272722,2666.42424216,4358.18181775,3824.4848481,4483.87878743,3367.03030269,4226.30302988,4.1212121208,4804.30302982,2349.09090886,4545.69696924,3358.78787845,42.0,42.0,?
2017-07-31 18:52:45.733201,4633.78787832,2588.12121186,4255.15151473,865.454545368,4007.36363596,3692.60606024,3992.93939354,144.242424228,4376.21212077,4203.63636322,5051.06060556,3943.99999961,4297.39393896,3198.06060574,4438.5454541,3024.96969667,5251.45454493,2666.42424216,4384.45454502,3824.4848481,4495.21212076,3367.03030269,4224.75757534,4.1212121208,4807.39393891,2349.09090886,4564.7575753,3358.78787845,42.0,42.0,?
2017-07-31 18:52:45.739919,4632.24242378,2588.12121186,4269.06060563,865.454545368,4012.51515111,3692.60606024,3987.27272687,144.242424228,4362.30302987,4203.63636322,5042.3030298,3943.99999961,4294.30302987,3198.06060574,4430.81818138,3024.96969667,5238.06060554,2666.42424216,4392.18181774,3824.4848481,4482.33333289,3367.03030269,4231.96969655,4.1212121208,4796.06060558,2349.09090886,4561.1515147,3358.78787845,42.0,42.0,?
2017-07-31 18:52:45.748689,4617.30302984,2588.12121186,4265.96969654,865.454545368,4027.45454505,3692.60606024,3993.45454506,144.242424228,4359.21212078,4203.63636322,5045.39393889,3943.99999961,4282.96969654,3198.06060574,4421.03030259,3024.96969667,5234.45454493,2666.42424216,4385.48484805,3824.4848481,4461.21212077,3367.03030269,4227.84848443,4.1212121208,4773.90909043,2349.09090886,4537.454545,3358.78787845,42.0,42.0,?
2017-07-31 18:52:45.756115,4616.78787833,2588.12121186,4255.15151473,865.454545368,4032.09090869,3692.60606024,3999.63636324,144.242424228,4373.12121168,4203.63636322,5059.81818131,3943.99999961,4283.99999957,3198.06060574,4429.27272683,3024.96969667,5245.78787826,2666.42424216,4381.87878744,3824.4848481,4475.12121167,3367.03030269,4223.21212079,4.1212121208,4790.39393891,2349.09090886,4535.39393894,3358.78787845,42.0,42.0,?
2017-07-31 18:52:45.769383,4612.66666621,2588.12121186,4258.24242382,865.454545368,4017.15151475,3692.60606024,3979.03030263,144.242424228,4362.81818138,4203.63636322,5048.9999995,3943.99999961,4281.424242,3198.06060574,4421.5454541,3024.96969667,5228.78787827,2666.42424216,4373.6363632,3824.4848481,4477.18181773,3367.03030269,4223.7272723,4.1212121208,4804.81818134,2349.09090886,4536.93939349,3358.78787845,42.0,42.0,?
2017-07-31 18:52:45.771084,4612.66666621,2588.12121186,4258.24242382,865.454545368,4026.93939354,3692.60606024,3989.84848445,144.242424228,4362.81818138,4203.63636322,5052.09090859,3943.99999961,4294.81818139,3198.06060574,4425.15151471,3024.96969667,5229.30302978,2666.42424216,4376.72727229,3824.4848481,4463.27272683,3367.03030269,4223.7272723,4.1212121208,4784.21212073,2349.09090886,4531.27272682,3358.78787845,42.0,42.0,?
2017-07-31 18:52:45.783623,4625.03030257,2588.12121186,4264.424242,865.454545368,4007.36363596,3692.60606024,3990.87878748,144.242424228,4360.24242381,4203.63636322,5052.09090859,3943.99999961,4284.51515109,3198.06060574,4418.96969653,3024.96969667,5226.21212069,2666.42424216,4366.9393935,3824.4848481,4470.48484804,3367.03030269,4227.33333291,4.1212121208,4792.96969649,2349.09090886,4539.51515106,3358.78787845,42.0,42.0,?
2017-07-31 18:52:45.789088,4630.18181772,2588.12121186,4266.99999957,865.454545368,3991.90909051,3692.60606024,3980.06060566,144.242424228,4363.3333329,4203.63636322,5058.27272677,3943.99999961,4279.87878745,3198.06060574,4417.42424198,3024.96969667,5225.18181766,2666.42424216,4363.3333329,3824.4848481,4487.99999955,3367.03030269,4226.8181814,4.1212121208,4813.57575709,2349.09090886,4550.84848439,3358.78787845,42.0,42.0,?
2017-07-31 18:52:45.796781,4617.81818136,2588.12121186,4257.21212079,865.454545368,4022.81818142,3692.60606024,3984.6969693,144.242424228,4375.18181774,4203.63636322,5071.15151464,3943.99999961,4293.78787836,3198.06060574,4429.78787834,3024.96969667,5232.90909039,2666.42424216,4364.87878744,3824.4848481,4480.27272682,3367.03030269,4224.75757534,4.1212121208,4801.72727225,2349.09090886,4542.60606015,3358.78787845,42.0,42.0,?
2017-07-31 18:52:45.803286,4606.99999954,2588.12121186,4268.0303026,865.454545368,4030.54545414,3692.60606024,3974.90909051,144.242424228,4355.09090866,4203.63636322,5057.75757525,3943.99999961,4271.12121169,3198.06060574,4410.21212077,3024.96969667,5210.75757524,2666.42424216,4357.15151472,3824.4848481,4445.75757531,3367.03030269,4226.8181814,4.1212121208,4773.90909043,2349.09090886,4524.57575712,3358.78787845,42.0,42.0,?
2017-07-31 18:52:45.812933,4604.93939348,2588.12121186,4257.21212079,865.454545368,4029.51515111,3692.60606024,3983.66666627,144.242424228,4356.12121169,4203.63636322,5069.09090858,3943.99999961,4276.78787836,3198.06060574,4411.75757532,3024.96969667,5215.90909039,2666.42424216,4363.3333329,3824.4848481,4453.99999955,3367.03030269,4224.24242382,4.1212121208,4779.5757571,2349.09090886,4530.7575753,3358.78787845,42.0,42.0,?
2017-07-31 18:52:45.817072,4621.42424196,2588.12121186,4259.78787836,865.454545368,4005.3030299,3692.60606024,3984.6969693,144.242424228,4360.24242381,4203.63636322,5077.84848434,3943.99999961,4293.27272684,3198.06060574,4419.99999956,3024.96969667,5225.18181766,2666.42424216,4348.90909047,3824.4848481,4482.8484844,3367.03030269,4231.45454503,4.1212121208,4809.45454497,2349.09090886,4543.63636318,3358.78787845,42.0,42.0,?
2017-07-31 18:52:45.829478,4623.99999954,2588.12121186,4263.90909048,865.454545368,3972.84848445,3692.60606024,3974.393939,144.242424228,4356.6363632,4203.63636322,5067.54545404,3943.99999961,4280.90909048,3198.06060574,4410.21212077,3024.96969667,5216.93939342,2666.42424216,4343.24242381,3824.4848481,4474.60606016,3367.03030269,4227.33333291,4.1212121208,4807.39393891,2349.09090886,4541.06060561,3358.78787845,42.0,42.0,?
2017-07-31 18:52:45.833985,4601.84848439,2468.60606036,4253.60606018,865.454545368,4002.21212081,3692.60606024,3989.84848445,144.242424228,4373.6363632,4203.63636322,5072.69696919,3943.99999961,4279.87878745,3198.06060574,4415.87878744,3024.96969667,5230.33333281,2666.42424216,4373.6363632,3824.4848481,4463.78787834,3367.03030269,4220.1212117,4.1212121208,4793.99999952,2349.09090886,4535.90909046,3358.78787845,42.0,42.0,?
2017-07-31 18:52:45.842954,4600.30302984,2468.60606036,4265.45454503,914.909090818,4020.24242384,3692.60606024,3985.21212081,144.242424228,4364.36363593,4203.63636322,5070.12121161,3943.99999961,4278.33333291,3198.06060574,4409.69696926,3024.96969667,5220.03030251,2666.42424216,4363.84848441,3824.4848481,4463.78787834,3367.03030269,4229.39393897,4.1212121208,4793.48484801,2349.09090886,4526.12121167,3358.78787845,42.0,42.0,?
2017-07-31 18:52:45.849073,4604.93939348,2468.60606036,4256.69696927,914.909090818,4011.48484808,3692.60606024,3982.63636324,144.242424228,4358.69696926,4203.63636322,5075.27272677,3943.99999961,4282.45454503,3198.06060574,4409.18181774,3024.96969667,5204.57575706,2666.42424216,4345.30302987,3824.4848481,4455.5454541,3367.03030269,4226.30302988,4.1212121208,4783.1818177,2349.09090886,4517.36363591,3329.93939361,42.0,42.0,?
2017-07-31 18:52:45.857038,4609.0606056,2468.60606036,4259.78787836,914.909090818,4003.24242384,3927.51515112,3979.03030263,144.242424228,4358.18181775,4203.63636322,5067.54545404,3943.99999961,4273.18181775,3198.06060574,4406.09090865,3024.96969667,5200.96969645,2666.42424216,4335.51515108,3824.4848481,4455.03030258,3367.03030269,4222.69696927,4.1212121208,4787.81818134,2349.09090886,4521.48484803,3329.93939361,42.0,42.0,?
2017-07-31 18:52:45.866186,4614.72727227,2468.60606036,4271.63636321,914.909090818,4007.36363596,3927.51515112,3975.93939354,148.363636349,4354.57575714,4203.63636322,5056.72727222,3943.99999961,4267.51515109,3198.06060574,4402.99999956,3024.96969667,5194.27272675,2666.42424216,4338.09090866,3824.4848481,4466.87878743,3367.03030269,4227.33333291,4.1212121208,4804.30302982,2349.09090886,4533.33333288,3329.93939361,42.0,42.0,?
2017-07-31 18:52:45.873047,4614.21212075,2468.60606036,4259.78787836,914.909090818,4036.72727232,3927.51515112,4004.27272687,148.363636349,4374.66666623,4203.63636322,5081.45454495,3943.99999961,4295.3333329,3198.06060574,4428.2424238,3024.96969667,5206.1212116,2666.42424216,4375.18181774,3824.4848481,4474.60606016,3367.03030269,4229.39393897,4.1212121208,4801.21212073,2349.09090886,4548.27272682,3329.93939361,42.0,42.0,?
2017-07-31 18:52:45.880644,4607.51515105,2468.60606036,4271.63636321,914.909090818,4033.12121172,3927.51515112,4000.15151475,148.363636349,4363.3333329,4203.63636322,5079.9090904,3795.63636326,4278.33333291,3198.06060574,4417.9393935,3024.96969667,5197.87878736,2666.42424216,4348.90909047,3824.4848481,4467.90909046,3367.03030269,4227.33333291,4.1212121208,4796.5757571,2349.09090886,4544.1515147,3329.93939361,42.0,42.0,?
2017-07-31 18:52:45.889325,4591.54545409,2468.60606036,4263.90909048,914.909090818,4028.9999996,3927.51515112,3990.87878748,148.363636349,4359.21212078,4203.63636322,5076.81818131,3795.63636326,4263.39393897,3193.93939362,4406.09090865,3024.96969667,5199.93939342,2666.42424216,4310.27272684,3824.4848481,4461.72727228,3367.03030269,4224.75757534,4.1212121208,4792.45454498,2349.09090886,4524.06060561,3329.93939361,42.0,42.0,?
2017-07-31 18:52:45.896753,4601.84848439,2468.60606036,4253.60606018,914.909090818,4015.09090869,3927.51515112,3993.96969657,148.363636349,4374.15151471,4203.63636322,5092.27272676,3795.63636326,4291.21212078,3193.93939362,4420.51515107,3037.33333303,5217.45454493,2666.42424216,4340.66666623,3824.4848481,4461.21212077,3367.03030269,4232.99999958,4.1212121208,4790.90909043,2349.09090886,4530.24242379,3329.93939361,42.0,42.0,?
2017-07-31 18:52:45.903006,4609.0606056,2468.60606036,4261.84848442,914.909090818,3984.6969693,3927.51515112,3982.12121172,148.363636349,4364.36363593,4203.63636322,5086.6060601,3795.63636326,4290.18181775,3193.93939362,4410.72727229,3037.33333303,5203.03030251,2662.30303004,4357.66666623,3824.4848481,4449.87878743,3367.03030269,4229.90909049,4.1212121208,4784.72727225,2349.09090886,4533.8484844,3329.93939361,42.0,42.0,?
2017-07-31 18:52:45.912392,4589.48484803,2468.60606036,4249.48484806,914.909090818,4011.48484808,3927.51515112,3994.9999996,148.363636349,4371.57575714,4203.63636322,5090.2121207,3795.63636326,4279.36363594,3193.93939362,4409.69696926,3037.33333303,5202.51515099,2662.30303004,4353.03030259,3647.27272691,4451.42424198,3367.03030269,4219.60606018,4.1212121208,4779.06060558,2349.09090886,4524.57575712,3329.93939361,42.0,42.0,?
2017-07-31 18:52:45.919052,4589.48484803,2468.60606036,4263.90909048,914.909090818,4028.9999996,3927.51515112,3996.54545415,148.363636349,4371.57575714,4203.63636322,5088.66666616,3795.63636326,4268.0303026,3193.93939362,4406.60606017,3037.33333303,5200.96969645,2662.30303004,4336.0303026,3647.27272691,4460.18181774,3470.06060571,4227.84848443,4.1212121208,4787.30302982,2349.09090886,4532.30302985,3329.93939361,42.0,42.0,?
2017-07-31 18:52:45.927152,4603.39393893,2468.60606036,4266.48484806,914.909090818,4012.51515111,3927.51515112,3991.90909051,148.363636349,4372.60606017,4203.63636322,5088.15151464,3795.63636326,4275.24242381,3193.93939362,4407.12121168,3037.33333303,5199.93939342,2662.30303004,4338.09090866,3647.27272691,4463.27272683,3470.06060571,4229.90909049,4.1212121208,4788.33333285,2349.09090886,4545.18181773,3329.93939361,42.0,42.0,?
2017-07-31 18:52:45.935868,4611.63636318,2468.60606036,4252.06060564,914.909090818,4011.9999996,3927.51515112,4000.66666627,148.363636349,4384.96969653,4203.63636322,5096.9090904,3795.63636326,4291.7272723,3193.93939362,4424.63636319,3037.33333303,5211.78787827,2662.30303004,4351.48484805,3647.27272691,4473.57575713,3470.06060571,4226.30302988,4.1212121208,4796.5757571,2316.12121189,4550.33333288,3329.93939361,42.0,42.0,?
2017-07-31 18:52:45.944913,4609.57575711,2468.60606036,4260.81818139,914.909090818,4004.27272687,3927.51515112,3992.93939354,148.363636349,4372.09090865,4203.63636322,5078.87878737,3795.63636326,4273.18181775,3193.93939362,4416.90909047,3037.33333303,5200.45454493,2662.30303004,4333.45454502,3655.51515115,4468.93939349,3470.06060571,4228.36363594,4.1212121208,4802.75757528,2316.12121189,4548.78787833,3329.93939361,42.0,42.0,?
2017-07-31 18:52:45.950030,4609.57575711,2468.60606036,4247.424242,914.909090818,4001.18181778,3927.51515112,3996.54545415,148.363636349,4372.60606017,4203.63636322,5077.84848434,3795.63636326,4279.36363594,3193.93939362,4425.66666622,3037.33333303,5200.45454493,2662.30303004,4340.15151472,3655.51515115,4479.24242379,3465.93939359,4229.39393897,4.1212121208,4805.84848437,2316.12121189,4564.24242379,3329.93939361,42.0,42.0,?
2017-07-31 18:52:45.962350,4608.54545408,2468.60606036,4253.60606018,914.909090818,4018.18181778,3927.51515112,3991.39393899,148.363636349,4374.66666623,4203.63636322,5088.15151464,3795.63636326,4290.69696927,3193.93939362,4438.5454541,3037.33333303,5202.51515099,2662.30303004,4351.99999956,3655.51515115,4488.51515107,3465.93939359,4236.60606018,4.1212121208,4815.63636315,2316.12121189,4564.7575753,3329.93939361,42.0,42.0,?
2017-07-31 18:52:45.967815,4596.69696924,2468.60606036,4261.33333291,914.909090818,4053.21212081,3927.51515112,3991.39393899,148.363636349,4381.36363593,4203.63636322,5097.42424191,3795.63636326,4296.36363593,3193.93939362,4437.51515107,3037.33333303,5213.33333281,2662.30303004,4346.3333329,3655.51515115,4477.18181773,3465.93939359,4231.96969655,4.1212121208,4810.99999952,2316.12121189,4544.1515147,3329.93939361,42.0,42.0,?
2017-07-31 18:52:45.974030,4605.45454499,2468.60606036,4251.54545412,914.909090818,4052.18181778,3927.51515112,4005.81818142,148.363636349,4392.69696926,4203.63636322,5103.6060601,3795.63636326,4313.87878745,3193.93939362,4440.09090865,3037.33333303,5231.36363584,2662.30303004,4355.60606017,3655.51515115,4474.60606016,3465.93939359,4225.78787837,4.1212121208,4805.33333285,2316.12121189,4557.03030257,3329.93939361,42.0,42.0,?
2017-07-31 18:52:45.983550,4617.30302984,2468.60606036,4256.18181776,914.909090818,4008.90909051,3927.51515112,3988.81818142,148.363636349,4370.03030259,4203.63636322,5094.33333282,3795.63636326,4299.45454502,3193.93939362,4422.06060562,3037.33333303,5207.66666615,2662.30303004,4358.69696926,3655.51515115,4460.69696925,3465.93939359,4226.8181814,4.1212121208,4790.90909043,2316.12121189,4564.7575753,3329.93939361,42.0,42.0,?
2017-07-31 18:52:45.989475,4611.63636318,2468.60606036,4248.96969654,914.909090818,3998.60606021,3927.51515112,3983.15151475,148.363636349,4364.87878744,4203.63636322,5102.06060555,3795.63636326,4283.99999957,3193.93939362,4414.33333289,3037.33333303,5194.27272675,2662.30303004,4340.15151472,3655.51515115,4464.81818137,3465.93939359,4224.75757534,4.1212121208,4787.30302982,2316.12121189,4557.03030257,3329.93939361,42.0,42.0,?
2017-07-31 18:52:45.997739,4605.96969651,2468.60606036,4262.36363594,914.909090818,4006.84848445,3927.51515112,3979.54545415,148.363636349,4361.78787835,4203.63636322,5092.78787828,3795.63636326,4270.60606018,3193.93939362,4400.42424198,3037.33333303,5189.1212116,2662.30303004,4313.36363593,3655.51515115,4476.66666622,3465.93939359,4230.93939352,4.1212121208,4805.84848437,2316.12121189,4555.99999954,3329.93939361,42.0,42.0,?
2017-07-31 18:52:46.005072,4595.66666621,2468.60606036,4262.87878745,914.909090818,4016.12121172,3927.51515112,3977.9999996,148.363636349,4358.69696926,4203.63636322,5081.96969646,3795.63636326,4265.45454503,3193.93939362,4388.57575714,3037.33333303,5185.515151,2662.30303004,4333.45454502,3655.51515115,4466.36363592,3465.93939359,4228.87878746,4.1212121208,4798.63636316,2316.12121189,4547.24242379,3329.93939361,42.0,42.0,?
