Timestamp,F3 Value,F3 Quality,FC5 Value,FC5 Quality,F7 Value,F7 Quality,T7 Value,T7 Quality,P7 Value,P7 Quality,O1 Value,O1 Quality,O2 Value,O2 Quality,P8 Value,P8 Quality,T8 Value,T8 Quality,F8 Value,F8 Quality,AF4 Value,AF4 Quality,FC6 Value,FC6 Quality,F4 Value,F4 Quality,AF3 Value,AF3 Quality,X Value,Y Value,Z Value
2017-07-31 19:27:33.126679,4524.06060561,0,4190.24242382,0,3883.21212082,0,3980.57575718,0,4243.81818139,0,4512.72727228,0,4196.93939352,0,4324.69696926,0,4922.27272678,0,4118.12121171,0,4364.36363593,0,4189.21212079,0,4826.45454497,0,4448.33333289,0,42.0,42.0,?
2017-07-31 19:27:33.126784,4524.06060561,0,4190.24242382,0,3883.21212082,0,3847.66666628,0,4243.81818139,0,4444.72727228,0,4141.8181814,0,4260.81818139,0,4922.27272678,0,4159.84848443,0,4393.21212077,0,4189.21212079,0,4798.12121164,0,4408.15151471,0,42.0,42.0,?
2017-07-31 19:27:33.126823,4533.33333288,0,4188.69696928,0,3874.96969658,0,3827.57575719,0,4224.75757534,0,4447.30302986,0,4146.45454504,0,4264.424242,0,4938.75757526,0,4176.33333292,0,4398.87878744,0,4191.78787837,0,4799.66666619,0,4410.72727229,0,42.0,42.0,?
2017-07-31 19:27:33.131598,4535.39393894,0,4188.69696928,0,3874.96969658,0,3827.57575719,0,4220.1212117,0,4443.69696925,0,4144.39393898,0,4253.09090867,0,4938.75757526,0,4176.33333292,0,4396.81818138,0,4188.69696928,0,4797.60606013,0,4401.96969653,0,42.0,42.0,?
2017-07-31 19:27:33.134010,4535.39393894,3700.84848448,4191.78787837,0,3878.57575719,0,3818.30302992,0,4220.1212117,0,4437.51515107,0,4138.72727231,0,4245.36363594,0,4914.03030254,0,4167.57575716,0,4394.75757532,0,4188.69696928,0,4800.1818177,0,4401.96969653,0,42.0,42.0,?
2017-07-31 19:27:33.138356,4533.33333288,3700.84848448,4194.87878746,2662.30303004,3873.93939355,0,3836.84848446,0,4225.27272685,0,4437.51515107,0,4139.24242383,0,4251.03030261,0,4914.54545405,0,4166.03030261,0,4396.81818138,0,4189.21212079,0,4808.42424194,0,4405.06060562,0,42.0,42.0,?
2017-07-31 19:27:33.141727,4535.90909046,3700.84848448,4192.30302988,2662.30303004,3868.7878784,0,3856.93939355,0,4247.424242,0,4447.30302986,0,4150.57575716,0,4263.90909048,0,4945.96969648,0,4180.45454504,0,4405.57575714,0,4190.75757534,0,4812.54545406,0,4410.21212077,4009.93939354,42.0,42.0,?
2017-07-31 19:27:33.144935,4540.03030258,3700.84848448,4185.60606019,2662.30303004,3869.81818143,173.090909074,3837.36363598,0,4258.24242382,0,4447.81818137,0,4150.06060565,0,4263.39393897,0,4950.60606011,0,4183.03030261,0,4402.99999956,0,4187.15151473,0,4809.96969649,0,4409.69696926,4009.93939354,42.0,42.0,?
2017-07-31 19:27:33.147986,4533.33333288,3700.84848448,4184.57575716,2662.30303004,3868.7878784,173.090909074,3812.63636326,453.333333288,4244.33333291,0,4439.57575713,0,4135.63636322,0,4253.09090867,0,4928.45454496,0,4170.15151473,0,4394.2424238,0,4189.21212079,0,4809.96969649,0,4404.54545411,4009.93939354,42.0,42.0,?
2017-07-31 19:27:33.155278,4551.36363591,3700.84848448,4204.66666625,2662.30303004,3879.60606022,173.090909074,3852.81818143,453.333333288,4249.48484806,131.878787866,4448.8484844,0,4147.48484807,0,4274.21212078,0,4928.45454496,0,4195.90909049,0,4421.03030259,0,4194.87878746,0,4827.99999952,0,4422.57575713,4009.93939354,42.0,42.0,?
2017-07-31 19:27:33.156696,4551.36363591,3700.84848448,4204.66666625,2662.30303004,3879.60606022,173.090909074,3852.81818143,453.333333288,4249.48484806,131.878787866,4450.39393895,276.121212094,4158.8181814,0,4274.21212078,0,4928.45454496,0,4195.90909049,0,4421.03030259,0,4194.87878746,0,4827.99999952,0,4426.69696925,4009.93939354,42.0,42.0,?
2017-07-31 19:27:33.159011,4536.42424197,3700.84848448,4180.96969655,2662.30303004,3866.72727234,173.090909074,3837.87878749,453.333333288,4241.75757533,131.878787866,4441.12121168,276.121212094,4149.54545413,3416.48484814,4263.39393897,0,4926.90909042,0,4181.99999958,0,4407.6363632,0,4187.66666625,0,4815.63636315,0,4411.75757532,4009.93939354,42.0,42.0,?
2017-07-31 19:27:33.161912,4525.09090864,3700.84848448,4171.69696928,2662.30303004,3861.57575719,173.090909074,3823.96969659,453.333333288,4238.66666624,131.878787866,4437.51515107,276.121212094,4144.39393898,3416.48484814,4260.81818139,3008.48484818,4948.03030254,0,4172.72727231,0,4399.90909047,0,4185.60606019,0,4805.84848437,0,4410.72727229,4009.93939354,42.0,42.0,?
2017-07-31 19:27:33.164867,4523.54545409,3700.84848448,4188.69696928,2662.30303004,3852.81818143,173.090909074,3822.93939356,453.333333288,4233.51515109,131.878787866,4430.81818138,276.121212094,4138.72727231,3416.48484814,4254.1212117,3008.48484818,4941.33333284,3037.33333303,4171.18181776,0,4398.36363592,0,4191.78787837,0,4803.78787831,0,4407.12121168,4009.93939354,42.0,42.0,?
2017-07-31 19:27:33.168109,4530.7575753,3700.84848448,4198.48484806,2662.30303004,3859.51515113,173.090909074,3837.36363598,453.333333288,4241.24242382,131.878787866,4436.48484804,276.121212094,4143.87878746,3416.48484814,4257.21212079,3008.48484818,4933.60606011,3037.33333303,4184.57575716,49.4545454496,4402.99999956,0,4194.36363594,0,4810.484848,0,4409.18181774,4009.93939354,42.0,42.0,?
2017-07-31 19:27:33.172243,4537.454545,3700.84848448,4190.75757534,2662.30303004,3867.24242386,173.090909074,3843.54545416,453.333333288,4247.93939351,131.878787866,4443.69696925,276.121212094,4152.63636322,3416.48484814,4263.90909048,3008.48484818,4939.27272678,3037.33333303,4190.24242382,49.4545454496,4409.18181774,3750.30302993,4189.21212079,0,4816.15151467,0,4413.81818138,4009.93939354,42.0,42.0,?
2017-07-31 19:27:33.179902,4531.27272682,3700.84848448,4191.78787837,2662.30303004,3863.12121173,173.090909074,3824.99999962,453.333333288,4239.69696927,131.878787866,4438.5454541,276.121212094,4148.5151511,3416.48484814,4256.69696927,3008.48484818,4920.72727224,3037.33333303,4175.8181814,49.4545454496,4402.99999956,3750.30302993,4188.18181776,2703.51515124,4807.90909043,0,4410.72727229,4009.93939354,42.0,42.0,?
2017-07-31 19:27:33.188046,4520.96969652,3700.84848448,4198.48484806,2662.30303004,3860.03030264,173.090909074,3823.96969659,453.333333288,4242.27272685,131.878787866,4438.03030259,276.121212094,4147.99999959,3416.48484814,4258.24242382,3008.48484818,4919.6969692,3037.33333303,4172.21212079,49.4545454496,4395.78787835,3750.30302993,4192.30302988,2703.51515124,4802.24242376,3045.57575727,4408.66666623,4009.93939354,42.0,42.0,?
2017-07-31 19:27:33.195970,4518.90909046,3700.84848448,4193.84848443,2662.30303004,3852.30302992,173.090909074,3844.57575719,453.333333288,4248.96969654,131.878787866,4441.12121168,276.121212094,4151.09090868,3416.48484814,4262.87878745,3008.48484818,4945.96969648,3037.33333303,4176.84848443,53.5757575704,4398.87878744,3750.30302993,4193.33333291,2703.51515124,4806.8787874,3045.57575727,4404.03030259,4009.93939354,42.0,42.0,?
2017-07-31 19:27:33.203712,4533.33333288,3700.84848448,4182.5151511,2662.30303004,3853.84848446,173.090909074,3854.87878749,453.333333288,4258.24242382,131.878787866,4453.99999955,276.121212094,4161.39393898,3416.48484814,4266.99999957,3008.48484818,4959.87878738,3037.33333303,4184.57575716,53.5757575704,4411.2424238,3750.30302993,4190.24242382,2703.51515124,4812.54545406,3045.57575727,4417.42424198,4009.93939354,42.0,42.0,?
2017-07-31 19:27:33.211524,4535.39393894,3700.84848448,4184.06060564,2662.30303004,3852.30302992,173.090909074,3837.87878749,453.333333288,4255.66666624,131.878787866,4458.63636319,276.121212094,4158.30302989,3416.48484814,4266.48484806,3008.48484818,4938.75757526,3037.33333303,4182.5151511,53.5757575704,4405.06060562,3750.30302993,4187.15151473,2715.87878761,4805.84848437,3045.57575727,4421.03030259,4009.93939354,42.0,42.0,?
2017-07-31 19:27:33.219425,4523.54545409,3700.84848448,4202.60606019,2662.30303004,3844.06060568,173.090909074,3825.51515113,453.333333288,4243.81818139,131.878787866,4452.45454501,276.121212094,4143.87878746,3416.48484814,4258.24242382,3008.48484818,4917.63636314,3037.33333303,4175.8181814,53.5757575704,4390.12121168,3750.30302993,4189.21212079,2715.87878761,4795.54545407,3045.57575727,4404.54545411,4009.93939354,42.0,42.0,?
2017-07-31 19:27:33.227917,4534.87878743,3700.84848448,4202.60606019,2662.30303004,3850.24242386,173.090909074,3842.51515113,453.333333288,4251.54545412,131.878787866,4462.75757531,276.121212094,4153.66666625,3416.48484814,4264.424242,3008.48484818,4927.42424193,3037.33333303,4191.78787837,53.5757575704,4404.03030259,3750.30302993,4193.84848443,2715.87878761,4805.33333285,3045.57575727,4415.36363592,4009.93939354,42.0,42.0,?
2017-07-31 19:27:33.239069,4550.33333288,3700.84848448,4194.36363594,2662.30303004,3848.69696931,173.090909074,3848.1818178,453.333333288,4255.66666624,131.878787866,4467.90909046,276.121212094,4159.33333292,3416.48484814,4269.06060563,3008.48484818,4933.0909086,3037.33333303,4201.06060564,53.5757575704,4414.84848441,3750.30302993,4193.84848443,2715.87878761,4815.63636315,3045.57575727,4427.72727228,4009.93939354,42.0,42.0,?
2017-07-31 19:27:33.242406,4542.09090864,3700.84848448,4212.90909049,2662.30303004,3841.99999962,173.090909074,3833.75757537,453.333333288,4253.60606018,131.878787866,4461.21212077,276.121212094,4153.15151474,3416.48484814,4268.0303026,3008.48484818,4939.78787829,3037.33333303,4196.93939352,53.5757575704,4406.09090865,3750.30302993,4189.72727231,2715.87878761,4808.42424194,3045.57575727,4416.39393895,4009.93939354,42.0,42.0,?
2017-07-31 19:27:33.251716,4516.33333288,3700.84848448,4227.84848443,2662.30303004,3838.90909053,173.090909074,3818.30302992,453.333333288,4250.51515109,131.878787866,4451.93939349,276.121212094,4145.93939352,3416.48484814,4259.78787836,3008.48484818,4936.6969692,3037.33333303,4187.66666625,53.5757575704,4395.78787835,3750.30302993,4187.15151473,2715.87878761,4796.06060558,3045.57575727,4404.03030259,4009.93939354,42.0,42.0,?
2017-07-31 19:27:33.260662,4509.12121167,3700.84848448,4233.51515109,2662.30303004,3834.7878784,173.090909074,3828.60606022,453.333333288,4241.75757533,131.878787866,4445.75757531,276.121212094,4143.36363595,3416.48484814,4255.15151473,3008.48484818,4923.81818133,3037.33333303,4177.36363595,53.5757575704,4393.21212077,3750.30302993,4189.72727231,2715.87878761,4795.54545407,3045.57575727,4408.15151471,4009.93939354,42.0,42.0,?
2017-07-31 19:27:33.266455,4527.1515147,3700.84848448,4247.424242,2662.30303004,3836.84848446,173.090909074,3854.87878749,453.333333288,4242.27272685,131.878787866,4453.48484804,276.121212094,4151.60606019,3416.48484814,4264.424242,3008.48484818,4937.21212072,3037.33333303,4183.54545413,53.5757575704,4400.42424198,3750.30302993,4190.75757534,2715.87878761,4803.78787831,3045.57575727,4417.42424198,4009.93939354,42.0,42.0,?
2017-07-31 19:27:33.277489,4523.03030258,3700.84848448,4249.99999958,2662.30303004,3824.4848481,173.090909074,3833.75757537,453.333333288,4237.1212117,131.878787866,4448.8484844,276.121212094,4143.36363595,3416.48484814,4251.03030261,3008.48484818,4940.81818132,3037.33333303,4176.33333292,53.5757575704,4392.18181774,3750.30302993,4188.18181776,2715.87878761,4797.09090861,3045.57575727,4404.54545411,4009.93939354,42.0,42.0,?
2017-07-31 19:27:33.282501,4510.66666622,3700.84848448,4248.96969654,2662.30303004,3809.03030265,173.090909074,3823.45454507,453.333333288,4237.63636321,131.878787866,4445.75757531,276.121212094,4138.72727231,3416.48484814,4244.84848442,3008.48484818,4931.03030254,3037.33333303,4169.63636322,53.5757575704,4383.42424199,3750.30302993,4187.15151473,2715.87878761,4785.75757528,3045.57575727,4397.33333289,4009.93939354,42.0,42.0,?
2017-07-31 19:27:33.289017,4518.39393894,3700.84848448,4260.81818139,2662.30303004,3809.03030265,173.090909074,3854.36363598,453.333333288,4249.48484806,131.878787866,4456.06060561,276.121212094,4151.60606019,3416.48484814,4260.81818139,3008.48484818,4912.99999951,3037.33333303,4183.54545413,53.5757575704,4396.81818138,3750.30302993,4190.24242382,2715.87878761,4794.51515104,3045.57575727,4409.69696926,4009.93939354,42.0,42.0,?
2017-07-31 19:27:33.297915,4526.12121167,3700.84848448,4272.15151472,2662.30303004,3810.57575719,173.090909074,3834.7878784,453.333333288,4246.39393897,131.878787866,4453.99999955,276.121212094,4148.5151511,3416.48484814,4252.57575715,3008.48484818,4897.03030254,3037.33333303,4181.48484807,53.5757575704,4400.42424198,3750.30302993,4191.27272685,2715.87878761,4801.72727225,3045.57575727,4413.30302986,4009.93939354,42.0,42.0,?
2017-07-31 19:27:33.305896,4528.69696924,3700.84848448,4286.57575715,2662.30303004,3818.81818144,173.090909074,3813.15151477,453.333333288,4242.78787836,131.878787866,4451.93939349,276.121212094,4147.48484807,3416.48484814,4247.424242,3008.48484818,4934.12121163,3037.33333303,4180.96969655,53.5757575704,4399.90909047,3750.30302993,4188.18181776,2715.87878761,4802.24242376,3045.57575727,4419.48484804,4009.93939354,42.0,42.0,?
2017-07-31 19:27:33.313567,4524.57575712,3700.84848448,4290.69696927,2662.30303004,3814.69696932,173.090909074,3841.99999962,453.333333288,4241.75757533,131.878787866,4451.93939349,276.121212094,4151.60606019,3416.48484814,4258.75757533,3008.48484818,4969.66666617,3037.33333303,4187.15151473,53.5757575704,4402.99999956,3750.30302993,4187.66666625,2715.87878761,4802.75757528,3045.57575727,4418.96969653,4009.93939354,42.0,42.0,?
2017-07-31 19:27:33.321057,4522.51515106,3700.84848448,4276.27272685,2662.30303004,3801.81818144,173.090909074,3850.24242386,453.333333288,4242.78787836,131.878787866,4452.45454501,276.121212094,4154.18181777,3416.48484814,4264.93939351,3008.48484818,4950.60606011,3037.33333303,4190.75757534,53.5757575704,4407.6363632,3750.30302993,4192.30302988,2715.87878761,4803.27272679,3045.57575727,4413.81818138,4009.93939354,42.0,42.0,?
2017-07-31 19:27:33.328695,4532.30302985,3700.84848448,4275.75757533,2662.30303004,3804.39393901,173.090909074,3828.09090871,453.333333288,4245.36363594,131.878787866,4457.09090865,276.121212094,4157.27272686,3416.48484814,4265.45454503,3008.48484818,4930.51515102,3037.33333303,4194.87878746,53.5757575704,4413.30302986,3750.30302993,4191.78787837,2715.87878761,4806.36363588,3045.57575727,4422.57575713,4009.93939354,42.0,42.0,?
2017-07-31 19:27:33.336111,4526.63636318,3700.84848448,4281.93939351,2662.30303004,3803.36363598,173.090909074,3826.03030265,453.333333288,4235.06060564,131.878787866,4448.8484844,276.121212094,4141.8181814,3416.48484814,4254.63636321,3008.48484818,4916.0909086,3037.33333303,4187.66666625,53.5757575704,4406.60606017,3750.30302993,4189.72727231,2715.87878761,4803.27272679,3045.57575727,4418.96969653,4009.93939354,42.0,42.0,?
2017-07-31 19:27:33.345916,4523.54545409,3700.84848448,4273.69696927,2662.30303004,3804.39393901,173.090909074,3845.60606022,453.333333288,4240.7272723,131.878787866,4450.90909046,276.121212094,4137.18181777,3416.48484814,4252.57575715,3008.48484818,4909.3939389,3037.33333303,4187.66666625,53.5757575704,4406.09090865,3750.30302993,4192.30302988,2715.87878761,4807.39393891,3045.57575727,4414.84848441,4009.93939354,42.0,42.0,?
2017-07-31 19:27:33.356254,4534.87878743,3700.84848448,4280.90909048,2662.30303004,3804.39393901,173.090909074,3834.27272689,453.333333288,4252.06060564,131.878787866,4459.15151471,276.121212094,4153.15151474,3416.48484814,4261.84848442,3008.48484818,4934.63636314,3037.33333303,4193.84848443,53.5757575704,4417.42424198,3750.30302993,4193.84848443,2715.87878761,4820.27272679,3045.57575727,4420.51515107,4009.93939354,42.0,42.0,?
2017-07-31 19:27:33.361976,4538.48484803,3700.84848448,4329.3333329,2662.30303004,3803.8787875,173.090909074,3813.66666629,453.333333288,4245.87878745,131.878787866,4457.60606016,276.121212094,4158.30302989,3416.48484814,4262.87878745,3008.48484818,4945.96969648,3037.33333303,4193.33333291,53.5757575704,4416.90909047,3750.30302993,4192.8181814,2715.87878761,4820.78787831,3045.57575727,4426.18181774,4009.93939354,42.0,42.0,?
2017-07-31 19:27:33.370875,4536.42424197,3700.84848448,4358.69696926,2662.30303004,3813.15151477,173.090909074,3826.03030265,453.333333288,4240.7272723,131.878787866,4455.5454541,276.121212094,4148.5151511,3416.48484814,4256.69696927,3008.48484818,4934.12121163,3037.33333303,4185.60606019,53.5757575704,4409.69696926,3750.30302993,4188.69696928,2715.87878761,4810.484848,3045.57575727,4428.2424238,4009.93939354,42.0,42.0,?
2017-07-31 19:27:33.377193,4530.24242379,3700.84848448,4307.18181775,2662.30303004,3811.09090871,173.090909074,3847.15151477,453.333333288,4261.33333291,131.878787866,4453.48484804,276.121212094,4134.60606019,3416.48484814,4242.78787836,3008.48484818,4908.87878739,3037.33333303,4170.66666625,53.5757575704,4403.51515107,3750.30302993,4192.30302988,2715.87878761,4802.75757528,3045.57575727,4417.9393935,4009.93939354,42.0,42.0,?
2017-07-31 19:27:33.384595,4530.24242379,3700.84848448,4307.18181775,2662.30303004,3803.36363598,173.090909074,3860.03030264,453.333333288,4261.33333291,131.878787866,4464.30302986,276.121212094,4140.78787837,3416.48484814,4241.24242382,3008.48484818,4908.87878739,3037.33333303,4169.63636322,53.5757575704,4404.03030259,3750.30302993,4192.30302988,2715.87878761,4805.33333285,3045.57575727,4415.87878744,4009.93939354,42.0,42.0,?
2017-07-31 19:27:33.390900,4516.33333288,3700.84848448,4318.51515108,2662.30303004,3787.90909053,173.090909074,3844.57575719,453.333333288,4261.33333291,131.878787866,4470.48484804,276.121212094,4151.09090868,3416.48484814,4248.45454503,3008.48484818,4905.27272678,3037.33333303,4158.8181814,53.5757575704,4393.72727229,3750.30302993,4187.66666625,2715.87878761,4800.69696922,3045.57575727,4409.18181774,4009.93939354,42.0,42.0,?
2017-07-31 19:27:33.400835,4509.63636319,3700.84848448,4317.48484805,2662.30303004,3783.27272689,173.090909074,3831.69696931,453.333333288,4251.54545412,131.878787866,4467.90909046,276.121212094,4155.2121208,3416.48484814,4260.30302988,3008.48484818,4935.66666617,3037.33333303,4155.72727231,53.5757575704,4389.09090865,3750.30302993,4183.54545413,2715.87878761,4796.5757571,3045.57575727,4403.51515107,4009.93939354,42.0,42.0,?
2017-07-31 19:27:33.408398,4530.24242379,3700.84848448,4320.57575714,2662.30303004,3807.99999962,173.090909074,3832.72727234,453.333333288,4257.21212079,131.878787866,4472.03030258,276.121212094,4169.1212117,3416.48484814,4279.36363594,3008.48484818,4957.81818132,3037.33333303,4189.72727231,53.5757575704,4412.78787835,3750.30302993,4189.72727231,2715.87878761,4810.99999952,3045.57575727,4422.06060562,4009.93939354,42.0,42.0,?
2017-07-31 19:27:33.414308,4533.8484844,3700.84848448,4329.84848442,2662.30303004,3814.69696932,173.090909074,3824.99999962,453.333333288,4251.54545412,131.878787866,4465.8484844,276.121212094,4166.54545413,3416.48484814,4272.66666624,3008.48484818,4934.63636314,3037.33333303,4195.90909049,53.5757575704,4417.42424198,3750.30302993,4192.8181814,2715.87878761,4817.69696922,3045.57575727,4424.63636319,4009.93939354,42.0,42.0,?
2017-07-31 19:27:33.424167,4526.12121167,3700.84848448,4319.0303026,2662.30303004,3810.57575719,173.090909074,3848.1818178,453.333333288,4249.99999958,131.878787866,4462.75757531,276.121212094,4163.45454504,3416.48484814,4269.57575715,3008.48484818,4941.33333284,3037.33333303,4184.06060564,53.5757575704,4411.2424238,3750.30302993,4192.30302988,2715.87878761,4816.66666619,3045.57575727,4421.5454541,4009.93939354,42.0,42.0,?
2017-07-31 19:27:33.430725,4528.69696924,3700.84848448,4312.3333329,2662.30303004,3816.24242386,173.090909074,3865.1818178,453.333333288,4255.66666624,131.878787866,4464.81818137,276.121212094,4171.18181776,3416.48484814,4280.90909048,3008.48484818,4963.9999995,3037.33333303,4193.33333291,53.5757575704,4416.90909047,3750.30302993,4193.33333291,2715.87878761,4819.24242376,3045.57575727,4431.33333289,4009.93939354,42.0,42.0,?
2017-07-31 19:27:33.441924,4524.57575712,3700.84848448,4316.96969654,2662.30303004,3816.75757538,173.090909074,3835.30302992,453.333333288,4251.54545412,131.878787866,4460.18181774,276.121212094,4161.39393898,3416.48484814,4270.09090866,3008.48484818,4941.33333284,3037.33333303,4189.72727231,53.5757575704,4411.2424238,3750.30302993,4192.8181814,2715.87878761,4810.99999952,3045.57575727,4429.78787834,4009.93939354,42.0,42.0,?
2017-07-31 19:27:33.445921,4527.1515147,3700.84848448,4314.90909048,2662.30303004,3824.4848481,173.090909074,3830.15151477,453.333333288,4255.66666624,131.878787866,4464.30302986,276.121212094,4157.27272686,3416.48484814,4265.96969654,3008.48484818,4926.3939389,3037.33333303,4187.66666625,53.5757575704,4408.66666623,3750.30302993,4193.84848443,2715.87878761,4809.45454497,3045.57575727,4427.21212077,4009.93939354,42.0,42.0,?
2017-07-31 19:27:33.454149,4535.39393894,3700.84848448,4314.39393896,2662.30303004,3830.66666628,173.090909074,3855.39393901,453.333333288,4261.84848442,131.878787866,4469.45454501,276.121212094,4163.96969655,3416.48484814,4273.18181775,3008.48484818,4944.93939344,3037.33333303,4198.99999958,53.5757575704,4417.9393935,3750.30302993,4195.39393897,2715.87878761,4821.30302982,3045.57575727,4432.87878744,4009.93939354,42.0,42.0,?
2017-07-31 19:27:33.461530,4539.51515106,3700.84848448,4325.21212078,2662.30303004,3833.75757537,173.090909074,3870.33333295,453.333333288,4264.93939351,131.878787866,4469.96969652,276.121212094,4169.1212117,3416.48484814,4275.75757533,3008.48484818,4972.75757526,3037.33333303,4204.15151473,53.5757575704,4423.09090865,3750.30302993,4193.33333291,2715.87878761,4822.33333285,3045.57575727,4444.21212077,4009.93939354,42.0,42.0,?
2017-07-31 19:27:33.469888,4545.69696924,3700.84848448,4333.96969654,2662.30303004,3844.06060568,173.090909074,3863.12121173,453.333333288,4266.48484806,131.878787866,4476.1515147,276.121212094,4172.21212079,3416.48484814,4279.36363594,3008.48484818,4965.03030253,3037.33333303,4204.15151473,53.5757575704,4424.63636319,3750.30302993,4193.84848443,2715.87878761,4821.81818134,3045.57575727,4450.39393895,4009.93939354,42.0,42.0,?
2017-07-31 19:27:33.479060,4546.21212076,3700.84848448,4325.21212078,2662.30303004,3842.51515113,173.090909074,3839.93939356,453.333333288,4256.69696927,131.878787866,4477.69696925,276.121212094,4169.63636322,3416.48484814,4276.78787836,3008.48484818,4936.18181769,3037.33333303,4203.1212117,53.5757575704,4425.15151471,3750.30302993,4194.36363594,2715.87878761,4829.03030255,3045.57575727,4442.15151471,4009.93939354,42.0,42.0,?
2017-07-31 19:27:33.485916,4535.39393894,3700.84848448,4307.69696927,2662.30303004,3832.72727234,173.090909074,3840.96969659,453.333333288,4245.87878745,131.878787866,4468.42424198,276.121212094,4164.48484807,3416.48484814,4270.09090866,3008.48484818,4944.42424193,3037.33333303,4200.03030261,53.5757575704,4420.51515107,3750.30302993,4190.75757534,2715.87878761,4822.84848437,3045.57575727,4434.42424198,4009.93939354,42.0,42.0,?
2017-07-31 19:27:33.493170,4530.24242379,3700.84848448,4302.54545412,2662.30303004,3832.72727234,173.090909074,3865.69696931,453.333333288,4245.87878745,131.878787866,4464.30302986,276.121212094,4163.96969655,3416.48484814,4266.99999957,3008.48484818,4959.36363587,3037.33333303,4194.87878746,53.5757575704,4416.39393895,3750.30302993,4190.24242382,2715.87878761,4813.57575709,3045.57575727,4435.96969653,4009.93939354,42.0,42.0,?
2017-07-31 19:27:33.502771,4545.18181773,3700.84848448,4313.87878745,2662.30303004,3843.03030265,173.090909074,3869.30302992,453.333333288,4261.84848442,131.878787866,4468.42424198,276.121212094,4169.63636322,3416.48484814,4272.66666624,3008.48484818,4957.81818132,3037.33333303,4195.39393897,53.5757575704,4417.9393935,3750.30302993,4192.8181814,2715.87878761,4817.1818177,3045.57575727,4440.60606016,4009.93939354,42.0,42.0,?
2017-07-31 19:27:33.508050,4545.18181773,3700.84848448,4319.0303026,2662.30303004,3850.24242386,173.090909074,3853.33333295,453.333333288,4261.84848442,131.878787866,4473.06060561,276.121212094,4175.8181814,3416.48484814,4282.96969654,3008.48484818,4961.93939344,3037.33333303,4203.1212117,53.5757575704,4424.63636319,3750.30302993,4194.36363594,2715.87878761,4822.84848437,3045.57575727,4444.21212077,4009.93939354,42.0,42.0,?
2017-07-31 19:27:33.517964,4555.99999954,3700.84848448,4322.12121169,2662.30303004,3869.30302992,173.090909074,3854.36363598,453.333333288,4273.69696927,131.878787866,4486.96969652,276.121212094,4192.8181814,3416.48484814,4298.42424199,3008.48484818,4975.33333284,3037.33333303,4222.18181776,53.5757575704,4446.27272683,3750.30302993,4195.39393897,2715.87878761,4835.21212073,3045.57575727,4462.75757531,4009.93939354,42.0,42.0,?
2017-07-31 19:27:33.524367,4524.57575712,3700.84848448,4316.45454502,2662.30303004,3837.87878749,173.090909074,3822.93939356,453.333333288,4234.03030261,131.878787866,4451.93939349,276.121212094,4160.87878746,3416.48484814,4258.75757533,3008.48484818,4939.27272678,3037.33333303,4177.36363595,53.5757575704,4410.72727229,3750.30302993,4185.09090867,2715.87878761,4814.60606012,3045.57575727,4426.69696925,4009.93939354,42.0,42.0,?
2017-07-31 19:27:33.537344,4513.24242379,3700.84848448,4307.18181775,2662.30303004,3831.1818178,173.090909074,3839.93939356,453.333333288,4231.45454503,131.878787866,4442.15151471,276.121212094,4143.87878746,3416.48484814,4244.84848442,3008.48484818,4930.51515102,3037.33333303,4164.99999958,53.5757575704,4396.81818138,3750.30302993,4195.39393897,2715.87878761,4806.36363588,3045.57575727,4413.30302986,4009.93939354,42.0,42.0,?
2017-07-31 19:27:33.541540,4601.33333287,3700.84848448,4319.0303026,2662.30303004,3939.36363597,173.090909074,3958.93939354,453.333333288,4339.6363632,131.878787866,4535.39393894,276.121212094,4249.48484806,3416.48484814,4362.30302987,3008.48484818,5040.24242374,3037.33333303,4291.7272723,53.5757575704,4501.39393894,3750.30302993,4204.15151473,2715.87878761,4872.30302982,3045.57575727,4523.03030258,4009.93939354,42.0,42.0,?
2017-07-31 19:27:33.546970,4492.63636319,3700.84848448,4285.54545412,2662.30303004,3794.60606023,173.090909074,3795.12121174,453.333333288,4195.39393897,131.878787866,4411.75757532,276.121212094,4124.30302989,3416.48484814,4229.39393897,3008.48484818,4892.3939389,3037.33333303,4137.18181777,53.5757575704,4370.54545411,3750.30302993,4167.57575716,2715.87878761,4791.42424195,3045.57575727,4376.21212077,4009.93939354,42.0,42.0,?
2017-07-31 19:27:33.555922,4399.39393895,3700.84848448,4272.66666624,2662.30303004,3694.6666663,173.090909074,3688.99999963,453.333333288,4099.06060565,131.878787866,4326.24242381,276.121212094,4006.84848445,3416.48484814,4101.12121171,3008.48484818,4770.81818134,3037.33333303,4010.45454505,53.5757575704,4262.87878745,3750.30302993,4188.18181776,2715.87878761,4720.33333286,3045.57575727,4262.36363594,4009.93939354,42.0,42.0,?
2017-07-31 19:27:33.564950,4586.90909045,3700.84848448,4321.60606017,2662.30303004,3936.78787839,173.090909074,3935.75757536,453.333333288,4334.99999957,131.878787866,4530.7575753,276.121212094,4231.96969655,3416.48484814,4337.06060563,3008.48484818,5033.54545404,3037.33333303,4275.75757533,53.5757575704,4487.48484804,3750.30302993,4219.09090867,2715.87878761,4859.93939345,3045.57575727,4511.18181773,4009.93939354,42.0,42.0,?
2017-07-31 19:27:33.570908,4580.72727227,3700.84848448,4307.69696927,2662.30303004,3903.30302991,173.090909074,3887.84848446,453.333333288,4302.54545412,131.878787866,4503.96969652,276.121212094,4224.75757534,3416.48484814,4332.42424199,3008.48484818,5025.3030298,3037.33333303,4256.69696927,53.5757575704,4472.5454541,3750.30302993,4176.33333292,2715.87878761,4853.24242376,3045.57575727,4491.60606016,4009.93939354,42.0,42.0,?
2017-07-31 19:27:33.578936,4461.21212077,3700.84848448,4293.27272684,2662.30303004,3755.45454508,173.090909074,3738.45454508,453.333333288,4160.36363595,131.878787866,4383.42424199,276.121212094,4071.75757535,3416.48484814,4174.78787837,3008.48484818,4844.484848,3037.33333303,4086.18181777,53.5757575704,4326.24242381,3750.30302993,4177.87878746,2715.87878761,4759.99999952,3045.57575727,4334.48484805,4009.93939354,42.0,42.0,?
2017-07-31 19:27:33.587358,4601.33333287,3700.84848448,4342.21212078,2662.30303004,3956.87878748,173.090909074,3960.48484809,453.333333288,4355.09090866,131.878787866,4554.454545,276.121212094,4250.51515109,3416.48484814,4360.24242381,3008.48484818,5039.21212071,3037.33333303,4298.42424199,53.5757575704,4504.48484803,3750.30302993,4214.96969655,2715.87878761,4873.33333285,3045.57575727,4532.30302985,4009.93939354,42.0,42.0,?
2017-07-31 19:27:33.594823,4632.75757529,3676.12121175,4318.51515108,2662.30303004,3995.51515112,173.090909074,4007.36363596,453.333333288,4388.57575714,131.878787866,4578.66666621,276.121212094,4304.60606018,3416.48484814,4412.78787835,3008.48484818,5110.30302979,3037.33333303,4348.90909047,53.5757575704,4551.36363591,3750.30302993,4184.57575716,2715.87878761,4906.30302981,3045.57575727,4577.63636318,4009.93939354,42.0,42.0,?
2017-07-31 19:27:33.602598,4463.78787834,3676.12121175,4260.30302988,2641.69696943,3778.12121174,173.090909074,3769.36363599,453.333333288,4176.33333292,131.878787866,4387.54545411,276.121212094,4089.27272686,3416.48484814,4189.21212079,3008.48484818,4871.7878783,3037.33333303,4101.63636323,53.5757575704,4339.6363632,3750.30302993,4164.48484807,2715.87878761,4768.24242377,3045.57575727,4349.9393935,4009.93939354,42.0,42.0,?
2017-07-31 19:27:33.610490,4499.33333288,3676.12121175,4297.90909048,2641.69696943,3834.7878784,173.090909074,3807.99999962,453.333333288,4231.45454503,131.878787866,4440.09090865,276.121212094,4130.48484807,3416.48484814,4234.03030261,3008.48484818,4901.15151466,3037.33333303,4152.63636322,53.5757575704,4378.27272683,3750.30302993,4200.03030261,2715.87878761,4787.30302982,3045.57575727,4397.84848441,4034.66666626,42.0,42.0,?
2017-07-31 19:27:33.618384,4559.09090864,3676.12121175,4317.99999957,2641.69696943,3914.12121173,111.272727262,3907.93939355,453.333333288,4308.21212078,131.878787866,4510.1515147,276.121212094,4223.21212079,3416.48484814,4328.81818139,3008.48484818,5012.93939344,3037.33333303,4251.54545412,53.5757575704,4462.75757531,3750.30302993,4194.87878746,2715.87878761,4844.484848,3045.57575727,4480.78787834,4034.66666626,42.0,42.0,?
2017-07-31 19:27:33.626933,4506.03030258,3676.12121175,4291.7272723,2641.69696943,3846.63636325,111.272727262,3862.60606022,342.060606026,4245.36363594,131.878787866,4448.33333289,276.121212094,4153.15151474,3416.48484814,4256.18181776,3008.48484818,4956.78787829,3037.33333303,4170.15151473,53.5757575704,4395.78787835,3750.30302993,4181.99999958,2715.87878761,4804.30302982,3045.57575727,4411.75757532,4034.66666626,42.0,42.0,?
2017-07-31 19:27:33.632940,4534.36363591,3676.12121175,4301.51515109,2641.69696943,3875.99999961,111.272727262,3885.27272688,342.060606026,4277.81818139,152.48484847,4474.09090864,276.121212094,4170.66666625,3416.48484814,4278.33333291,3008.48484818,4960.3939389,3037.33333303,4195.39393897,53.5757575704,4417.42424198,3750.30302993,4194.87878746,2715.87878761,4818.72727225,3045.57575727,4444.72727228,4034.66666626,42.0,42.0,?
2017-07-31 19:27:33.643623,4530.24242379,3676.12121175,4297.90909048,2641.69696943,3870.33333295,111.272727262,3871.36363598,342.060606026,4278.33333291,152.48484847,4477.18181773,226.666666644,4181.99999958,3416.48484814,4285.0303026,3008.48484818,4932.06060557,3037.33333303,4214.45454503,53.5757575704,4429.27272683,3750.30302993,4193.33333291,2715.87878761,4826.96969649,3045.57575727,4441.12121168,4034.66666626,42.0,42.0,?
2017-07-31 19:27:33.654401,4518.39393894,3676.12121175,4293.78787836,2641.69696943,3862.60606022,111.272727262,3860.54545416,342.060606026,4266.48484806,152.48484847,4465.8484844,226.666666644,4174.27272686,3416.48484814,4275.75757533,3008.48484818,4942.87878738,3037.33333303,4206.21212079,53.5757575704,4422.06060562,3750.30302993,4190.24242382,2715.87878761,4821.30302982,3045.57575727,4424.12121168,4034.66666626,42.0,42.0,?
2017-07-31 19:27:33.657924,4528.18181773,3676.12121175,4301.51515109,2641.69696943,3875.99999961,111.272727262,3865.1818178,342.060606026,4268.0303026,152.48484847,4467.39393895,226.666666644,4173.24242383,3416.48484814,4280.90909048,3033.21212091,5002.12121162,3037.33333303,4193.33333291,53.5757575704,4414.33333289,3750.30302993,4186.1212117,2715.87878761,4816.15151467,3045.57575727,4432.36363592,4034.66666626,42.0,42.0,?
2017-07-31 19:27:33.666567,4526.12121167,3676.12121175,4298.93939351,2641.69696943,3874.45454507,111.272727262,3866.21212083,342.060606026,4264.93939351,152.48484847,4469.45454501,226.666666644,4173.75757534,3416.48484814,4277.81818139,3033.21212091,4991.3030298,2967.27272698,4186.63636322,53.5757575704,4409.69696926,3750.30302993,4192.30302988,2715.87878761,4810.99999952,3045.57575727,4432.36363592,4034.66666626,42.0,42.0,?
2017-07-31 19:27:33.674741,4528.18181773,3676.12121175,4293.78787836,2641.69696943,3872.39393901,111.272727262,3877.03030264,342.060606026,4266.99999957,152.48484847,4473.57575713,226.666666644,4181.99999958,3416.48484814,4282.96969654,3033.21212091,4958.33333284,2967.27272698,4200.54545413,82.424242416,4423.60606016,3750.30302993,4195.90909049,2715.87878761,4820.27272679,3045.57575727,4439.06060562,4034.66666626,42.0,42.0,?
2017-07-31 19:27:33.679894,4525.09090864,3676.12121175,4295.84848442,2641.69696943,3865.1818178,111.272727262,3861.06060567,342.060606026,4258.24242382,152.48484847,4465.33333289,226.666666644,4170.66666625,3416.48484814,4273.18181775,3033.21212091,4939.78787829,2967.27272698,4196.424242,82.424242416,4417.42424198,3807.99999962,4189.72727231,2715.87878761,4818.21212073,3045.57575727,4435.45454501,4034.66666626,42.0,42.0,?
2017-07-31 19:27:33.688198,4526.12121167,3676.12121175,4300.48484805,2641.69696943,3874.96969658,111.272727262,3862.60606022,342.060606026,4264.93939351,152.48484847,4470.99999955,226.666666644,4173.75757534,3416.48484814,4275.24242381,3033.21212091,4946.48484799,2967.27272698,4203.1212117,82.424242416,4418.45454501,3807.99999962,4190.75757534,2715.87878761,4819.24242376,3045.57575727,4436.48484804,4034.66666626,42.0,42.0,?
2017-07-31 19:27:33.697641,4520.96969652,3676.12121175,4291.21212078,2641.69696943,3873.42424204,111.272727262,3865.69696931,342.060606026,4264.93939351,152.48484847,4468.42424198,226.666666644,4174.27272686,3416.48484814,4277.30302988,3033.21212091,4954.72727223,2967.27272698,4197.96969655,82.424242416,4416.39393895,3807.99999962,4192.8181814,2715.87878761,4819.24242376,3041.45454515,4428.75757531,4034.66666626,42.0,42.0,?
2017-07-31 19:27:33.705683,4524.57575712,3676.12121175,4282.96969654,2641.69696943,3873.42424204,111.272727262,3861.06060567,342.060606026,4263.90909048,152.48484847,4470.99999955,226.666666644,4176.84848443,3416.48484814,4285.54545412,3033.21212091,4962.96969647,2967.27272698,4199.5151511,94.7878787784,4415.87878744,3807.99999962,4192.30302988,2715.87878761,4821.81818134,3041.45454515,4431.84848441,4034.66666626,42.0,42.0,?
2017-07-31 19:27:33.712229,4530.24242379,3676.12121175,4289.15151472,2641.69696943,3872.90909052,111.272727262,3862.60606022,342.060606026,4261.84848442,152.48484847,4475.63636319,226.666666644,4185.09090867,3416.48484814,4289.15151472,3033.21212091,4965.54545405,2967.27272698,4209.8181814,94.7878787784,4422.06060562,3807.99999962,4193.33333291,2715.87878761,4827.484848,3041.45454515,4440.09090865,4034.66666626,42.0,42.0,?
2017-07-31 19:27:33.720377,4532.30302985,3676.12121175,4295.3333329,2641.69696943,3870.33333295,111.272727262,3871.36363598,342.060606026,4262.36363594,152.48484847,4471.51515107,226.666666644,4185.60606019,3416.48484814,4286.06060563,3033.21212091,4965.03030253,2967.27272698,4207.24242382,94.7878787784,4427.72727228,3807.99999962,4193.33333291,2715.87878761,4828.51515103,3041.45454515,4444.72727228,4034.66666626,42.0,42.0,?
2017-07-31 19:27:33.730600,4533.8484844,3676.12121175,4289.15151472,2641.69696943,3877.54545416,111.272727262,3870.84848446,342.060606026,4267.51515109,152.48484847,4469.96969652,226.666666644,4181.99999958,3416.48484814,4288.12121169,3033.21212091,4965.03030253,2967.27272698,4205.69696928,94.7878787784,4429.27272683,3807.99999962,4188.18181776,2715.87878761,4825.93939346,3041.45454515,4448.8484844,4034.66666626,42.0,42.0,?
2017-07-31 19:27:33.737589,4524.06060561,3676.12121175,4281.93939351,2641.69696943,3868.7878784,111.272727262,3855.90909052,342.060606026,4256.18181776,152.48484847,4461.72727228,226.666666644,4169.1212117,3416.48484814,4277.30302988,3033.21212091,4955.75757526,2967.27272698,4197.45454503,94.7878787784,4417.42424198,3807.99999962,4185.60606019,2715.87878761,4821.30302982,3041.45454515,4433.90909047,4034.66666626,42.0,42.0,?
2017-07-31 19:27:33.744021,4524.57575712,3676.12121175,4288.12121169,2641.69696943,3865.1818178,111.272727262,3859.51515113,342.060606026,4257.7272723,152.48484847,4465.8484844,226.666666644,4173.24242383,3416.48484814,4275.24242381,3033.21212091,4961.42424193,2967.27272698,4196.93939352,94.7878787784,4414.84848441,3807.99999962,4192.30302988,2715.87878761,4822.84848437,3041.45454515,4433.90909047,4034.66666626,42.0,42.0,?
2017-07-31 19:27:33.751641,4530.7575753,3676.12121175,4288.12121169,2641.69696943,3872.39393901,111.272727262,3860.54545416,342.060606026,4265.45454503,152.48484847,4469.45454501,226.666666644,4179.93939352,3416.48484814,4279.36363594,3033.21212091,4954.72727223,2967.27272698,4196.93939352,94.7878787784,4419.48484804,3807.99999962,4195.90909049,2715.87878761,4826.96969649,3041.45454515,4445.2424238,4034.66666626,42.0,42.0,?
2017-07-31 19:27:33.762980,4531.78787833,3676.12121175,4283.48484806,2641.69696943,3873.93939355,111.272727262,3860.03030264,342.060606026,4265.45454503,152.48484847,4466.36363592,226.666666644,4173.75757534,3416.48484814,4276.27272685,3033.21212091,4947.51515102,2967.27272698,4189.72727231,94.7878787784,4418.96969653,3807.99999962,4190.75757534,2715.87878761,4829.03030255,3041.45454515,4442.15151471,4034.66666626,42.0,42.0,?
2017-07-31 19:27:33.765998,4536.42424197,3676.12121175,4286.57575715,2641.69696943,3875.4848481,111.272727262,3883.21212082,342.060606026,4270.60606018,152.48484847,4473.57575713,226.666666644,4179.42424201,3416.48484814,4282.96969654,3033.21212091,4971.21212072,2967.27272698,4194.36363594,94.7878787784,4422.57575713,3807.99999962,4188.18181776,2715.87878761,4833.66666618,3041.45454515,4442.15151471,4034.66666626,42.0,42.0,?
2017-07-31 19:27:33.775793,4532.30302985,3676.12121175,4283.99999957,2641.69696943,3868.7878784,111.272727262,3878.06060567,342.060606026,4259.78787836,152.48484847,4466.87878743,226.666666644,4174.78787837,3416.48484814,4276.27272685,3033.21212091,4957.30302981,2967.27272698,4194.36363594,94.7878787784,4421.03030259,3807.99999962,4193.33333291,2715.87878761,4835.72727224,3041.45454515,4437.51515107,4034.66666626,42.0,42.0,?
2017-07-31 19:27:33.790556,4531.27272682,3676.12121175,4276.78787836,2641.69696943,3869.30302992,111.272727262,3866.72727234,342.060606026,4256.18181776,152.48484847,4461.72727228,226.666666644,4168.09090867,3416.48484814,4270.09090866,3033.21212091,4949.06060557,2967.27272698,4196.93939352,94.7878787784,4424.63636319,3807.99999962,4193.33333291,2715.87878761,4835.72727224,3041.45454515,4439.57575713,4034.66666626,42.0,42.0,?
2017-07-31 19:27:33.792287,4531.27272682,3676.12121175,4278.33333291,2641.69696943,3873.93939355,111.272727262,3847.66666628,342.060606026,4268.54545412,152.48484847,4462.75757531,226.666666644,4172.72727231,3416.48484814,4276.27272685,3033.21212091,4955.75757526,2967.27272698,4199.5151511,94.7878787784,4427.21212077,3807.99999962,4189.72727231,2715.87878761,4841.39393891,3041.45454515,4441.12121168,4034.66666626,42.0,42.0,?
2017-07-31 19:27:33.799014,4531.27272682,3676.12121175,4278.33333291,2641.69696943,3873.93939355,111.272727262,3847.66666628,342.060606026,4268.54545412,152.48484847,4462.75757531,226.666666644,4172.72727231,3416.48484814,4276.27272685,3033.21212091,4955.75757526,2967.27272698,4199.5151511,94.7878787784,4427.21212077,3807.99999962,4189.72727231,2715.87878761,4841.39393891,3041.45454515,4441.12121168,4034.66666626,42.0,42.0,?
2017-07-31 19:27:33.805137,4538.99999955,3676.12121175,4282.45454503,2641.69696943,3874.45454507,111.272727262,3844.57575719,342.060606026,4255.66666624,152.48484847,4458.12121168,226.666666644,4167.06060564,3416.48484814,4268.54545412,3033.21212091,4918.66666617,2967.27272698,4202.60606019,94.7878787784,4429.27272683,3807.99999962,4196.424242,2715.87878761,4843.45454497,3041.45454515,4442.15151471,4034.66666626,42.0,42.0,?
2017-07-31 19:27:33.812924,4546.72727227,3676.12121175,4282.96969654,2641.69696943,3881.15151476,111.272727262,3867.75757537,342.060606026,4262.36363594,152.48484847,4466.36363592,226.666666644,4174.78787837,3416.48484814,4278.84848442,3033.21212091,4955.75757526,2967.27272698,4205.69696928,94.7878787784,4435.45454501,3807.99999962,4193.33333291,2715.87878761,4844.484848,3041.45454515,4449.87878743,4034.66666626,42.0,42.0,?
2017-07-31 19:27:33.822465,4548.27272682,3676.12121175,4284.51515109,2641.69696943,3888.87878749,111.272727262,3877.54545416,342.060606026,4278.84848442,152.48484847,4476.66666622,226.666666644,4188.18181776,3416.48484814,4294.30302987,3033.21212091,5001.09090859,2967.27272698,4209.8181814,94.7878787784,4437.51515107,3807.99999962,4190.75757534,2715.87878761,4842.93939346,3041.45454515,4451.93939349,4034.66666626,42.0,42.0,?
2017-07-31 19:27:33.829672,4553.42424197,3676.12121175,4281.424242,2641.69696943,3887.33333294,111.272727262,3879.60606022,342.060606026,4277.81818139,152.48484847,4470.99999955,226.666666644,4186.63636322,3416.48484814,4292.24242381,3033.21212091,4988.72727223,2967.27272698,4209.8181814,94.7878787784,4440.09090865,3807.99999962,4192.30302988,2715.87878761,4844.484848,3041.45454515,4453.99999955,4034.66666626,42.0,42.0,?
2017-07-31 19:27:33.839381,4551.36363591,3676.12121175,4275.75757533,2641.69696943,3877.03030264,111.272727262,3870.33333295,342.060606026,4267.51515109,152.48484847,4460.69696925,226.666666644,4173.24242383,3416.48484814,4274.21212078,3033.21212091,4949.06060557,2967.27272698,4196.424242,94.7878787784,4434.9393935,3807.99999962,4191.78787837,2715.87878761,4845.51515103,3041.45454515,4454.51515107,4034.66666626,42.0,42.0,?
2017-07-31 19:27:33.845375,4550.84848439,3676.12121175,4281.93939351,2641.69696943,3880.12121173,111.272727262,3855.39393901,342.060606026,4270.09090866,152.48484847,4465.8484844,226.666666644,4174.78787837,3416.48484814,4274.7272723,3033.21212091,4945.96969648,2967.27272698,4195.90909049,94.7878787784,4432.87878744,3807.99999962,4190.24242382,2715.87878761,4843.45454497,3041.45454515,4454.51515107,4034.66666626,42.0,42.0,?
2017-07-31 19:27:33.853373,4559.60606015,3676.12121175,4288.12121169,2641.69696943,3882.69696931,111.272727262,3862.60606022,342.060606026,4268.54545412,152.48484847,4467.90909046,226.666666644,4177.36363595,3416.48484814,4281.424242,3033.21212091,4961.42424193,2967.27272698,4199.5151511,94.7878787784,4434.9393935,3807.99999962,4191.27272685,2715.87878761,4841.90909042,3041.45454515,4451.93939349,4034.66666626,42.0,42.0,?
2017-07-31 19:27:33.861762,4564.7575753,3676.12121175,4282.96969654,2641.69696943,3885.7878784,111.272727262,3884.24242385,342.060606026,4272.15151472,152.48484847,4467.90909046,226.666666644,4177.87878746,3416.48484814,4283.48484806,3033.21212091,4961.93939344,2967.27272698,4198.99999958,94.7878787784,4436.99999956,3807.99999962,4193.84848443,2715.87878761,4846.54545406,3041.45454515,4457.60606016,4034.66666626,42.0,42.0,?
2017-07-31 19:27:33.868876,4557.03030257,3676.12121175,4269.06060563,2641.69696943,3890.93939355,111.272727262,3880.63636325,342.060606026,4279.87878745,152.48484847,4470.99999955,226.666666644,4181.48484807,3416.48484814,4285.0303026,3033.21212091,4961.93939344,2967.27272698,4202.60606019,94.7878787784,4436.99999956,3807.99999962,4193.33333291,2715.87878761,4849.63636315,3041.45454515,4461.72727228,4034.66666626,42.0,42.0,?
2017-07-31 19:27:33.877632,4554.454545,3676.12121175,4268.54545412,2641.69696943,3887.33333294,111.272727262,3866.72727234,342.060606026,4273.18181775,152.48484847,4469.45454501,226.666666644,4180.45454504,3416.48484814,4280.90909048,3033.21212091,4967.60606011,2967.27272698,4203.1212117,94.7878787784,4437.51515107,3807.99999962,4193.33333291,2715.87878761,4847.57575709,3041.45454515,4457.09090865,4034.66666626,42.0,42.0,?
2017-07-31 19:27:33.884521,4566.81818136,3676.12121175,4287.60606018,2641.69696943,3891.96969658,111.272727262,3863.63636325,342.060606026,4272.66666624,152.48484847,4474.09090864,226.666666644,4181.48484807,3416.48484814,4279.36363594,3033.21212091,4967.09090859,2967.27272698,4203.63636322,94.7878787784,4441.12121168,3807.99999962,4192.30302988,2715.87878761,4849.12121164,3041.45454515,4460.69696925,4034.66666626,42.0,42.0,?
2017-07-31 19:27:33.891240,4558.57575712,3676.12121175,4285.54545412,2641.69696943,3890.42424204,111.272727262,3855.90909052,342.060606026,4276.78787836,152.48484847,4475.12121167,226.666666644,4180.45454504,3416.48484814,4277.81818139,3033.21212091,4962.45454496,2967.27272698,4196.93939352,94.7878787784,4434.42424198,3807.99999962,4188.18181776,2715.87878761,4847.06060558,3041.45454515,4457.09090865,4034.66666626,42.0,42.0,?
2017-07-31 19:27:33.900123,4541.57575712,3676.12121175,4264.424242,2641.69696943,3879.60606022,111.272727262,3869.30302992,342.060606026,4274.7272723,152.48484847,4469.45454501,226.666666644,4181.99999958,3416.48484814,4280.90909048,3033.21212091,4958.84848435,2967.27272698,4194.36363594,94.7878787784,4427.21212077,3807.99999962,4189.21212079,2715.87878761,4844.484848,3041.45454515,4449.87878743,4034.66666626,42.0,42.0,?
2017-07-31 19:27:33.912701,4548.27272682,3676.12121175,4266.48484806,2641.69696943,3880.63636325,111.272727262,3885.7878784,342.060606026,4277.30302988,152.48484847,4473.57575713,226.666666644,4186.1212117,3416.48484814,4288.12121169,3033.21212091,4951.12121163,2967.27272698,4202.09090867,94.7878787784,4433.39393895,3807.99999962,4193.84848443,2715.87878761,4847.57575709,3041.45454515,4455.5454541,4034.66666626,42.0,42.0,?
2017-07-31 19:27:33.916047,4581.24242378,3676.12121175,4281.93939351,2641.69696943,3918.75757537,111.272727262,3904.84848446,342.060606026,4307.18181775,152.48484847,4503.96969652,226.666666644,4211.87878746,3416.48484814,4318.51515108,3033.21212091,4985.12121162,2967.27272698,4235.57575715,94.7878787784,4468.42424198,3807.99999962,4196.424242,2715.87878761,4866.63636315,3041.45454515,4492.12121167,4034.66666626,42.0,42.0,?
2017-07-31 19:27:33.928506,4542.09090864,3676.12121175,4258.24242382,2641.69696943,3873.93939355,111.272727262,3853.33333295,342.060606026,4256.69696927,152.48484847,4461.21212077,226.666666644,4172.72727231,3416.48484814,4275.24242381,3033.21212091,4948.03030254,2967.27272698,4185.60606019,94.7878787784,4428.2424238,3807.99999962,4185.09090867,2715.87878761,4843.45454497,3041.45454515,4447.81818137,4034.66666626,42.0,42.0,?
2017-07-31 19:27:33.932616,4513.24242379,3676.12121175,4252.57575715,2641.69696943,3841.4848481,111.272727262,3814.1818178,342.060606026,4226.30302988,152.48484847,4435.45454501,226.666666644,4139.24242383,3416.48484814,4235.57575715,3033.21212091,4909.3939389,2967.27272698,4143.87878746,94.7878787784,4392.18181774,3807.99999962,4193.84848443,2715.87878761,4820.27272679,3041.45454515,4412.27272683,4034.66666626,42.0,42.0,?
2017-07-31 19:27:33.940914,4693.03030256,3676.12121175,4312.84848442,2641.69696943,4072.27272687,111.272727262,4036.21212081,342.060606026,4452.45454501,152.48484847,4635.84848438,226.666666644,4355.60606017,3416.48484814,4464.81818137,3033.21212091,5160.27272676,2967.27272698,4389.09090865,94.7878787784,4599.27272681,3807.99999962,4214.45454503,2715.87878761,4948.03030254,3041.45454515,4646.6666662,4034.66666626,42.0,42.0,?
2017-07-31 19:27:33.946490,4669.33333287,3676.12121175,4288.12121169,2641.69696943,4035.69696929,111.272727262,4031.06060566,342.060606026,4422.06060562,152.48484847,4610.09090863,226.666666644,4344.78787835,3416.48484814,4459.66666622,3033.21212091,5154.60606009,2967.27272698,4366.42424199,94.7878787784,4580.21212075,3807.99999962,4172.72727231,2715.87878761,4940.81818132,3041.45454515,4621.93939348,4034.66666626,42.0,42.0,?
2017-07-31 19:27:33.954869,4462.75757531,3676.12121175,4214.96969655,2641.69696943,3776.06060568,111.272727262,3799.24242386,342.060606026,4181.99999958,152.48484847,4398.36363592,226.666666644,4095.45454505,3416.48484814,4194.36363594,3033.21212091,4861.484848,2967.27272698,4088.24242383,94.7878787784,4342.72727229,3807.99999962,4165.5151511,2715.87878761,4796.06060558,3041.45454515,4355.60606017,4034.66666626,42.0,42.0,?
2017-07-31 19:27:33.962513,4538.48484803,3676.12121175,4249.99999958,2641.69696943,3876.51515113,111.272727262,3869.30302992,342.060606026,4275.24242381,152.48484847,4478.72727228,226.666666644,4173.75757534,3416.48484814,4272.15151472,3033.21212091,4941.84848435,2967.27272698,4181.99999958,94.7878787784,4421.03030259,3807.99999962,4202.09090867,2715.87878761,4840.36363588,3041.45454515,4448.8484844,4034.66666626,42.0,42.0,?
2017-07-31 19:27:33.972203,4582.78787833,3676.12121175,4280.90909048,2641.69696943,3924.93939355,111.272727262,3891.96969658,342.060606026,4311.81818139,152.48484847,4505.51515106,226.666666644,4221.66666624,3416.48484814,4327.27272684,3033.21212091,5000.57575708,2967.27272698,4236.60606018,94.7878787784,4464.81818137,3807.99999962,4189.72727231,2715.87878761,4866.12121163,3041.45454515,4498.30302985,4034.66666626,42.0,42.0,?
2017-07-31 19:27:33.978601,4513.75757531,3676.12121175,4260.81818139,2641.69696943,3844.57575719,111.272727262,3829.12121174,342.060606026,4239.69696927,152.48484847,4439.57575713,226.666666644,4140.27272686,3416.48484814,4249.48484806,3033.21212091,4905.27272678,2967.27272698,4158.30302989,94.7878787784,4393.21212077,3807.99999962,4188.69696928,2715.87878761,4823.8787874,3041.45454515,4414.33333289,4034.66666626,42.0,42.0,?
2017-07-31 19:27:33.986972,4528.69696924,3676.12121175,4246.39393897,2641.69696943,3873.42424204,111.272727262,3873.93939355,342.060606026,4274.7272723,152.48484847,4471.51515107,226.666666644,4171.18181776,3416.48484814,4281.424242,3033.21212091,4949.57575708,2967.27272698,4188.18181776,94.7878787784,4422.06060562,3807.99999962,4196.93939352,2715.87878761,4837.27272679,3041.45454515,4446.78787834,4034.66666626,42.0,42.0,?
2017-07-31 19:27:33.994027,4533.8484844,3676.12121175,4245.36363594,2641.69696943,3878.06060567,111.272727262,3876.51515113,342.060606026,4270.09090866,152.48484847,4468.42424198,226.666666644,4176.33333292,3416.48484814,4282.45454503,3033.21212091,4976.36363587,2967.27272698,4183.54545413,94.7878787784,4422.06060562,3807.99999962,4188.18181776,2715.87878761,4836.75757527,3041.45454515,4452.45454501,4034.66666626,42.0,42.0,?
2017-07-31 19:27:34.003051,4541.06060561,3676.12121175,4260.30302988,2641.69696943,3882.18181779,111.272727262,3875.99999961,342.060606026,4265.96969654,152.48484847,4462.2424238,226.666666644,4173.24242383,3416.48484814,4280.39393897,3033.21212091,4972.75757526,2967.27272698,4187.66666625,94.7878787784,4423.09090865,3807.99999962,4189.21212079,2715.87878761,4838.30302982,3041.45454515,4455.03030258,4034.66666626,42.0,42.0,?
2017-07-31 19:27:34.009380,4542.60606015,3676.12121175,4258.75757533,2641.69696943,3877.54545416,111.272727262,3870.84848446,342.060606026,4266.99999957,152.48484847,4460.18181774,226.666666644,4171.18181776,3416.48484814,4280.90909048,3033.21212091,4945.96969648,2967.27272698,4190.24242382,94.7878787784,4426.18181774,3807.99999962,4192.8181814,2715.87878761,4840.87878739,3041.45454515,4456.57575713,4034.66666626,42.0,42.0,?
2017-07-31 19:27:34.018158,4535.90909046,3676.12121175,4258.75757533,2641.69696943,3870.33333295,111.272727262,3854.36363598,342.060606026,4254.63636321,152.48484847,4456.06060561,226.666666644,4165.5151511,3416.48484814,4268.0303026,3033.21212091,4920.72727224,2967.27272698,4183.54545413,94.7878787784,4421.03030259,3807.99999962,4195.39393897,2715.87878761,4840.87878739,3041.45454515,4452.96969652,4034.66666626,42.0,42.0,?
2017-07-31 19:27:34.024450,4544.66666621,3676.12121175,4265.45454503,2641.69696943,3883.21212082,111.272727262,3854.87878749,342.060606026,4257.21212079,152.48484847,4464.81818137,226.666666644,4176.84848443,3416.48484814,4277.81818139,3033.21212091,4953.6969692,2967.27272698,4197.45454503,94.7878787784,4426.69696925,3807.99999962,4192.30302988,2715.87878761,4846.54545406,3041.45454515,4463.78787834,4034.66666626,42.0,42.0,?
2017-07-31 19:27:34.034596,4547.24242379,3676.12121175,4258.75757533,2641.69696943,3886.81818143,111.272727262,3862.0909087,342.060606026,4265.45454503,152.48484847,4470.48484804,226.666666644,4179.93939352,3416.48484814,4284.51515109,3033.21212091,4967.09090859,2967.27272698,4199.5151511,94.7878787784,4430.81818138,3807.99999962,4191.78787837,2715.87878761,4847.57575709,3041.45454515,4464.30302986,4034.66666626,42.0,42.0,?
2017-07-31 19:27:34.040228,4537.454545,3676.12121175,4258.75757533,2641.69696943,3879.0909087,111.272727262,3875.99999961,342.060606026,4271.63636321,152.48484847,4470.48484804,226.666666644,4173.24242383,3416.48484814,4274.7272723,3033.21212091,4938.75757526,2967.27272698,4183.54545413,94.7878787784,4422.06060562,3807.99999962,4192.30302988,2715.87878761,4840.36363588,3041.45454515,4456.06060561,4034.66666626,42.0,42.0,?
2017-07-31 19:27:34.048629,4527.1515147,3676.12121175,4257.7272723,2641.69696943,3869.30302992,111.272727262,3879.0909087,342.060606026,4277.81818139,152.48484847,4472.03030258,226.666666644,4172.21212079,3416.48484814,4269.06060563,3033.21212091,4931.54545405,2967.27272698,4168.60606019,94.7878787784,4408.15151471,3807.99999962,4187.15151473,2715.87878761,4829.03030255,3041.45454515,4448.33333289,4034.66666626,42.0,42.0,?
2017-07-31 19:27:34.057374,4528.18181773,3676.12121175,4254.1212117,2641.69696943,3867.75757537,111.272727262,3858.99999961,342.060606026,4283.48484806,152.48484847,4480.78787834,226.666666644,4182.5151511,3416.48484814,4278.84848442,3033.21212091,4960.3939389,2967.27272698,4161.90909049,94.7878787784,4409.18181774,3807.99999962,4184.06060564,2715.87878761,4827.484848,3041.45454515,4444.72727228,4034.66666626,42.0,42.0,?
2017-07-31 19:27:34.066366,4532.81818136,3676.12121175,4254.63636321,2641.69696943,3869.81818143,111.272727262,3846.63636325,342.060606026,4280.90909048,152.48484847,4483.87878743,226.666666644,4190.24242382,3416.48484814,4290.69696927,3033.21212091,4959.87878738,2967.27272698,4169.63636322,94.7878787784,4416.39393895,3807.99999962,4190.24242382,2715.87878761,4836.75757527,3041.45454515,4445.75757531,4034.66666626,42.0,42.0,?
2017-07-31 19:27:34.072898,4536.42424197,3676.12121175,4247.93939351,2641.69696943,3872.90909052,111.272727262,3860.03030264,342.060606026,4274.7272723,152.48484847,4477.69696925,226.666666644,4188.69696928,3416.48484814,4293.78787836,3033.21212091,4937.21212072,2967.27272698,4188.69696928,94.7878787784,4421.5454541,3807.99999962,4198.99999958,2715.87878761,4847.57575709,3041.45454515,4452.96969652,4034.66666626,42.0,42.0,?
2017-07-31 19:27:34.079401,4542.60606015,3676.12121175,4249.99999958,2641.69696943,3881.15151476,111.272727262,3868.27272689,342.060606026,4273.69696927,152.48484847,4477.69696925,226.666666644,4183.54545413,3416.48484814,4293.27272684,3033.21212091,4961.93939344,2967.27272698,4192.8181814,94.7878787784,4423.60606016,3807.99999962,4195.39393897,2715.87878761,4847.57575709,3041.45454515,4461.72727228,4034.66666626,42.0,42.0,?
2017-07-31 19:27:34.087620,4544.66666621,3676.12121175,4262.87878745,2641.69696943,3888.36363597,111.272727262,3858.99999961,342.060606026,4271.12121169,152.48484847,4477.18181773,226.666666644,4179.42424201,3416.48484814,4289.66666624,3033.21212091,4985.12121162,2967.27272698,4183.03030261,94.7878787784,4422.57575713,3807.99999962,4185.60606019,2715.87878761,4840.87878739,3041.45454515,4467.90909046,4034.66666626,42.0,42.0,?
2017-07-31 19:27:34.095510,4538.99999955,3618.42424206,4257.7272723,2641.69696943,3883.21212082,111.272727262,3858.99999961,342.060606026,4263.90909048,152.48484847,4466.36363592,226.666666644,4174.27272686,3416.48484814,4284.51515109,3033.21212091,4963.48484799,2967.27272698,4179.42424201,94.7878787784,4420.51515107,3807.99999962,4188.69696928,2715.87878761,4839.33333285,3041.45454515,4466.36363592,4034.66666626,42.0,42.0,?
2017-07-31 19:27:34.105011,4540.03030258,3618.42424206,4244.84848442,2649.93939367,3877.54545416,111.272727262,3867.24242386,342.060606026,4261.33333291,152.48484847,4464.81818137,226.666666644,4171.69696928,3416.48484814,4284.51515109,3033.21212091,4943.3939389,2967.27272698,4184.06060564,94.7878787784,4420.51515107,3807.99999962,4194.36363594,2715.87878761,4840.87878739,3041.45454515,4461.21212077,4034.66666626,42.0,42.0,?
2017-07-31 19:27:34.110160,4533.33333288,3618.42424206,4252.06060564,2649.93939367,3879.60606022,111.272727262,3860.03030264,342.060606026,4261.33333291,152.48484847,4468.93939349,226.666666644,4168.09090867,3416.48484814,4277.81818139,3033.21212091,4939.27272678,2967.27272698,4178.90909049,94.7878787784,4418.45454501,3807.99999962,4189.21212079,2715.87878761,4837.7878783,3041.45454515,4459.15151471,4051.15151475,42.0,42.0,?
2017-07-31 19:27:34.121083,4533.33333288,3618.42424206,4252.06060564,2649.93939367,3879.60606022,98.9090908992,3854.87878749,342.060606026,4261.33333291,152.48484847,4467.39393895,226.666666644,4164.48484807,3416.48484814,4270.09090866,3033.21212091,4939.27272678,2967.27272698,4178.90909049,94.7878787784,4414.33333289,3807.99999962,4189.21212079,2715.87878761,4834.1818177,3041.45454515,4459.66666622,4051.15151475,42.0,42.0,?
2017-07-31 19:27:34.126881,4536.93939349,3618.42424206,4255.66666624,2649.93939367,3887.33333294,98.9090908992,3867.75757537,395.636363597,4270.09090866,152.48484847,4471.51515107,226.666666644,4169.1212117,3416.48484814,4276.27272685,3033.21212091,4944.93939344,2967.27272698,4183.03030261,94.7878787784,4416.90909047,3807.99999962,4188.18181776,2715.87878761,4836.75757527,3041.45454515,4464.30302986,4051.15151475,42.0,42.0,?
2017-07-31 19:27:34.136964,4542.60606015,3618.42424206,4254.1212117,2649.93939367,3887.84848446,98.9090908992,3870.84848446,395.636363597,4268.54545412,173.090909074,4472.5454541,226.666666644,4168.60606019,3416.48484814,4277.30302988,3033.21212091,4943.90909041,2967.27272698,4176.33333292,94.7878787784,4418.96969653,3807.99999962,4186.1212117,2715.87878761,4835.21212073,3041.45454515,4463.27272683,4051.15151475,42.0,42.0,?
2017-07-31 19:27:34.141899,4540.54545409,3618.42424206,4250.51515109,2649.93939367,3886.81818143,98.9090908992,3865.1818178,395.636363597,4264.93939351,173.090909074,4472.03030258,251.393939369,4167.57575716,3416.48484814,4276.78787836,3033.21212091,4953.6969692,2967.27272698,4180.45454504,94.7878787784,4422.57575713,3807.99999962,4189.72727231,2715.87878761,4836.24242376,3041.45454515,4464.81818137,4051.15151475,42.0,42.0,?
2017-07-31 19:27:34.155216,4542.09090864,3618.42424206,4257.21212079,2649.93939367,3893.51515113,98.9090908992,3869.81818143,395.636363597,4272.66666624,173.090909074,4479.75757531,251.393939369,4180.96969655,3395.87878754,4288.63636321,3033.21212091,4976.36363587,2967.27272698,4198.48484806,94.7878787784,4428.75757531,3807.99999962,4195.39393897,2715.87878761,4846.54545406,3041.45454515,4470.48484804,4051.15151475,42.0,42.0,?
2017-07-31 19:27:34.159388,4544.1515147,3618.42424206,4255.15151473,2649.93939367,3897.63636325,98.9090908992,3871.36363598,395.636363597,4274.7272723,173.090909074,4482.33333289,251.393939369,4184.57575716,3395.87878754,4290.18181775,3053.81818151,4952.15151466,2967.27272698,4198.48484806,94.7878787784,4427.21212077,3807.99999962,4192.8181814,2715.87878761,4846.03030255,3041.45454515,4472.5454541,4051.15151475,42.0,42.0,?
2017-07-31 19:27:34.166020,4537.454545,3618.42424206,4244.33333291,2649.93939367,3894.54545416,98.9090908992,3864.66666628,395.636363597,4267.51515109,173.090909074,4477.18181773,251.393939369,4172.72727231,3395.87878754,4279.36363594,3053.81818151,4929.48484799,2996.12121182,4184.06060564,94.7878787784,4416.90909047,3807.99999962,4184.57575716,2715.87878761,4829.54545406,3041.45454515,4468.93939349,4051.15151475,42.0,42.0,?
2017-07-31 19:27:34.174017,4529.21212076,3618.42424206,4242.27272685,2649.93939367,3884.24242385,98.9090908992,3864.15151477,395.636363597,4262.36363594,173.090909074,4472.5454541,251.393939369,4163.45454504,3395.87878754,4273.69696927,3053.81818151,4952.15151466,2996.12121182,4172.21212079,41.212121208,4407.6363632,3807.99999962,4185.09090867,2715.87878761,4822.84848437,3041.45454515,4457.60606016,4051.15151475,42.0,42.0,?
2017-07-31 19:27:34.181721,4534.87878743,3618.42424206,4239.18181776,2649.93939367,3884.75757537,98.9090908992,3875.4848481,395.636363597,4266.48484806,173.090909074,4473.57575713,251.393939369,4168.09090867,3395.87878754,4275.24242381,3053.81818151,4957.81818132,2996.12121182,4176.33333292,41.212121208,4410.21212077,3758.54545417,4194.36363594,2715.87878761,4832.12121164,3041.45454515,4457.09090865,4051.15151475,42.0,42.0,?
2017-07-31 19:27:34.189681,4545.69696924,3618.42424206,4246.90909048,2649.93939367,3898.15151476,98.9090908992,3874.96969658,395.636363597,4263.90909048,173.090909074,4473.06060561,251.393939369,4171.69696928,3395.87878754,4274.7272723,3053.81818151,4943.3939389,2996.12121182,4186.1212117,41.212121208,4418.45454501,3758.54545417,4192.8181814,2715.87878761,4837.27272679,3041.45454515,4469.45454501,4051.15151475,42.0,42.0,?
2017-07-31 19:27:34.195880,4541.06060561,3618.42424206,4260.81818139,2649.93939367,3903.81818143,98.9090908992,3860.03030264,395.636363597,4252.57575715,173.090909074,4464.81818137,251.393939369,4165.5151511,3395.87878754,4270.60606018,3053.81818151,4946.48484799,2996.12121182,4177.36363595,41.212121208,4412.78787835,3758.54545417,4185.09090867,2715.87878761,4830.06060558,3062.06060575,4467.39393895,4051.15151475,42.0,42.0,?
2017-07-31 19:27:34.204993,4529.21212076,3618.42424206,4253.09090867,2649.93939367,3902.27272688,98.9090908992,3863.12121173,395.636363597,4259.78787836,173.090909074,4465.8484844,251.393939369,4163.96969655,3395.87878754,4272.66666624,3053.81818151,4947.51515102,2996.12121182,4167.57575716,37.0909090872,4404.03030259,3758.54545417,4184.57575716,2715.87878761,4822.84848437,3062.06060575,4458.63636319,4051.15151475,42.0,42.0,?
2017-07-31 19:27:34.212507,4527.66666621,3618.42424206,4243.81818139,2649.93939367,3904.33333294,98.9090908992,3874.96969658,395.636363597,4272.66666624,173.090909074,4474.60606016,251.393939369,4168.09090867,3395.87878754,4274.21212078,3053.81818151,4925.36363587,2996.12121182,4169.63636322,37.0909090872,4407.12121168,3766.78787841,4188.69696928,2715.87878761,4824.90909043,3062.06060575,4459.66666622,4051.15151475,42.0,42.0,?
2017-07-31 19:27:34.220429,4525.09090864,3618.42424206,4242.78787836,2649.93939367,3903.81818143,98.9090908992,3873.93939355,395.636363597,4268.54545412,173.090909074,4477.18181773,251.393939369,4169.63636322,3395.87878754,4269.06060563,3053.81818151,4921.75757527,2996.12121182,4167.06060564,37.0909090872,4407.12121168,3766.78787841,4187.66666625,2715.87878761,4822.33333285,3062.06060575,4456.57575713,4051.15151475,42.0,42.0,?
2017-07-31 19:27:34.231357,4525.09090864,3618.42424206,4238.66666624,2649.93939367,3901.75757537,98.9090908992,3868.27272689,395.636363597,4264.93939351,173.090909074,4478.21212076,251.393939369,4170.66666625,3395.87878754,4270.60606018,3053.81818151,4942.36363587,2996.12121182,4164.99999958,37.0909090872,4404.03030259,3766.78787841,4186.63636322,2715.87878761,4816.66666619,3062.06060575,4453.48484804,4051.15151475,42.0,42.0,?
2017-07-31 19:27:34.237557,4537.454545,3618.42424206,4248.45454503,2649.93939367,3905.87878749,98.9090908992,3875.4848481,395.636363597,4274.7272723,173.090909074,4486.45454501,251.393939369,4175.8181814,3395.87878754,4280.39393897,3053.81818151,4943.3939389,2996.12121182,4176.33333292,37.0909090872,4416.39393895,3766.78787841,4191.27272685,2715.87878761,4826.96969649,3062.06060575,4462.2424238,4051.15151475,42.0,42.0,?
2017-07-31 19:27:34.242872,4542.60606015,3618.42424206,4261.33333291,2649.93939367,3906.393939,98.9090908992,3881.15151476,395.636363597,4277.81818139,173.090909074,4492.63636319,251.393939369,4183.54545413,3395.87878754,4282.96969654,3053.81818151,4934.12121163,2996.12121182,4181.48484807,37.0909090872,4422.57575713,3766.78787841,4189.21212079,2715.87878761,4834.69696921,3062.06060575,4464.81818137,4051.15151475,42.0,42.0,?
2017-07-31 19:27:34.251711,4536.93939349,3618.42424206,4249.48484806,2649.93939367,3907.42424203,98.9090908992,3878.06060567,395.636363597,4275.24242381,173.090909074,4494.69696925,251.393939369,4187.66666625,3395.87878754,4281.93939351,3053.81818151,4944.93939344,2996.12121182,4172.72727231,37.0909090872,4417.42424198,3766.78787841,4187.15151473,2715.87878761,4833.15151467,3062.06060575,4463.27272683,4051.15151475,42.0,42.0,?
2017-07-31 19:27:34.263230,4543.12121167,3618.42424206,4242.27272685,2649.93939367,3920.30302991,98.9090908992,3882.69696931,395.636363597,4282.45454503,173.090909074,4501.39393894,251.393939369,4198.99999958,3395.87878754,4293.78787836,3053.81818151,4961.93939344,2996.12121182,4185.09090867,37.0909090872,4426.18181774,3766.78787841,4189.72727231,2715.87878761,4836.24242376,3062.06060575,4475.63636319,4051.15151475,42.0,42.0,?
2017-07-31 19:27:34.268497,4536.93939349,3618.42424206,4242.78787836,2649.93939367,3905.87878749,98.9090908992,3865.69696931,395.636363597,4269.06060563,173.090909074,4490.06060561,251.393939369,4190.75757534,3395.87878754,4288.63636321,3053.81818151,4949.06060557,2996.12121182,4179.93939352,37.0909090872,4421.5454541,3766.78787841,4187.15151473,2715.87878761,4832.12121164,3062.06060575,4466.36363592,4051.15151475,42.0,42.0,?
2017-07-31 19:27:34.274944,4523.03030258,3618.42424206,4232.48484806,2649.93939367,3885.27272688,98.9090908992,3852.81818143,395.636363597,4253.60606018,173.090909074,4477.69696925,251.393939369,4171.69696928,3395.87878754,4273.18181775,3053.81818151,4943.90909041,2996.12121182,4151.60606019,37.0909090872,4401.45454501,3766.78787841,4185.60606019,2715.87878761,4823.36363588,3062.06060575,4444.72727228,4051.15151475,42.0,42.0,?
2017-07-31 19:27:34.283438,4535.90909046,3618.42424206,4238.66666624,2649.93939367,3901.24242385,98.9090908992,3874.96969658,395.636363597,4269.57575715,173.090909074,4487.48484804,251.393939369,4175.30302989,3395.87878754,4279.36363594,3053.81818151,4954.21212072,2996.12121182,4160.36363595,37.0909090872,4407.12121168,3766.78787841,4188.18181776,2715.87878761,4826.45454497,3062.06060575,4454.51515107,4051.15151475,42.0,42.0,?
2017-07-31 19:27:34.291112,4539.51515106,3618.42424206,4246.90909048,2649.93939367,3898.66666628,98.9090908992,3874.45454507,395.636363597,4272.66666624,173.090909074,4487.48484804,251.393939369,4175.30302989,3395.87878754,4277.30302988,3053.81818151,4929.99999951,2996.12121182,4178.39393898,37.0909090872,4417.42424198,3766.78787841,4192.8181814,2715.87878761,4834.1818177,3062.06060575,4456.06060561,4051.15151475,42.0,42.0,?
2017-07-31 19:27:34.298705,4533.33333288,3618.42424206,4239.69696927,2649.93939367,3887.84848446,98.9090908992,3867.75757537,395.636363597,4268.0303026,173.090909074,4486.45454501,251.393939369,4178.90909049,3395.87878754,4279.87878745,3053.81818151,4932.57575708,2996.12121182,4179.93939352,37.0909090872,4420.51515107,3766.78787841,4192.8181814,2715.87878761,4839.84848436,3062.06060575,4455.03030258,4051.15151475,42.0,42.0,?
2017-07-31 19:27:34.306506,4543.12121167,3618.42424206,4242.27272685,2649.93939367,3903.81818143,98.9090908992,3875.99999961,395.636363597,4270.09090866,173.090909074,4489.03030258,251.393939369,4190.75757534,3395.87878754,4294.81818139,3053.81818151,4965.03030253,2996.12121182,4177.36363595,37.0909090872,4420.51515107,3766.78787841,4186.63636322,2715.87878761,4839.33333285,3062.06060575,4467.39393895,4051.15151475,42.0,42.0,?
2017-07-31 19:27:34.314007,4543.63636318,3618.42424206,4254.1212117,2649.93939367,3908.45454506,98.9090908992,3867.24242386,395.636363597,4261.84848442,173.090909074,4478.72727228,251.393939369,4184.06060564,3395.87878754,4289.66666624,3053.81818151,4950.60606011,2996.12121182,4170.66666625,37.0909090872,4415.87878744,3766.78787841,4187.15151473,2715.87878761,4833.15151467,3062.06060575,4462.75757531,4051.15151475,42.0,42.0,?
2017-07-31 19:27:34.322735,4537.454545,3618.42424206,4249.48484806,2649.93939367,3899.18181779,98.9090908992,3868.27272689,395.636363597,4264.424242,173.090909074,4481.30302985,251.393939369,4180.45454504,3395.87878754,4287.60606018,3053.81818151,4934.63636314,2996.12121182,4173.24242383,37.0909090872,4417.9393935,3766.78787841,4191.78787837,2715.87878761,4832.63636315,3062.06060575,4456.06060561,4051.15151475,42.0,42.0,?
2017-07-31 19:27:34.331776,4540.54545409,3618.42424206,4240.7272723,2649.93939367,3896.60606022,98.9090908992,3878.57575719,395.636363597,4276.27272685,173.090909074,4489.5454541,251.393939369,4184.57575716,3395.87878754,4293.27272684,3053.81818151,4951.12121163,2996.12121182,4179.42424201,37.0909090872,4421.03030259,3766.78787841,4191.27272685,2715.87878761,4837.7878783,3062.06060575,4459.15151471,4051.15151475,42.0,42.0,?
2017-07-31 19:27:34.338691,4543.63636318,3618.42424206,4248.45454503,2649.93939367,3902.27272688,98.9090908992,3870.33333295,395.636363597,4274.21212078,173.090909074,4485.42424198,251.393939369,4179.93939352,3395.87878754,4289.66666624,3053.81818151,4960.3939389,2996.12121182,4178.90909049,37.0909090872,4420.51515107,3766.78787841,4187.15151473,2715.87878761,4840.36363588,3062.06060575,4462.2424238,4051.15151475,42.0,42.0,?
2017-07-31 19:27:34.344852,4542.09090864,3618.42424206,4255.66666624,2649.93939367,3909.99999961,98.9090908992,3870.33333295,395.636363597,4270.09090866,173.090909074,4483.87878743,251.393939369,4178.90909049,3395.87878754,4290.18181775,3053.81818151,4961.93939344,2996.12121182,4179.42424201,37.0909090872,4422.06060562,3766.78787841,4186.1212117,2715.87878761,4838.30302982,3062.06060575,4465.33333289,4051.15151475,42.0,42.0,?
2017-07-31 19:27:34.354417,4538.99999955,3618.42424206,4247.424242,2649.93939367,3905.87878749,98.9090908992,3878.57575719,395.636363597,4272.15151472,173.090909074,4489.03030258,251.393939369,4184.06060564,3395.87878754,4292.24242381,3053.81818151,4954.21212072,2996.12121182,4186.1212117,37.0909090872,4423.09090865,3766.78787841,4192.30302988,2715.87878761,4840.36363588,3062.06060575,4461.21212077,4051.15151475,42.0,42.0,?
2017-07-31 19:27:34.360906,4540.03030258,3618.42424206,4238.66666624,2649.93939367,3900.21212082,98.9090908992,3876.51515113,395.636363597,4275.24242381,173.090909074,4491.60606016,251.393939369,4188.18181776,3395.87878754,4292.24242381,3053.81818151,4944.42424193,2996.12121182,4194.36363594,37.0909090872,4423.09090865,3766.78787841,4195.39393897,2715.87878761,4846.54545406,3062.06060575,4460.69696925,4051.15151475,42.0,42.0,?
2017-07-31 19:27:34.369393,4544.1515147,3618.42424206,4240.7272723,2649.93939367,3908.45454506,98.9090908992,3880.63636325,395.636363597,4273.69696927,173.090909074,4492.12121167,251.393939369,4192.30302988,3395.87878754,4295.84848442,3053.81818151,4958.84848435,2996.12121182,4192.30302988,37.0909090872,4426.69696925,3766.78787841,4188.69696928,2715.87878761,4848.60606012,3062.06060575,4471.51515107,4051.15151475,42.0,42.0,?
2017-07-31 19:27:34.377280,4541.57575712,3618.42424206,4241.24242382,2649.93939367,3909.99999961,98.9090908992,3867.24242386,395.636363597,4265.96969654,173.090909074,4484.90909046,251.393939369,4184.06060564,3395.87878754,4287.60606018,3053.81818151,4969.15151465,2996.12121182,4176.84848443,37.0909090872,4424.12121168,3766.78787841,4184.57575716,2715.87878761,4839.33333285,3062.06060575,4472.5454541,4051.15151475,42.0,42.0,?
2017-07-31 19:27:34.387724,4536.93939349,3618.42424206,4238.66666624,2649.93939367,3902.27272688,98.9090908992,3850.24242386,395.636363597,4264.424242,173.090909074,4478.72727228,251.393939369,4174.78787837,3395.87878754,4278.33333291,3053.81818151,4956.78787829,2996.12121182,4176.33333292,37.0909090872,4417.9393935,3766.78787841,4190.24242382,2715.87878761,4833.15151467,3062.06060575,4463.27272683,4051.15151475,42.0,42.0,?
2017-07-31 19:27:34.393753,4538.48484803,3618.42424206,4243.30302988,2649.93939367,3902.27272688,98.9090908992,3873.42424204,395.636363597,4264.424242,173.090909074,4483.36363592,251.393939369,4181.48484807,3395.87878754,4288.63636321,3053.81818151,4982.03030253,2996.12121182,4188.69696928,37.0909090872,4421.5454541,3766.78787841,4188.69696928,2715.87878761,4841.90909042,3062.06060575,4463.78787834,4051.15151475,42.0,42.0,?
2017-07-31 19:27:34.401168,4538.48484803,3618.42424206,4243.30302988,2649.93939367,3902.27272688,98.9090908992,3894.03030264,395.636363597,4264.424242,173.090909074,4486.45454501,251.393939369,4188.69696928,3395.87878754,4297.90909048,3053.81818151,4982.03030253,2996.12121182,4188.18181776,37.0909090872,4421.5454541,3766.78787841,4188.69696928,2715.87878761,4844.99999952,3062.06060575,4468.42424198,4051.15151475,42.0,42.0,?
2017-07-31 19:27:34.408614,4537.454545,3618.42424206,4238.66666624,2649.93939367,3903.81818143,98.9090908992,3881.66666628,395.636363597,4262.36363594,173.090909074,4481.30302985,251.393939369,4183.54545413,3395.87878754,4292.24242381,3053.81818151,4964.51515102,2996.12121182,4182.5151511,37.0909090872,4418.96969653,3766.78787841,4188.69696928,2715.87878761,4841.39393891,3062.06060575,4468.42424198,4051.15151475,42.0,42.0,?
2017-07-31 19:27:34.414999,4546.72727227,3618.42424206,4244.33333291,2649.93939367,3911.03030264,98.9090908992,3872.90909052,395.636363597,4265.45454503,173.090909074,4479.75757531,251.393939369,4176.84848443,3395.87878754,4285.54545412,3053.81818151,4930.51515102,2996.12121182,4184.57575716,37.0909090872,4424.12121168,3766.78787841,4192.30302988,2715.87878761,4843.96969649,3062.06060575,4473.57575713,4051.15151475,42.0,42.0,?
2017-07-31 19:27:34.424870,4554.96969651,3618.42424206,4257.21212079,2649.93939367,3916.69696931,98.9090908992,3872.39393901,395.636363597,4269.57575715,173.090909074,4486.45454501,251.393939369,4178.39393898,3395.87878754,4284.51515109,3053.81818151,4939.78787829,2996.12121182,4192.30302988,37.0909090872,4428.2424238,3766.78787841,4191.78787837,2715.87878761,4843.96969649,3062.06060575,4478.72727228,4051.15151475,42.0,42.0,?
2017-07-31 19:27:34.431515,4549.81818136,3618.42424206,4253.60606018,2649.93939367,3910.51515112,98.9090908992,3866.21212083,395.636363597,4269.06060563,173.090909074,4486.45454501,251.393939369,4177.87878746,3395.87878754,4285.54545412,3053.81818151,4964.51515102,2996.12121182,4195.90909049,37.0909090872,4426.18181774,3766.78787841,4192.30302988,2715.87878761,4842.93939346,3062.06060575,4475.63636319,4051.15151475,42.0,42.0,?
2017-07-31 19:27:34.440232,4546.72727227,3618.42424206,4239.69696927,2649.93939367,3908.96969658,98.9090908992,3879.60606022,395.636363597,4271.12121169,173.090909074,4486.96969652,251.393939369,4181.48484807,3395.87878754,4292.24242381,3053.81818151,4970.18181768,2996.12121182,4196.424242,37.0909090872,4427.72727228,3766.78787841,4193.84848443,2715.87878761,4847.57575709,3062.06060575,4477.18181773,4051.15151475,42.0,42.0,?
2017-07-31 19:27:34.448273,4552.90909045,3618.42424206,4240.21212079,2649.93939367,3913.60606021,98.9090908992,3893.51515113,395.636363597,4272.15151472,173.090909074,4491.09090864,251.393939369,4189.72727231,3395.87878754,4298.42424199,3053.81818151,4972.75757526,2996.12121182,4193.84848443,37.0909090872,4430.81818138,3766.78787841,4191.27272685,2715.87878761,4847.57575709,3062.06060575,4480.78787834,4051.15151475,42.0,42.0,?
2017-07-31 19:27:34.458162,4550.84848439,3618.42424206,4248.45454503,2649.93939367,3909.48484809,98.9090908992,3879.60606022,395.636363597,4263.39393897,173.090909074,4485.42424198,251.393939369,4186.1212117,3395.87878754,4292.24242381,3053.81818151,4970.18181768,2996.12121182,4190.75757534,37.0909090872,4428.2424238,3766.78787841,4189.72727231,2715.87878761,4843.45454497,3062.06060575,4473.57575713,4051.15151475,42.0,42.0,?
2017-07-31 19:27:34.463470,4541.57575712,3618.42424206,4247.93939351,2649.93939367,3908.96969658,98.9090908992,3871.87878749,395.636363597,4261.33333291,173.090909074,4482.33333289,251.393939369,4178.90909049,3395.87878754,4286.57575715,3053.81818151,4955.75757526,2996.12121182,4194.87878746,37.0909090872,4423.60606016,3766.78787841,4190.75757534,2715.87878761,4841.90909042,3062.06060575,4470.48484804,4051.15151475,42.0,42.0,?
2017-07-31 19:27:34.470631,4539.51515106,3618.42424206,4244.84848442,2649.93939367,3912.06060567,98.9090908992,3867.75757537,395.636363597,4266.48484806,173.090909074,4485.93939349,251.393939369,4178.90909049,3395.87878754,4287.60606018,3053.81818151,4948.54545405,2996.12121182,4192.30302988,37.0909090872,4422.57575713,3766.78787841,4188.18181776,2715.87878761,4838.30302982,3062.06060575,4473.57575713,4051.15151475,42.0,42.0,?
2017-07-31 19:27:34.478049,4542.60606015,3618.42424206,4247.424242,2649.93939367,3914.63636324,98.9090908992,3872.39393901,395.636363597,4271.12121169,173.090909074,4487.48484804,251.393939369,4183.54545413,3395.87878754,4294.81818139,3053.81818151,4956.27272678,2996.12121182,4187.66666625,37.0909090872,4424.63636319,3766.78787841,4187.15151473,2715.87878761,4837.7878783,3062.06060575,4475.12121167,4051.15151475,42.0,42.0,?
2017-07-31 19:27:34.488554,4545.69696924,3618.42424206,4242.78787836,2649.93939367,3923.90909052,98.9090908992,3890.42424204,395.636363597,4276.27272685,173.090909074,4492.12121167,251.393939369,4190.24242382,3395.87878754,4303.57575715,3053.81818151,4970.6969692,2996.12121182,4198.48484806,37.0909090872,4430.30302986,3766.78787841,4191.78787837,2715.87878761,4845.51515103,3062.06060575,4477.69696925,4051.15151475,42.0,42.0,?
2017-07-31 19:27:34.494901,4541.06060561,3618.42424206,4230.424242,2649.93939367,3915.66666628,98.9090908992,3883.72727234,395.636363597,4269.06060563,173.090909074,4488.51515107,251.393939369,4184.06060564,3395.87878754,4295.3333329,3053.81818151,4962.45454496,2996.12121182,4198.99999958,37.0909090872,4426.69696925,3766.78787841,4193.33333291,2715.87878761,4845.51515103,3062.06060575,4470.48484804,4051.15151475,42.0,42.0,?
2017-07-31 19:27:34.511640,4536.42424197,3618.42424206,4236.09090867,2649.93939367,3904.84848446,98.9090908992,3867.75757537,395.636363597,4262.36363594,173.090909074,4482.8484844,251.393939369,4177.36363595,3395.87878754,4284.51515109,3053.81818151,4936.6969692,2996.12121182,4185.09090867,37.0909090872,4418.96969653,3766.78787841,4188.69696928,2715.87878761,4836.75757527,3062.06060575,4463.27272683,4051.15151475,42.0,42.0,?
2017-07-31 19:27:34.520965,4547.7575753,3618.42424206,4255.15151473,2649.93939367,3928.03030264,98.9090908992,3875.99999961,395.636363597,4270.60606018,173.090909074,4491.60606016,251.393939369,4191.27272685,3395.87878754,4298.42424199,3053.81818151,4959.87878738,2996.12121182,4189.72727231,37.0909090872,4427.72727228,3766.78787841,4187.66666625,2715.87878761,4844.99999952,3062.06060575,4479.24242379,4051.15151475,42.0,42.0,?
2017-07-31 19:27:34.523716,4547.24242379,3618.42424206,4247.93939351,2649.93939367,3931.63636324,98.9090908992,3885.7878784,395.636363597,4266.99999957,173.090909074,4492.63636319,251.393939369,4191.27272685,3395.87878754,4303.57575715,3053.81818151,5002.12121162,2996.12121182,4197.45454503,37.0909090872,4430.81818138,3766.78787841,4190.75757534,2715.87878761,4852.21212073,3062.06060575,4482.8484844,4051.15151475,42.0,42.0,?
2017-07-31 19:27:34.529352,4540.03030258,3618.42424206,4231.96969655,2649.93939367,3910.51515112,98.9090908992,3890.42424204,395.636363597,4259.27272685,173.090909074,4487.48484804,251.393939369,4176.84848443,3395.87878754,4291.21212078,3053.81818151,4996.96969647,2996.12121182,4193.33333291,37.0909090872,4425.66666622,3766.78787841,4191.27272685,2715.87878761,4846.03030255,3062.06060575,4472.03030258,4051.15151475,42.0,42.0,?
2017-07-31 19:27:34.533377,4545.18181773,3618.42424206,4241.75757533,2649.93939367,3912.57575718,98.9090908992,3875.4848481,395.636363597,4260.81818139,173.090909074,4487.99999955,251.393939369,4173.75757534,3395.87878754,4281.93939351,3053.81818151,4951.63636314,2996.12121182,4188.69696928,37.0909090872,4426.69696925,3766.78787841,4187.66666625,2715.87878761,4842.93939346,3062.06060575,4475.12121167,4051.15151475,42.0,42.0,?
2017-07-31 19:27:34.541362,4543.12121167,3618.42424206,4248.45454503,2649.93939367,3915.15151476,98.9090908992,3845.09090871,395.636363597,4257.21212079,173.090909074,4483.87878743,251.393939369,4173.24242383,3395.87878754,4278.84848442,3053.81818151,4922.27272678,2996.12121182,4178.39393898,37.0909090872,4416.90909047,3766.78787841,4185.60606019,2715.87878761,4835.72727224,3062.06060575,4473.06060561,4051.15151475,42.0,42.0,?
2017-07-31 19:27:34.553102,4534.87878743,3618.42424206,4237.1212117,2649.93939367,3905.36363597,98.9090908992,3863.12121173,395.636363597,4262.87878745,173.090909074,4483.36363592,251.393939369,4182.5151511,3395.87878754,4291.7272723,3053.81818151,4950.60606011,2996.12121182,4180.45454504,37.0909090872,4414.33333289,3766.78787841,4189.21212079,2715.87878761,4835.72727224,3062.06060575,4466.87878743,4051.15151475,42.0,42.0,?
2017-07-31 19:27:34.556649,4538.99999955,3618.42424206,4227.84848443,2649.93939367,3908.45454506,98.9090908992,3898.66666628,395.636363597,4273.69696927,173.090909074,4487.99999955,251.393939369,4193.84848443,3395.87878754,4302.0303026,3053.81818151,4984.09090859,2996.12121182,4195.90909049,37.0909090872,4427.72727228,3766.78787841,4191.78787837,2715.87878761,4847.06060558,3062.06060575,4471.51515107,4051.15151475,42.0,42.0,?
2017-07-31 19:27:34.565480,4537.96969652,3618.42424206,4226.30302988,2649.93939367,3908.96969658,98.9090908992,3874.45454507,395.636363597,4262.36363594,173.090909074,4480.27272682,251.393939369,4182.5151511,3395.87878754,4287.09090866,3053.81818151,4958.84848435,2996.12121182,4187.15151473,37.0909090872,4419.99999956,3766.78787841,4187.15151473,2715.87878761,4839.33333285,3062.06060575,4469.45454501,4051.15151475,42.0,42.0,?
2017-07-31 19:27:34.577465,4529.72727227,3618.42424206,4235.06060564,2649.93939367,3903.81818143,98.9090908992,3849.72727234,395.636363597,4250.51515109,173.090909074,4474.60606016,251.393939369,4170.15151473,3395.87878754,4277.81818139,3053.81818151,4929.48484799,2996.12121182,4170.15151473,37.0909090872,4401.96969653,3766.78787841,4189.72727231,2715.87878761,4824.39393891,3062.06060575,4461.72727228,4051.15151475,42.0,42.0,?
2017-07-31 19:27:34.584064,4536.42424197,3618.42424206,4247.424242,2649.93939367,3911.03030264,98.9090908992,3868.27272689,395.636363597,4261.33333291,173.090909074,4486.96969652,251.393939369,4180.96969655,3395.87878754,4294.30302987,3053.81818151,4953.18181769,2996.12121182,4182.5151511,37.0909090872,4409.69696926,3766.78787841,4191.78787837,2715.87878761,4828.51515103,3062.06060575,4469.45454501,4051.15151475,42.0,42.0,?
2017-07-31 19:27:34.586926,4531.78787833,3618.42424206,4229.90909049,2649.93939367,3901.24242385,98.9090908992,3873.42424204,395.636363597,4264.93939351,173.090909074,4488.51515107,251.393939369,4180.45454504,3395.87878754,4291.7272723,3053.81818151,4970.6969692,2996.12121182,4184.06060564,37.0909090872,4411.75757532,3766.78787841,4186.1212117,2715.87878761,4829.54545406,3062.06060575,4464.81818137,4051.15151475,42.0,42.0,?
2017-07-31 19:27:34.595323,4522.51515106,3618.42424206,4211.87878746,2649.93939367,3894.03030264,98.9090908992,3867.24242386,395.636363597,4257.7272723,173.090909074,4482.33333289,251.393939369,4171.18181776,3395.87878754,4276.27272685,3053.81818151,4965.54545405,2996.12121182,4171.18181776,37.0909090872,4402.48484804,3766.78787841,4186.63636322,2715.87878761,4825.93939346,3062.06060575,4456.57575713,4051.15151475,42.0,42.0,?
2017-07-31 19:27:34.606804,4534.36363591,3639.03030267,4227.33333291,2649.93939367,3911.03030264,98.9090908992,3867.24242386,395.636363597,4257.21212079,173.090909074,4487.48484804,251.393939369,4176.84848443,3395.87878754,4281.424242,3053.81818151,4963.9999995,2996.12121182,4182.5151511,37.0909090872,4407.12121168,3766.78787841,4190.75757534,2715.87878761,4833.66666618,3062.06060575,4468.42424198,4051.15151475,42.0,42.0,?
2017-07-31 19:27:34.612923,4538.99999955,3639.03030267,4238.15151473,2645.81818155,3909.48484809,98.9090908992,3861.57575719,395.636363597,4257.21212079,173.090909074,4489.03030258,251.393939369,4177.36363595,3395.87878754,4281.424242,3053.81818151,4941.84848435,2996.12121182,4190.24242382,37.0909090872,4412.78787835,3766.78787841,4191.78787837,2715.87878761,4840.36363588,3062.06060575,4470.99999955,4051.15151475,42.0,42.0,?
2017-07-31 19:27:34.622024,4537.96969652,3639.03030267,4236.09090867,2645.81818155,3904.33333294,98.9090908992,3872.39393901,395.636363597,4266.48484806,173.090909074,4487.99999955,251.393939369,4177.87878746,3395.87878754,4279.36363594,3053.81818151,4929.48484799,2996.12121182,4187.66666625,37.0909090872,4415.87878744,3766.78787841,4191.27272685,2715.87878761,4842.42424194,3062.06060575,4472.03030258,4071.75757535,42.0,42.0,?
2017-07-31 19:27:34.627457,4541.57575712,3639.03030267,4239.18181776,2645.81818155,3911.03030264,119.515151503,3879.0909087,395.636363597,4264.93939351,173.090909074,4484.39393895,251.393939369,4177.87878746,3395.87878754,4284.51515109,3053.81818151,4948.54545405,2996.12121182,4187.15151473,37.0909090872,4416.39393895,3766.78787841,4190.75757534,2715.87878761,4840.87878739,3062.06060575,4476.66666622,4071.75757535,42.0,42.0,?
2017-07-31 19:27:34.639778,4541.57575712,3639.03030267,4237.63636321,2645.81818155,3909.99999961,119.515151503,3867.24242386,436.848484805,4251.03030261,173.090909074,4478.72727228,251.393939369,4170.15151473,3395.87878754,4283.48484806,3053.81818151,4965.03030253,2996.12121182,4185.09090867,37.0909090872,4415.36363592,3766.78787841,4189.72727231,2715.87878761,4836.24242376,3062.06060575,4472.5454541,4071.75757535,42.0,42.0,?
2017-07-31 19:27:34.642418,4542.60606015,3639.03030267,4227.84848443,2645.81818155,3905.36363597,119.515151503,3867.24242386,436.848484805,4255.66666624,276.121212094,4477.18181773,251.393939369,4169.63636322,3395.87878754,4281.424242,3053.81818151,4971.21212072,2996.12121182,4179.42424201,37.0909090872,4411.75757532,3766.78787841,4188.18181776,2715.87878761,4830.57575709,3062.06060575,4468.93939349,4071.75757535,42.0,42.0,?
2017-07-31 19:27:34.650478,4545.18181773,3639.03030267,4226.8181814,2645.81818155,3905.87878749,119.515151503,3878.06060567,436.848484805,4261.84848442,276.121212094,4474.60606016,288.484848456,4170.15151473,3395.87878754,4280.39393897,3053.81818151,4955.24242375,2996.12121182,4178.90909049,37.0909090872,4409.69696926,3766.78787841,4192.30302988,2715.87878761,4834.1818177,3062.06060575,4472.03030258,4071.75757535,42.0,42.0,?
2017-07-31 19:27:34.660133,4541.57575712,3639.03030267,4237.63636321,2645.81818155,3915.66666628,119.515151503,3888.87878749,436.848484805,4257.21212079,276.121212094,4476.66666622,288.484848456,4169.63636322,3535.99999965,4278.33333291,3053.81818151,4929.99999951,2996.12121182,4190.75757534,37.0909090872,4419.99999956,3766.78787841,4196.93939352,2715.87878761,4846.03030255,3062.06060575,4479.75757531,4071.75757535,42.0,42.0,?
2017-07-31 19:27:34.667838,4542.09090864,3639.03030267,4242.27272685,2645.81818155,3922.87878749,119.515151503,3885.7878784,436.848484805,4256.18181776,276.121212094,4481.81818137,288.484848456,4170.66666625,3535.99999965,4276.78787836,3115.63636332,4933.60606011,2996.12121182,4192.30302988,37.0909090872,4425.66666622,3766.78787841,4192.8181814,2715.87878761,4850.66666618,3062.06060575,4484.90909046,4071.75757535,42.0,42.0,?
2017-07-31 19:27:34.673730,4545.18181773,3639.03030267,4235.57575715,2645.81818155,3916.69696931,119.515151503,3870.84848446,436.848484805,4257.21212079,276.121212094,4475.63636319,288.484848456,4169.1212117,3535.99999965,4274.7272723,3115.63636332,4959.87878738,3016.72727243,4176.33333292,37.0909090872,4417.42424198,3766.78787841,4185.60606019,2715.87878761,4845.51515103,3062.06060575,4477.18181773,4071.75757535,42.0,42.0,?
2017-07-31 19:27:34.681496,4543.63636318,3639.03030267,4234.03030261,2645.81818155,3913.60606021,119.515151503,3873.42424204,436.848484805,4256.69696927,276.121212094,4473.06060561,288.484848456,4174.78787837,3535.99999965,4284.51515109,3115.63636332,4980.9999995,3016.72727243,4176.84848443,226.666666644,4412.78787835,3766.78787841,4187.15151473,2715.87878761,4843.45454497,3062.06060575,4472.03030258,4071.75757535,42.0,42.0,?
2017-07-31 19:27:34.690658,4547.7575753,3639.03030267,4246.39393897,2645.81818155,3919.27272688,119.515151503,3882.18181779,436.848484805,4259.27272685,276.121212094,4479.75757531,288.484848456,4182.5151511,3535.99999965,4293.27272684,3115.63636332,4969.15151465,3016.72727243,4193.33333291,226.666666644,4420.51515107,3775.03030265,4194.87878746,2715.87878761,4847.06060558,3062.06060575,4483.36363592,4071.75757535,42.0,42.0,?
2017-07-31 19:27:34.697215,4551.87878742,3639.03030267,4251.54545412,2645.81818155,3919.7878784,119.515151503,3869.81818143,436.848484805,4262.36363594,276.121212094,4480.27272682,288.484848456,4173.75757534,3535.99999965,4280.90909048,3115.63636332,4926.3939389,3016.72727243,4193.33333291,226.666666644,4422.57575713,3775.03030265,4195.90909049,2707.63636337,4845.51515103,3062.06060575,4489.03030258,4071.75757535,42.0,42.0,?
2017-07-31 19:27:34.706213,4547.7575753,3639.03030267,4237.63636321,2645.81818155,3917.21212082,119.515151503,3875.4848481,436.848484805,4262.36363594,276.121212094,4479.75757531,288.484848456,4169.63636322,3535.99999965,4275.75757533,3115.63636332,4932.06060557,3016.72727243,4188.69696928,226.666666644,4419.99999956,3775.03030265,4189.21212079,2707.63636337,4843.45454497,3049.69696939,4480.78787834,4071.75757535,42.0,42.0,?
2017-07-31 19:27:34.713638,4543.12121167,3639.03030267,4225.78787837,2645.81818155,3916.18181779,119.515151503,3898.15151476,436.848484805,4258.75757533,276.121212094,4483.36363592,288.484848456,4181.48484807,3535.99999965,4291.7272723,3115.63636332,4984.60606011,3016.72727243,4195.90909049,226.666666644,4424.63636319,3775.03030265,4187.15151473,2707.63636337,4847.57575709,3049.69696939,4477.69696925,4071.75757535,42.0,42.0,?
2017-07-31 19:27:34.720988,4541.57575712,3639.03030267,4236.09090867,2645.81818155,3915.66666628,119.515151503,3886.81818143,436.848484805,4256.69696927,276.121212094,4483.36363592,288.484848456,4181.48484807,3535.99999965,4293.78787836,3115.63636332,4978.93939344,3016.72727243,4194.87878746,226.666666644,4419.99999956,3787.39393902,4189.72727231,2707.63636337,4844.484848,3049.69696939,4479.75757531,4071.75757535,42.0,42.0,?
2017-07-31 19:27:34.728891,4541.06060561,3639.03030267,4250.51515109,2645.81818155,3915.15151476,119.515151503,3866.21212083,436.848484805,4258.75757533,276.121212094,4481.81818137,288.484848456,4170.66666625,3535.99999965,4277.81818139,3115.63636332,4936.18181769,3016.72727243,4186.63636322,226.666666644,4411.75757532,3787.39393902,4190.24242382,2707.63636337,4839.33333285,3049.69696939,4477.69696925,4071.75757535,42.0,42.0,?
2017-07-31 19:27:34.738586,4541.57575712,3639.03030267,4239.18181776,2645.81818155,3913.0909087,119.515151503,3870.33333295,436.848484805,4264.424242,276.121212094,4481.30302985,288.484848456,4170.66666625,3535.99999965,4279.87878745,3115.63636332,4951.12121163,3016.72727243,4190.24242382,226.666666644,4416.39393895,3787.39393902,4189.72727231,2707.63636337,4842.93939346,3049.69696939,4477.18181773,4071.75757535,42.0,42.0,?
2017-07-31 19:27:34.743898,4539.51515106,3639.03030267,4224.75757534,2645.81818155,3908.96969658,119.515151503,3869.30302992,436.848484805,4262.87878745,276.121212094,4477.18181773,288.484848456,4171.18181776,3535.99999965,4285.0303026,3115.63636332,4968.63636314,3016.72727243,4191.78787837,226.666666644,4417.9393935,3787.39393902,4187.15151473,2707.63636337,4842.93939346,3049.69696939,4477.18181773,4071.75757535,42.0,42.0,?
2017-07-31 19:27:34.752179,4535.39393894,3639.03030267,4230.424242,2645.81818155,3908.45454506,119.515151503,3872.39393901,436.848484805,4255.66666624,276.121212094,4472.5454541,288.484848456,4166.03030261,3535.99999965,4276.78787836,3115.63636332,4944.93939344,3016.72727243,4185.09090867,226.666666644,4412.27272683,3787.39393902,4184.57575716,2707.63636337,4835.72727224,3049.69696939,4474.09090864,4071.75757535,42.0,42.0,?
2017-07-31 19:27:34.761694,4539.51515106,3639.03030267,4231.96969655,2645.81818155,3911.03030264,119.515151503,3893.51515113,436.848484805,4261.33333291,276.121212094,4479.75757531,288.484848456,4173.75757534,3535.99999965,4283.48484806,3115.63636332,4950.0909086,3016.72727243,4191.27272685,226.666666644,4415.87878744,3787.39393902,4187.66666625,2707.63636337,4837.7878783,3049.69696939,4478.72727228,4071.75757535,42.0,42.0,?
2017-07-31 19:27:34.767020,4544.1515147,3639.03030267,4230.424242,2645.81818155,3910.51515112,119.515151503,3889.90909052,436.848484805,4264.93939351,276.121212094,4482.33333289,288.484848456,4180.96969655,3535.99999965,4291.7272723,3115.63636332,4963.48484799,3016.72727243,4200.03030261,226.666666644,4421.5454541,3787.39393902,4191.78787837,2707.63636337,4847.06060558,3049.69696939,4485.93939349,4071.75757535,42.0,42.0,?
2017-07-31 19:27:34.774964,4537.454545,3639.03030267,4232.48484806,2645.81818155,3909.99999961,119.515151503,3869.30302992,436.848484805,4259.27272685,276.121212094,4478.21212076,288.484848456,4174.78787837,3535.99999965,4278.33333291,3115.63636332,4946.48484799,3016.72727243,4190.75757534,226.666666644,4412.78787835,3787.39393902,4189.72727231,2707.63636337,4843.96969649,3049.69696939,4479.75757531,4071.75757535,42.0,42.0,?
2017-07-31 19:27:34.785549,4524.57575712,3639.03030267,4226.8181814,2645.81818155,3906.90909052,119.515151503,3876.51515113,436.848484805,4266.48484806,276.121212094,4484.90909046,288.484848456,4170.66666625,3535.99999965,4272.66666624,3115.63636332,4936.6969692,3016.72727243,4175.30302989,226.666666644,4395.27272683,3787.39393902,4184.57575716,2707.63636337,4826.45454497,3049.69696939,4463.27272683,4071.75757535,42.0,42.0,?
2017-07-31 19:27:34.791998,4519.42424197,3639.03030267,4220.1212117,2645.81818155,3894.03030264,119.515151503,3889.90909052,436.848484805,4278.84848442,276.121212094,4493.66666622,288.484848456,4177.87878746,3535.99999965,4285.54545412,3115.63636332,4942.36363587,3016.72727243,4168.09090867,226.666666644,4388.57575714,3787.39393902,4185.60606019,2707.63636337,4821.81818134,3049.69696939,4453.99999955,4071.75757535,42.0,42.0,?
2017-07-31 19:27:34.798966,4528.18181773,3639.03030267,4224.24242382,2645.81818155,3889.90909052,119.515151503,3885.7878784,436.848484805,4279.87878745,276.121212094,4495.72727228,288.484848456,4191.27272685,3535.99999965,4297.39393896,3115.63636332,4951.63636314,3016.72727243,4177.87878746,226.666666644,4398.87878744,3787.39393902,4190.75757534,2707.63636337,4835.72727224,3049.69696939,4458.63636319,4071.75757535,42.0,42.0,?
2017-07-31 19:27:34.809065,4532.81818136,3639.03030267,4226.30302988,2645.81818155,3897.12121173,119.515151503,3879.60606022,436.848484805,4267.51515109,276.121212094,4490.57575713,288.484848456,4191.27272685,3535.99999965,4298.42424199,3115.63636332,4955.24242375,3016.72727243,4194.36363594,226.666666644,4409.18181774,3787.39393902,4192.8181814,2707.63636337,4842.42424194,3049.69696939,4462.75757531,4071.75757535,42.0,42.0,?
2017-07-31 19:27:34.814779,4535.90909046,3639.03030267,4225.27272685,2645.81818155,3901.75757537,119.515151503,3875.4848481,436.848484805,4256.18181776,276.121212094,4482.33333289,288.484848456,4179.93939352,3535.99999965,4292.75757533,3115.63636332,4951.63636314,3016.72727243,4207.24242382,226.666666644,4421.03030259,3787.39393902,4194.87878746,2707.63636337,4847.57575709,3049.69696939,4468.93939349,4071.75757535,42.0,42.0,?
2017-07-31 19:27:34.822729,4548.27272682,3639.03030267,4239.69696927,2645.81818155,3913.60606021,119.515151503,3876.51515113,436.848484805,4259.78787836,276.121212094,4481.81818137,288.484848456,4184.57575716,3535.99999965,4294.81818139,3115.63636332,4961.42424193,3016.72727243,4219.09090867,226.666666644,4437.51515107,3787.39393902,4192.8181814,2707.63636337,4863.54545406,3049.69696939,4483.87878743,4071.75757535,42.0,42.0,?
2017-07-31 19:27:34.830182,4550.84848439,3639.03030267,4248.96969654,2645.81818155,3921.33333294,119.515151503,3875.99999961,436.848484805,4264.424242,276.121212094,4481.30302985,288.484848456,4190.75757534,3535.99999965,4299.96969654,3115.63636332,4977.90909041,3016.72727243,4211.87878746,226.666666644,4429.78787834,3787.39393902,4185.60606019,2707.63636337,4863.54545406,3049.69696939,4485.42424198,4071.75757535,42.0,42.0,?
2017-07-31 19:27:34.839803,4542.09090864,3639.03030267,4241.75757533,2645.81818155,3915.66666628,119.515151503,3874.96969658,436.848484805,4261.33333291,276.121212094,4477.69696925,288.484848456,4188.69696928,3535.99999965,4296.87878745,3115.63636332,4978.93939344,3016.72727243,4202.60606019,226.666666644,4412.27272683,3787.39393902,4188.69696928,2707.63636337,4844.99999952,3049.69696939,4480.27272682,4071.75757535,42.0,42.0,?
2017-07-31 19:27:34.846532,4538.48484803,3639.03030267,4235.57575715,2645.81818155,3908.45454506,119.515151503,3881.15151476,436.848484805,4259.78787836,276.121212094,4477.18181773,288.484848456,4191.78787837,3535.99999965,4289.66666624,3115.63636332,4951.63636314,3016.72727243,4215.99999958,226.666666644,4416.39393895,3787.39393902,4198.48484806,2707.63636337,4838.81818133,3049.69696939,4482.8484844,4071.75757535,42.0,42.0,?
2017-07-31 19:27:34.854411,4536.93939349,3639.03030267,4229.90909049,2645.81818155,3904.84848446,119.515151503,3878.57575719,436.848484805,4260.81818139,276.121212094,4477.69696925,288.484848456,4192.8181814,3535.99999965,4286.57575715,3115.63636332,4917.12121163,3016.72727243,4213.93939352,226.666666644,4418.45454501,3787.39393902,4191.27272685,2707.63636337,4847.06060558,3049.69696939,4479.24242379,4071.75757535,42.0,42.0,?
2017-07-31 19:27:34.860925,4531.78787833,3639.03030267,4225.27272685,2645.81818155,3903.81818143,119.515151503,3874.96969658,436.848484805,4262.87878745,276.121212094,4478.21212076,288.484848456,4188.69696928,3535.99999965,4288.63636321,3115.63636332,4923.30302981,3016.72727243,4184.57575716,226.666666644,4406.60606017,3787.39393902,4173.75757534,2707.63636337,4848.60606012,3049.69696939,4473.57575713,4071.75757535,42.0,42.0,?
2017-07-31 19:27:34.873994,4533.8484844,3639.03030267,4229.90909049,2645.81818155,3904.33333294,119.515151503,3876.51515113,436.848484805,4264.424242,276.121212094,4477.18181773,288.484848456,4187.15151473,3535.99999965,4289.66666624,3115.63636332,4958.84848435,3016.72727243,4181.99999958,226.666666644,4404.03030259,3787.39393902,4178.90909049,2707.63636337,4838.81818133,3049.69696939,4475.63636319,4071.75757535,42.0,42.0,?
2017-07-31 19:27:34.879067,4540.03030258,3639.03030267,4240.7272723,2645.81818155,3906.393939,119.515151503,3875.4848481,436.848484805,4260.30302988,276.121212094,4475.63636319,288.484848456,4185.60606019,3535.99999965,4285.54545412,3115.63636332,4955.24242375,3016.72727243,4203.63636322,226.666666644,4410.21212077,3787.39393902,4194.87878746,2707.63636337,4836.24242376,3049.69696939,4479.24242379,4071.75757535,42.0,42.0,?
2017-07-31 19:27:34.885456,4536.42424197,3639.03030267,4229.39393897,2645.81818155,3905.36363597,119.515151503,3868.27272689,436.848484805,4254.63636321,276.121212094,4472.5454541,288.484848456,4174.78787837,3535.99999965,4273.18181775,3115.63636332,4926.90909042,3016.72727243,4181.99999958,226.666666644,4407.12121168,3787.39393902,4192.8181814,2707.63636337,4839.84848436,3049.69696939,4476.66666622,4071.75757535,42.0,42.0,?
2017-07-31 19:27:34.892784,4530.24242379,3639.03030267,4213.424242,2645.81818155,3902.7878784,119.515151503,3862.0909087,436.848484805,4254.1212117,276.121212094,4467.39393895,288.484848456,4162.93939352,3535.99999965,4268.54545412,3115.63636332,4944.42424193,3016.72727243,4122.75757535,226.666666644,4402.99999956,3787.39393902,4183.54545413,2707.63636337,4838.30302982,3049.69696939,4474.60606016,4071.75757535,42.0,42.0,?
2017-07-31 19:27:34.900699,4533.8484844,3639.03030267,4223.7272723,2645.81818155,3908.45454506,119.515151503,3870.33333295,436.848484805,4253.60606018,276.121212094,4466.87878743,288.484848456,4167.06060564,3535.99999965,4285.54545412,3115.63636332,4972.24242375,3016.72727243,4086.69696929,226.666666644,4407.12121168,3787.39393902,4186.1212117,2707.63636337,4833.15151467,3049.69696939,4477.18181773,4071.75757535,42.0,42.0,?
2017-07-31 19:27:34.907901,4539.51515106,3639.03030267,4239.69696927,2645.81818155,3912.57575718,119.515151503,3886.30302991,436.848484805,4248.96969654,276.121212094,4470.48484804,288.484848456,4175.30302989,3535.99999965,4289.66666624,3115.63636332,4955.24242375,3016.72727243,4079.48484808,226.666666644,4411.75757532,3787.39393902,4196.424242,2707.63636337,4837.27272679,3049.69696939,4480.27272682,4071.75757535,42.0,42.0,?
2017-07-31 19:27:34.917403,4538.48484803,3639.03030267,4238.15151473,2645.81818155,3906.393939,119.515151503,3890.42424204,436.848484805,4253.09090867,276.121212094,4474.09090864,288.484848456,4175.30302989,3535.99999965,4276.27272685,3115.63636332,4942.36363587,3016.72727243,4068.66666626,226.666666644,4411.75757532,3787.39393902,4202.09090867,2707.63636337,4843.96969649,3049.69696939,4480.27272682,4071.75757535,42.0,42.0,?
2017-07-31 19:27:34.926102,4532.30302985,3639.03030267,4229.90909049,2645.81818155,3905.87878749,119.515151503,3877.54545416,436.848484805,4261.33333291,276.121212094,4473.57575713,288.484848456,4174.27272686,3535.99999965,4275.75757533,3115.63636332,4975.33333284,3016.72727243,4037.75757535,226.666666644,4407.12121168,3787.39393902,4192.8181814,2707.63636337,4836.24242376,3049.69696939,4477.69696925,4071.75757535,42.0,42.0,?
2017-07-31 19:27:34.932473,4535.39393894,3639.03030267,4232.99999958,2645.81818155,3919.7878784,119.515151503,3873.42424204,436.848484805,4258.24242382,276.121212094,4471.51515107,288.484848456,4180.96969655,3535.99999965,4286.06060563,3115.63636332,4994.39393889,3016.72727243,4002.21212081,226.666666644,4410.72727229,3787.39393902,4185.09090867,2707.63636337,4843.45454497,3049.69696939,4480.27272682,4071.75757535,42.0,42.0,?
2017-07-31 19:27:34.939580,4541.57575712,3639.03030267,4240.7272723,2645.81818155,3927.51515112,119.515151503,3879.0909087,436.848484805,4258.24242382,276.121212094,4473.06060561,288.484848456,4191.78787837,3535.99999965,4290.18181775,3115.63636332,4965.54545405,3016.72727243,3997.57575718,226.666666644,4416.39393895,3787.39393902,4197.45454503,2707.63636337,4855.81818133,3049.69696939,4485.42424198,4071.75757535,42.0,42.0,?
2017-07-31 19:27:34.947413,4537.96969652,3639.03030267,4237.1212117,2645.81818155,3919.7878784,119.515151503,3874.45454507,436.848484805,4265.45454503,276.121212094,4476.1515147,288.484848456,4190.75757534,3535.99999965,4286.06060563,3115.63636332,4957.30302981,3016.72727243,4006.84848445,226.666666644,4410.21212077,3787.39393902,4204.15151473,2707.63636337,4844.484848,3049.69696939,4482.33333289,4071.75757535,42.0,42.0,?
2017-07-31 19:27:34.956061,4533.8484844,3639.03030267,4232.99999958,2645.81818155,3920.30302991,119.515151503,3875.99999961,436.848484805,4263.90909048,276.121212094,4475.12121167,288.484848456,4180.45454504,3535.99999965,4278.84848442,3115.63636332,4989.75757526,3016.72727243,3990.36363596,226.666666644,4403.51515107,3787.39393902,4191.78787837,2707.63636337,4831.09090861,3049.69696939,4476.66666622,4071.75757535,42.0,42.0,?
2017-07-31 19:27:34.963526,4536.42424197,3639.03030267,4238.66666624,2645.81818155,3930.60606021,119.515151503,3890.42424204,436.848484805,4261.84848442,276.121212094,4477.18181773,288.484848456,4182.5151511,3535.99999965,4279.87878745,3115.63636332,5006.75757526,3016.72727243,3976.96969657,226.666666644,4404.03030259,3787.39393902,4189.72727231,2707.63636337,4829.54545406,3049.69696939,4482.8484844,4071.75757535,42.0,42.0,?
2017-07-31 19:27:34.975052,4536.42424197,3639.03030267,4234.03030261,2645.81818155,3923.393939,119.515151503,3881.15151476,436.848484805,4261.33333291,276.121212094,4475.63636319,288.484848456,4184.06060564,3535.99999965,4282.96969654,3115.63636332,4997.48484799,3016.72727243,3996.03030263,226.666666644,4407.12121168,3787.39393902,4197.45454503,2707.63636337,4838.30302982,3049.69696939,4481.81818137,4071.75757535,42.0,42.0,?
2017-07-31 19:27:34.980392,4534.36363591,3639.03030267,4222.69696927,2645.81818155,3914.63636324,119.515151503,3873.42424204,436.848484805,4261.33333291,276.121212094,4474.09090864,288.484848456,4181.48484807,3535.99999965,4285.54545412,3115.63636332,5013.45454495,3016.72727243,4009.42424202,226.666666644,4413.81818138,3787.39393902,4192.30302988,2707.63636337,4854.7878783,3049.69696939,4473.57575713,4071.75757535,42.0,42.0,?
2017-07-31 19:27:34.989385,4535.90909046,3639.03030267,4227.84848443,2645.81818155,3921.33333294,119.515151503,3888.87878749,436.848484805,4265.45454503,276.121212094,4479.75757531,288.484848456,4191.27272685,3535.99999965,4293.78787836,3115.63636332,5028.39393889,3016.72727243,4004.78787839,226.666666644,4418.45454501,3787.39393902,4193.33333291,2707.63636337,4854.7878783,3049.69696939,4478.21212076,4071.75757535,42.0,42.0,?
2017-07-31 19:27:34.995981,4537.454545,3639.03030267,4236.60606018,2645.81818155,3922.36363597,119.515151503,3881.15151476,436.848484805,4264.93939351,276.121212094,4476.66666622,288.484848456,4194.87878746,3535.99999965,4290.69696927,3115.63636332,5008.81818132,3016.72727243,4005.3030299,226.666666644,4410.72727229,3787.39393902,4202.09090867,2707.63636337,4838.30302982,3049.69696939,4481.81818137,4071.75757535,42.0,42.0,?
2017-07-31 19:27:35.003691,4541.06060561,3639.03030267,4241.75757533,2645.81818155,3923.90909052,119.515151503,3873.42424204,436.848484805,4261.33333291,276.121212094,4470.99999955,288.484848456,4185.09090867,3535.99999965,4280.39393897,3115.63636332,5004.6969692,3016.72727243,4002.21212081,226.666666644,4408.15151471,3787.39393902,4193.33333291,2707.63636337,4838.81818133,3049.69696939,4481.81818137,4071.75757535,42.0,42.0,?
2017-07-31 19:27:35.010859,4544.1515147,3639.03030267,4235.57575715,2645.81818155,3926.99999961,119.515151503,3887.84848446,436.848484805,4255.15151473,276.121212094,4468.93939349,288.484848456,4181.99999958,3535.99999965,4279.36363594,3115.63636332,5017.57575707,3016.72727243,3997.57575718,226.666666644,4416.39393895,3787.39393902,4188.69696928,2707.63636337,4852.21212073,3049.69696939,4487.99999955,4071.75757535,42.0,42.0,?
2017-07-31 19:27:35.018734,4537.454545,3639.03030267,4219.09090867,2645.81818155,3919.27272688,119.515151503,3873.93939355,436.848484805,4251.54545412,276.121212094,4463.78787834,288.484848456,4184.06060564,3535.99999965,4277.81818139,3115.63636332,5018.6060601,3016.72727243,4007.36363596,226.666666644,4409.69696926,3787.39393902,4193.33333291,2707.63636337,4843.96969649,3049.69696939,4485.93939349,4071.75757535,42.0,42.0,?
2017-07-31 19:27:35.024916,4533.33333288,3639.03030267,4223.21212079,2645.81818155,3917.21212082,119.515151503,3855.90909052,436.848484805,4257.7272723,276.121212094,4462.2424238,288.484848456,4185.60606019,3535.99999965,4275.75757533,3115.63636332,5012.42424192,3016.72727243,4005.3030299,226.666666644,4404.54545411,3787.39393902,4192.8181814,2707.63636337,4840.36363588,3049.69696939,4481.81818137,4071.75757535,42.0,42.0,?
2017-07-31 19:27:35.032866,4537.96969652,3639.03030267,4229.39393897,2645.81818155,3922.36363597,119.515151503,3883.21212082,436.848484805,4261.33333291,276.121212094,4466.87878743,288.484848456,4184.57575716,3535.99999965,4280.39393897,3115.63636332,5015.51515101,3016.72727243,3989.33333293,226.666666644,4417.9393935,3787.39393902,4196.424242,2707.63636337,4850.15151467,3049.69696939,4485.93939349,4071.75757535,42.0,42.0,?
2017-07-31 19:27:35.046813,4537.96969652,3639.03030267,4229.39393897,2645.81818155,3919.27272688,119.515151503,3897.63636325,436.848484805,4261.33333291,276.121212094,4468.93939349,288.484848456,4188.18181776,3535.99999965,4285.54545412,3115.63636332,5006.24242374,3016.72727243,3999.12121172,226.666666644,4418.45454501,3787.39393902,4196.424242,2707.63636337,4841.39393891,3049.69696939,4484.39393895,4071.75757535,42.0,42.0,?
2017-07-31 19:27:35.049348,4535.90909046,3639.03030267,4230.424242,2645.81818155,3914.12121173,119.515151503,3869.30302992,436.848484805,4255.66666624,276.121212094,4463.27272683,288.484848456,4197.96969655,3535.99999965,4283.48484806,3115.63636332,5015.51515101,3016.72727243,4019.21212081,226.666666644,4407.12121168,3787.39393902,4196.424242,2707.63636337,4833.66666618,3049.69696939,4477.69696925,4071.75757535,42.0,42.0,?
2017-07-31 19:27:35.057510,4535.90909046,3639.03030267,4230.424242,2645.81818155,3916.18181779,119.515151503,3867.24242386,436.848484805,4255.66666624,276.121212094,4459.66666622,288.484848456,4193.33333291,3535.99999965,4280.39393897,3115.63636332,5015.51515101,3016.72727243,4028.9999996,226.666666644,4406.60606017,3787.39393902,4196.424242,2707.63636337,4834.1818177,3049.69696939,4477.69696925,4071.75757535,42.0,42.0,?
2017-07-31 19:27:35.065273,4533.8484844,3639.03030267,4214.96969655,2645.81818155,3907.93939355,119.515151503,3879.60606022,436.848484805,4254.63636321,276.121212094,4453.48484804,288.484848456,4174.27272686,3535.99999965,4273.69696927,3115.63636332,5010.87878738,3016.72727243,4024.36363596,226.666666644,4403.51515107,3787.39393902,4187.15151473,2707.63636337,4837.7878783,3049.69696939,4477.18181773,4071.75757535,42.0,42.0,?
2017-07-31 19:27:35.077485,4533.8484844,3639.03030267,4214.96969655,2645.81818155,3907.93939355,119.515151503,3879.60606022,436.848484805,4254.63636321,276.121212094,4453.48484804,288.484848456,4174.27272686,3535.99999965,4273.69696927,3115.63636332,5010.87878738,3016.72727243,4024.36363596,226.666666644,4403.51515107,3787.39393902,4187.15151473,2707.63636337,4837.7878783,3049.69696939,4477.18181773,4071.75757535,42.0,42.0,?
2017-07-31 19:27:35.083709,4535.39393894,3639.03030267,4224.24242382,2645.81818155,3915.66666628,119.515151503,3852.81818143,436.848484805,4248.45454503,276.121212094,4450.39393895,288.484848456,4182.5151511,3535.99999965,4272.15151472,3115.63636332,5012.42424192,3016.72727243,4025.39393899,226.666666644,4412.27272683,3787.39393902,4196.93939352,2707.63636337,4849.12121164,3049.69696939,4484.90909046,4071.75757535,42.0,42.0,?
2017-07-31 19:27:35.088664,4538.99999955,3639.03030267,4230.424242,2645.81818155,3918.75757537,119.515151503,3853.33333295,436.848484805,4251.54545412,276.121212094,4447.30302986,288.484848456,4179.42424201,3535.99999965,4275.24242381,3115.63636332,5029.93939344,3016.72727243,4033.63636323,226.666666644,4417.42424198,3787.39393902,4205.69696928,2707.63636337,4845.51515103,3049.69696939,4485.42424198,4071.75757535,42.0,42.0,?
2017-07-31 19:27:35.096644,4534.87878743,3639.03030267,4218.57575715,2645.81818155,3911.54545415,119.515151503,3879.0909087,436.848484805,4252.57575715,276.121212094,4443.18181774,288.484848456,4173.24242383,3535.99999965,4273.69696927,3115.63636332,5007.78787829,3016.72727243,4036.72727232,226.666666644,4405.06060562,3787.39393902,4200.03030261,2707.63636337,4830.06060558,3049.69696939,4474.09090864,4071.75757535,42.0,42.0,?
2017-07-31 19:27:35.105778,4535.39393894,3659.63636327,4224.75757534,2645.81818155,3914.12121173,119.515151503,3889.90909052,436.848484805,4252.57575715,276.121212094,4446.78787834,288.484848456,4177.36363595,3535.99999965,4274.21212078,3115.63636332,4997.9999995,3016.72727243,4045.9999996,226.666666644,4402.48484804,3787.39393902,4189.72727231,2707.63636337,4827.99999952,3049.69696939,4480.27272682,4071.75757535,42.0,42.0,?
2017-07-31 19:27:35.111586,4538.48484803,3659.63636327,4238.15151473,2649.93939367,3919.27272688,119.515151503,3878.57575719,436.848484805,4251.54545412,276.121212094,4450.39393895,288.484848456,4177.36363595,3535.99999965,4275.24242381,3115.63636332,5016.03030253,3016.72727243,4048.57575717,226.666666644,4411.2424238,3787.39393902,4188.18181776,2707.63636337,4841.90909042,3049.69696939,4491.09090864,4071.75757535,42.0,42.0,?
2017-07-31 19:27:35.121283,4534.36363591,3659.63636327,4225.27272685,2649.93939367,3917.21212082,119.515151503,3885.27272688,436.848484805,4256.69696927,276.121212094,4452.45454501,288.484848456,4172.72727231,3535.99999965,4274.7272723,3115.63636332,5032.51515101,3016.72727243,4038.78787838,226.666666644,4408.15151471,3787.39393902,4196.424242,2707.63636337,4842.93939346,3049.69696939,4482.8484844,4117.09090868,42.0,42.0,?
2017-07-31 19:27:35.127945,4530.7575753,3659.63636327,4218.57575715,2649.93939367,3915.66666628,131.878787866,3887.33333294,436.848484805,4265.45454503,276.121212094,4455.03030258,288.484848456,4177.87878746,3535.99999965,4277.81818139,3115.63636332,5046.42424192,3016.72727243,4042.9090905,226.666666644,4404.03030259,3787.39393902,4200.03030261,2707.63636337,4835.72727224,3049.69696939,4476.1515147,4117.09090868,42.0,42.0,?
2017-07-31 19:27:35.138902,4531.78787833,3659.63636327,4235.06060564,2649.93939367,3912.57575718,131.878787866,3861.06060567,457.454545409,4258.75757533,276.121212094,4456.57575713,288.484848456,4191.27272685,3535.99999965,4283.48484806,3115.63636332,5022.21212071,3016.72727243,4047.54545414,226.666666644,4404.03030259,3787.39393902,4195.39393897,2707.63636337,4834.69696921,3049.69696939,4479.75757531,4117.09090868,42.0,42.0,?
2017-07-31 19:27:35.142909,4534.87878743,3659.63636327,4237.63636321,2649.93939367,3906.393939,131.878787866,3868.7878784,457.454545409,4256.18181776,296.727272698,4459.15151471,288.484848456,4194.36363594,3535.99999965,4289.66666624,3115.63636332,5002.12121162,3016.72727243,4048.06060566,226.666666644,4400.42424198,3787.39393902,4194.87878746,2707.63636337,4832.63636315,3049.69696939,4480.78787834,4117.09090868,42.0,42.0,?
2017-07-31 19:27:35.153577,4535.39393894,3659.63636327,4225.78787837,2649.93939367,3903.81818143,131.878787866,3898.66666628,457.454545409,4268.54545412,296.727272698,4460.69696925,292.606060577,4184.57575716,3535.99999965,4289.15151472,3115.63636332,5029.42424192,3016.72727243,4058.87878747,226.666666644,4407.12121168,3787.39393902,4193.33333291,2707.63636337,4836.24242376,3049.69696939,4481.81818137,4117.09090868,42.0,42.0,?
2017-07-31 19:27:35.160096,4533.8484844,3659.63636327,4224.24242382,2649.93939367,3908.96969658,131.878787866,3890.93939355,457.454545409,4270.60606018,296.727272698,4458.12121168,292.606060577,4181.48484807,3552.48484813,4281.424242,3115.63636332,5028.39393889,3016.72727243,4064.54545414,226.666666644,4416.39393895,3787.39393902,4186.63636322,2707.63636337,4846.54545406,3049.69696939,4489.03030258,4117.09090868,42.0,42.0,?
2017-07-31 19:27:35.166619,4534.87878743,3659.63636327,4227.33333291,2649.93939367,3914.63636324,131.878787866,3877.03030264,457.454545409,4262.87878745,296.727272698,4457.09090865,292.606060577,4185.09090867,3552.48484813,4279.87878745,3132.12121181,5010.87878738,3016.72727243,4058.36363596,226.666666644,4414.84848441,3787.39393902,4194.36363594,2707.63636337,4843.96969649,3049.69696939,4492.12121167,4117.09090868,42.0,42.0,?
2017-07-31 19:27:35.174383,4533.33333288,3659.63636327,4229.90909049,2649.93939367,3910.51515112,131.878787866,3878.06060567,457.454545409,4259.78787836,296.727272698,4455.5454541,292.606060577,4183.54545413,3552.48484813,4287.09090866,3132.12121181,5019.63636313,3020.84848455,4057.84848444,226.666666644,4413.81818138,3787.39393902,4204.15151473,2707.63636337,4835.21212073,3049.69696939,4484.90909046,4117.09090868,42.0,42.0,?
2017-07-31 19:27:35.183519,4534.87878743,3659.63636327,4237.1212117,2649.93939367,3907.93939355,131.878787866,3879.60606022,457.454545409,4260.30302988,296.727272698,4454.51515107,292.606060577,4187.15151473,3552.48484813,4292.24242381,3132.12121181,5011.90909041,3020.84848455,4068.15151474,309.09090906,4419.48484804,3787.39393902,4196.93939352,2707.63636337,4840.36363588,3049.69696939,4485.42424198,4117.09090868,42.0,42.0,?
2017-07-31 19:27:35.191023,4536.93939349,3659.63636327,4238.15151473,2649.93939367,3912.06060567,131.878787866,3888.87878749,457.454545409,4263.39393897,296.727272698,4456.57575713,292.606060577,4193.84848443,3552.48484813,4292.24242381,3132.12121181,5019.63636313,3020.84848455,4063.51515111,309.09090906,4417.42424198,3820.36363598,4193.33333291,2707.63636337,4841.90909042,3049.69696939,4491.09090864,4117.09090868,42.0,42.0,?
2017-07-31 19:27:35.197247,4531.78787833,3659.63636327,4229.39393897,2649.93939367,3910.51515112,131.878787866,3905.36363597,457.454545409,4266.48484806,296.727272698,4456.57575713,292.606060577,4192.8181814,3552.48484813,4288.12121169,3132.12121181,5054.15151465,3020.84848455,4052.69696929,309.09090906,4407.12121168,3820.36363598,4196.424242,2715.87878761,4833.15151467,3049.69696939,4486.96969652,4117.09090868,42.0,42.0,?
2017-07-31 19:27:35.204895,4529.72727227,3659.63636327,4230.424242,2649.93939367,3910.51515112,131.878787866,3903.30302991,457.454545409,4267.51515109,296.727272698,4456.06060561,292.606060577,4190.75757534,3552.48484813,4286.06060563,3132.12121181,5046.93939343,3020.84848455,4065.06060565,309.09090906,4405.57575714,3820.36363598,4194.87878746,2715.87878761,4836.24242376,3057.93939363,4481.81818137,4117.09090868,42.0,42.0,?
2017-07-31 19:27:35.213528,4533.33333288,3659.63636327,4237.1212117,2649.93939367,3913.0909087,131.878787866,3887.33333294,457.454545409,4270.09090866,296.727272698,4460.69696925,292.606060577,4187.66666625,3552.48484813,4286.57575715,3132.12121181,5021.69696919,3020.84848455,4074.33333293,309.09090906,4406.09090865,3820.36363598,4191.78787837,2715.87878761,4838.81818133,3057.93939363,4481.30302985,4117.09090868,42.0,42.0,?
2017-07-31 19:27:35.221369,4529.21212076,3659.63636327,4231.45454503,2649.93939367,3908.96969658,131.878787866,3886.30302991,457.454545409,4272.15151472,296.727272698,4466.36363592,292.606060577,4184.06060564,3552.48484813,4280.90909048,3132.12121181,5020.66666616,3020.84848455,4062.48484808,309.09090906,4399.90909047,3816.24242386,4195.39393897,2715.87878761,4827.99999952,3057.93939363,4477.69696925,4117.09090868,42.0,42.0,?
2017-07-31 19:27:35.228885,4523.54545409,3659.63636327,4222.69696927,2649.93939367,3901.75757537,131.878787866,3899.18181779,457.454545409,4268.54545412,296.727272698,4467.90909046,292.606060577,4185.09090867,3552.48484813,4273.69696927,3132.12121181,4989.24242374,3020.84848455,4056.81818141,309.09090906,4401.96969653,3816.24242386,4200.03030261,2707.63636337,4832.63636315,3057.93939363,4472.03030258,4117.09090868,42.0,42.0,?
2017-07-31 19:27:35.241125,4532.81818136,3659.63636327,4226.30302988,2649.93939367,3904.84848446,131.878787866,3911.54545415,457.454545409,4266.99999957,296.727272698,4467.39393895,292.606060577,4189.21212079,3552.48484813,4277.30302988,3132.12121181,4978.42424193,3020.84848455,4074.84848444,309.09090906,4411.2424238,3816.24242386,4200.54545413,2707.63636337,4848.09090861,3057.93939363,4477.18181773,4117.09090868,42.0,42.0,?
2017-07-31 19:27:35.245694,4543.63636318,3659.63636327,4232.48484806,2649.93939367,3910.51515112,131.878787866,3899.69696931,457.454545409,4269.57575715,296.727272698,4464.81818137,292.606060577,4187.15151473,3552.48484813,4288.12121169,3132.12121181,5037.66666616,3020.84848455,4080.51515111,309.09090906,4411.75757532,3816.24242386,4193.84848443,2707.63636337,4846.54545406,3057.93939363,4487.48484804,4117.09090868,42.0,42.0,?
2017-07-31 19:27:35.252808,4538.99999955,3659.63636327,4238.15151473,2649.93939367,3909.48484809,131.878787866,3872.39393901,457.454545409,4262.87878745,296.727272698,4458.63636319,292.606060577,4183.03030261,3552.48484813,4288.12121169,3132.12121181,5061.87878737,3020.84848455,4064.03030262,309.09090906,4406.60606017,3816.24242386,4194.87878746,2707.63636337,4840.36363588,3057.93939363,4486.45454501,4117.09090868,42.0,42.0,?
2017-07-31 19:27:35.260543,4532.81818136,3659.63636327,4237.63636321,2649.93939367,3911.54545415,131.878787866,3884.24242385,457.454545409,4258.24242382,296.727272698,4456.57575713,292.606060577,4188.18181776,3552.48484813,4286.06060563,3132.12121181,5036.63636313,3020.84848455,4067.12121171,309.09090906,4407.12121168,3816.24242386,4200.03030261,2707.63636337,4837.27272679,3057.93939363,4481.30302985,4117.09090868,42.0,42.0,?
