Timestamp,F3 Value,F3 Quality,FC5 Value,FC5 Quality,F7 Value,F7 Quality,T7 Value,T7 Quality,P7 Value,P7 Quality,O1 Value,O1 Quality,O2 Value,O2 Quality,P8 Value,P8 Quality,T8 Value,T8 Quality,F8 Value,F8 Quality,AF4 Value,AF4 Quality,FC6 Value,FC6 Quality,F4 Value,F4 Quality,AF3 Value,AF3 Quality,X Value,Y Value,Z Value
2017-08-01 19:34:38.699428,4558.57575712,0,4146.45454504,0,3907.42424203,0,3827.06060568,0,4258.75757533,0,4470.99999955,0,4174.78787837,0,4308.7272723,0,4949.57575708,0,4198.48484806,0,4443.69696925,0,4243.30302988,0,4878.484848,0,4493.66666622,0,42.0,42.0,?
2017-08-01 19:34:38.700230,4528.18181773,0,4125.33333292,0,3879.60606022,0,3863.63636325,0,4253.09090867,0,4473.06060561,0,4169.63636322,0,4330.87878745,0,4953.6969692,0,4166.03030261,0,4424.63636319,0,4196.93939352,0,4855.81818133,0,4460.69696925,0,42.0,42.0,?
2017-08-01 19:34:38.703817,4527.1515147,0,4124.81818141,0,3878.06060567,0,3852.81818143,0,4251.54545412,0,4466.87878743,0,4162.42424201,0,4320.57575714,0,4948.03030254,0,4158.30302989,0,4415.87878744,0,4196.424242,0,4851.1818177,0,4457.60606016,0,42.0,42.0,?
2017-08-01 19:34:38.706981,4530.7575753,0,4121.2121208,0,3883.72727234,0,3810.06060568,0,4257.7272723,0,4468.93939349,0,4165.5151511,0,4314.90909048,0,4939.27272678,0,4152.63636322,0,4415.36363592,0,4195.39393897,0,4852.72727224,0,4459.15151471,0,42.0,42.0,?
2017-08-01 19:34:38.710508,4530.7575753,0,4122.24242383,0,3882.69696931,0,3828.60606022,0,4262.87878745,0,4476.66666622,0,4172.72727231,0,4325.21212078,0,4949.57575708,0,4153.15151474,0,4423.09090865,0,4191.78787837,0,4857.87878739,0,4464.30302986,0,42.0,42.0,?
2017-08-01 19:34:38.718549,4525.09090864,0,4124.30302989,0,3875.99999961,0,3879.0909087,0,4259.27272685,0,4474.09090864,0,4169.1212117,0,4327.27272684,0,4956.78787829,0,4161.90909049,0,4421.5454541,0,4191.78787837,0,4855.81818133,0,4461.21212077,0,42.0,42.0,?
2017-08-01 19:34:38.723583,4526.12121167,0,4122.75757535,0,3874.45454507,0,3856.42424204,0,4253.60606018,0,4468.42424198,0,4162.93939352,0,4318.51515108,0,4941.33333284,0,4167.57575716,0,4413.30302986,0,4194.87878746,0,4852.72727224,0,4452.96969652,0,42.0,42.0,?
2017-08-01 19:34:38.727468,4530.7575753,0,4122.75757535,0,3878.06060567,0,3821.39393901,0,4254.63636321,0,4469.45454501,0,4162.93939352,0,4315.93939351,0,4933.0909086,0,4160.87878746,0,4413.30302986,0,4195.39393897,0,4855.30302982,0,4453.48484804,0,42.0,42.0,?
2017-08-01 19:34:38.729970,4529.21212076,0,4124.81818141,0,3880.63636325,0,3834.27272689,0,4256.69696927,0,4470.99999955,0,4161.90909049,0,4321.09090866,0,4945.45454496,0,4158.8181814,0,4416.90909047,0,4193.84848443,0,4854.27272679,0,4458.63636319,0,42.0,42.0,?
2017-08-01 19:34:38.732740,4526.12121167,0,4123.27272686,0,3882.69696931,0,3854.87878749,0,4255.66666624,0,4471.51515107,0,4159.84848443,0,4323.15151472,0,4953.6969692,0,4170.15151473,0,4418.96969653,0,4194.36363594,0,4852.21212073,0,4459.66666622,0,42.0,42.0,?
2017-08-01 19:34:38.737144,4526.63636318,0,4122.75757535,0,3884.24242385,0,3846.12121174,0,4259.27272685,0,4475.12121167,0,4165.5151511,0,4327.27272684,0,4954.21212072,0,4175.8181814,0,4421.03030259,0,4196.93939352,0,4853.75757527,0,4461.72727228,0,42.0,42.0,?
2017-08-01 19:34:38.740056,4531.27272682,3004.36363606,4125.84848444,0,3882.69696931,0,3833.24242386,0,4266.48484806,0,4476.1515147,0,4173.75757534,0,4334.99999957,0,4958.33333284,0,4169.63636322,0,4422.06060562,0,4196.93939352,0,4857.36363588,0,4463.78787834,0,42.0,42.0,?
2017-08-01 19:34:38.744973,4533.8484844,3004.36363606,4123.27272686,0.0,3883.72727234,0,3840.45454507,0,4265.45454503,0,4477.69696925,0,4176.84848443,0,4334.48484805,0,4961.42424193,0,4173.24242383,0,4424.63636319,0,4195.39393897,0,4858.39393891,0,4462.2424238,0,42.0,42.0,?
2017-08-01 19:34:38.747654,4530.7575753,3004.36363606,4122.24242383,0.0,3886.81818143,0,3869.81818143,0,4263.90909048,0,4480.78787834,0,4173.75757534,0,4330.87878745,0,4960.90909041,0,4186.1212117,0,4428.75757531,0,4195.39393897,0,4856.84848436,0,4462.2424238,90.6666666576,42.0,42.0,?
2017-08-01 19:34:38.752442,4528.18181773,3004.36363606,4125.33333292,0.0,3882.18181779,3494.78787844,3897.12121173,0,4263.90909048,0,4477.69696925,0,4167.57575716,0,4330.87878745,0,4966.57575708,0,4185.09090867,0,4425.66666622,0,4192.8181814,0,4854.7878783,0,4463.27272683,90.6666666576,42.0,42.0,?
2017-08-01 19:34:38.755393,4531.27272682,3004.36363606,4123.78787838,0.0,3878.06060567,3494.78787844,3863.12121173,164.848484832,4261.84848442,0,4473.57575713,0,4165.5151511,0,4331.39393896,0,4969.15151465,0,4176.33333292,0,4423.09090865,0,4192.30302988,0,4854.7878783,0,4458.63636319,90.6666666576,42.0,42.0,?
2017-08-01 19:34:38.758721,4533.33333288,3004.36363606,4121.72727232,0.0,3879.60606022,3494.78787844,3816.24242386,164.848484832,4260.81818139,4063.51515111,4476.66666622,0,4166.54545413,0,4330.36363593,0,4954.21212072,0,4175.30302989,0,4425.66666622,0,4195.39393897,0,4854.27272679,0,4456.06060561,90.6666666576,42.0,42.0,?
2017-08-01 19:34:38.764264,4530.24242379,3004.36363606,4123.27272686,0.0,3881.15151476,3494.78787844,3832.72727234,164.848484832,4261.33333291,4063.51515111,4476.66666622,3750.30302993,4162.93939352,0,4327.27272684,0,4943.90909041,0,4174.27272686,0,4424.12121168,0,4192.30302988,0,4852.72727224,0,4457.60606016,90.6666666576,42.0,42.0,?
2017-08-01 19:34:38.768084,4525.60606015,3004.36363606,4124.30302989,0.0,3881.15151476,3494.78787844,3861.57575719,164.848484832,4260.81818139,4063.51515111,4468.93939349,3750.30302993,4160.36363595,3111.5151512,4324.18181775,0,4954.72727223,0,4162.93939352,0,4414.33333289,0,4187.66666625,0,4853.24242376,0,4457.09090865,90.6666666576,42.0,42.0,?
2017-08-01 19:34:38.776886,4524.06060561,3004.36363606,4123.78787838,0.0,3876.51515113,3494.78787844,3868.27272689,164.848484832,4260.30302988,4063.51515111,4469.45454501,3750.30302993,4164.48484807,3111.5151512,4323.15151472,2604.60606035,4959.87878738,0,4151.09090868,0,4412.27272683,0,4190.75757534,0,4853.75757527,0,4453.48484804,90.6666666576,42.0,42.0,?
2017-08-01 19:34:38.783224,4527.1515147,3004.36363606,4123.27272686,0.0,3875.99999961,3494.78787844,3856.93939355,164.848484832,4260.30302988,4063.51515111,4477.69696925,3750.30302993,4175.30302989,3111.5151512,4328.81818139,2604.60606035,4951.12121163,3000.24242394,4164.99999958,0,4422.06060562,0,4194.87878746,0,4854.7878783,0,4455.03030258,90.6666666576,42.0,42.0,?
2017-08-01 19:34:38.791729,4531.78787833,3004.36363606,4125.33333292,0.0,3883.21212082,3494.78787844,3828.09090871,164.848484832,4256.69696927,4063.51515111,4478.72727228,3750.30302993,4183.54545413,3111.5151512,4332.42424199,2604.60606035,4947.51515102,3000.24242394,4192.30302988,57.6969696912,4429.78787834,0,4194.87878746,0,4857.36363588,0,4464.30302986,90.6666666576,42.0,42.0,?
2017-08-01 19:34:38.799488,4533.33333288,3004.36363606,4126.87878747,0.0,3888.36363597,3494.78787844,3828.60606022,164.848484832,4254.63636321,4063.51515111,4472.03030258,3750.30302993,4182.5151511,3111.5151512,4329.84848442,2604.60606035,4951.63636314,3000.24242394,4195.90909049,57.6969696912,4431.84848441,2048.24242404,4196.424242,0,4857.36363588,0,4468.93939349,90.6666666576,42.0,42.0,?
2017-08-01 19:34:38.810288,4530.24242379,3004.36363606,4124.30302989,0.0,3875.99999961,3494.78787844,3869.81818143,164.848484832,4258.24242382,4063.51515111,4474.60606016,3750.30302993,4170.66666625,3111.5151512,4327.27272684,2604.60606035,4961.42424193,3000.24242394,4173.75757534,57.6969696912,4425.15151471,2048.24242404,4192.8181814,1310.54545441,4853.75757527,2431.51515127,4459.15151471,90.6666666576,42.0,42.0,?
2017-08-01 19:34:38.821026,4530.7575753,3004.36363606,4123.27272686,0.0,3880.12121173,3494.78787844,3827.57575719,164.848484832,4255.66666624,4063.51515111,4473.06060561,3750.30302993,4170.15151473,3111.5151512,4320.06060563,2604.60606035,4939.78787829,3000.24242394,4179.42424201,61.818181812,4425.15151471,2048.24242404,4196.424242,1310.54545441,4854.27272679,2431.51515127,4462.75757531,90.6666666576,42.0,42.0,?
2017-08-01 19:34:38.822715,4530.7575753,3004.36363606,4123.27272686,0.0,3880.12121173,3494.78787844,3827.57575719,164.848484832,4254.1212117,4063.51515111,4473.06060561,3750.30302993,4170.15151473,3111.5151512,4320.06060563,2604.60606035,4939.78787829,3000.24242394,4179.42424201,61.818181812,4425.15151471,2048.24242404,4196.424242,1310.54545441,4854.27272679,2431.51515127,4462.75757531,90.6666666576,42.0,42.0,?
2017-08-01 19:34:38.831194,4531.78787833,3004.36363606,4124.30302989,0.0,3882.18181779,3494.78787844,3836.84848446,164.848484832,4254.1212117,4063.51515111,4470.99999955,3750.30302993,4169.63636322,3111.5151512,4323.66666623,2604.60606035,4949.57575708,3000.24242394,4176.84848443,61.818181812,4424.12121168,2056.48484828,4196.93939352,1310.54545441,4853.75757527,2431.51515127,4462.2424238,90.6666666576,42.0,42.0,?
2017-08-01 19:34:38.841882,4527.1515147,3004.36363606,4124.81818141,0.0,3874.45454507,3494.78787844,3867.75757537,164.848484832,4255.15151473,4063.51515111,4476.1515147,3750.30302993,4169.1212117,3111.5151512,4331.90909048,2604.60606035,4972.24242375,3000.24242394,4177.36363595,61.818181812,4421.5454541,2056.48484828,4194.36363594,1306.42424229,4852.72727224,2431.51515127,4457.60606016,90.6666666576,42.0,42.0,?
2017-08-01 19:34:38.849087,4530.24242379,3004.36363606,4123.27272686,0.0,3874.45454507,3494.78787844,3840.96969659,164.848484832,4255.15151473,4063.51515111,4479.24242379,3750.30302993,4172.72727231,3111.5151512,4319.0303026,2604.60606035,4940.81818132,3000.24242394,4178.39393898,61.818181812,4421.5454541,2056.48484828,4197.96969655,1306.42424229,4853.75757527,2431.51515127,4457.60606016,90.6666666576,42.0,42.0,?
2017-08-01 19:34:38.853601,4530.24242379,3004.36363606,4123.27272686,0.0,3874.45454507,3494.78787844,3840.96969659,164.848484832,4255.15151473,4063.51515111,4479.24242379,3750.30302993,4172.72727231,3111.5151512,4319.0303026,2604.60606035,4940.81818132,3000.24242394,4178.39393898,61.818181812,4421.5454541,2056.48484828,4197.96969655,1306.42424229,4853.75757527,2431.51515127,4457.60606016,90.6666666576,42.0,42.0,?
2017-08-01 19:34:38.865556,4530.7575753,3004.36363606,4125.33333292,0.0,3879.0909087,3494.78787844,3843.54545416,164.848484832,4252.57575715,4063.51515111,4474.09090864,3750.30302993,4169.1212117,3111.5151512,4325.72727229,2604.60606035,4949.06060557,3000.24242394,4177.36363595,61.818181812,4421.5454541,2056.48484828,4198.48484806,1306.42424229,4857.36363588,2431.51515127,4460.69696925,90.6666666576,42.0,42.0,?
2017-08-01 19:34:38.869966,4527.66666621,3004.36363606,4127.39393898,0.0,3882.18181779,3494.78787844,3832.72727234,164.848484832,4251.54545412,4063.51515111,4469.45454501,3750.30302993,4162.93939352,3111.5151512,4330.87878745,2604.60606035,4955.24242375,3000.24242394,4177.87878746,61.818181812,4422.06060562,2056.48484828,4196.424242,1306.42424229,4856.84848436,2431.51515127,4461.72727228,90.6666666576,42.0,42.0,?
2017-08-01 19:34:38.881467,4527.1515147,3004.36363606,4126.36363595,0.0,3883.72727234,3494.78787844,3834.7878784,164.848484832,4253.60606018,4063.51515111,4467.90909046,3750.30302993,4160.87878746,3111.5151512,4321.60606017,2604.60606035,4952.15151466,3000.24242394,4170.15151473,61.818181812,4423.09090865,2056.48484828,4194.87878746,1306.42424229,4852.72727224,2431.51515127,4459.15151471,90.6666666576,42.0,42.0,?
2017-08-01 19:34:38.885562,4528.18181773,3004.36363606,4123.27272686,0.0,3882.69696931,3494.78787844,3850.75757537,164.848484832,4250.51515109,4063.51515111,4467.90909046,3750.30302993,4161.39393898,3111.5151512,4314.90909048,2604.60606035,4941.84848435,3000.24242394,4167.57575716,61.818181812,4422.57575713,2056.48484828,4196.424242,1306.42424229,4852.72727224,2431.51515127,4455.5454541,90.6666666576,42.0,42.0,?
2017-08-01 19:34:38.894831,4530.24242379,3004.36363606,4123.78787838,0.0,3881.66666628,3494.78787844,3848.69696931,164.848484832,4245.36363594,4063.51515111,4462.2424238,3750.30302993,4162.93939352,3111.5151512,4321.09090866,2604.60606035,4937.72727223,3000.24242394,4172.72727231,61.818181812,4422.57575713,2056.48484828,4197.96969655,1306.42424229,4857.36363588,2431.51515127,4458.12121168,90.6666666576,42.0,42.0,?
2017-08-01 19:34:38.900913,4529.21212076,3004.36363606,4126.36363595,0.0,3882.18181779,3494.78787844,3830.15151477,164.848484832,4246.39393897,4063.51515111,4459.15151471,3750.30302993,4167.06060564,3111.5151512,4325.21212078,2604.60606035,4950.60606011,3000.24242394,4167.57575716,61.818181812,4423.60606016,2056.48484828,4195.90909049,1306.42424229,4857.36363588,2431.51515127,4461.72727228,90.6666666576,42.0,42.0,?
2017-08-01 19:34:38.908212,4528.18181773,3004.36363606,4125.33333292,0.0,3879.60606022,3494.78787844,3841.4848481,164.848484832,4249.48484806,4063.51515111,4461.21212077,3750.30302993,4167.57575716,3111.5151512,4323.15151472,2604.60606035,4959.87878738,3000.24242394,4161.90909049,61.818181812,4424.12121168,2056.48484828,4195.90909049,1306.42424229,4854.7878783,2431.51515127,4460.69696925,90.6666666576,42.0,42.0,?
2017-08-01 19:34:38.915895,4532.30302985,3004.36363606,4123.78787838,0.0,3878.57575719,3494.78787844,3856.93939355,164.848484832,4252.57575715,4063.51515111,4465.33333289,3750.30302993,4166.03030261,3111.5151512,4325.21212078,2604.60606035,4953.6969692,3000.24242394,4167.06060564,61.818181812,4424.12121168,2056.48484828,4196.93939352,1306.42424229,4854.7878783,2431.51515127,4460.18181774,90.6666666576,42.0,42.0,?
2017-08-01 19:34:38.923611,4531.78787833,3004.36363606,4123.27272686,0.0,3881.66666628,3494.78787844,3857.96969658,164.848484832,4254.63636321,4063.51515111,4468.93939349,3750.30302993,4164.99999958,3111.5151512,4325.72727229,2604.60606035,4946.48484799,3000.24242394,4166.03030261,61.818181812,4423.09090865,2056.48484828,4192.8181814,1306.42424229,4853.75757527,2431.51515127,4459.66666622,90.6666666576,42.0,42.0,?
2017-08-01 19:34:38.934084,4532.81818136,3004.36363606,4123.27272686,0.0,3884.24242385,3494.78787844,3841.4848481,164.848484832,4253.09090867,4063.51515111,4467.39393895,3750.30302993,4162.42424201,3111.5151512,4320.57575714,2604.60606035,4937.21212072,3000.24242394,4160.36363595,61.818181812,4422.57575713,2056.48484828,4191.27272685,1306.42424229,4855.30302982,2431.51515127,4458.63636319,90.6666666576,42.0,42.0,?
2017-08-01 19:34:38.939410,4535.90909046,3004.36363606,4124.30302989,0.0,3882.69696931,3494.78787844,3819.84848447,164.848484832,4253.09090867,4063.51515111,4462.75757531,3750.30302993,4162.42424201,3111.5151512,4319.0303026,2604.60606035,4931.03030254,3000.24242394,4161.39393898,61.818181812,4424.63636319,2056.48484828,4195.39393897,1306.42424229,4857.87878739,2431.51515127,4460.18181774,90.6666666576,42.0,42.0,?
2017-08-01 19:34:38.947216,4528.18181773,3004.36363606,4124.81818141,0.0,3872.90909052,3494.78787844,3852.30302992,164.848484832,4254.1212117,4063.51515111,4460.69696925,3750.30302993,4165.5151511,3111.5151512,4316.96969654,2604.60606035,4930.51515102,3000.24242394,4161.90909049,61.818181812,4425.15151471,2056.48484828,4195.39393897,1306.42424229,4856.33333285,2431.51515127,4459.15151471,90.6666666576,42.0,42.0,?
2017-08-01 19:34:38.957115,4524.57575712,3004.36363606,4123.78787838,0.0,3866.72727234,3494.78787844,3873.42424204,164.848484832,4250.51515109,4063.51515111,4460.69696925,3750.30302993,4162.42424201,3111.5151512,4311.81818139,2604.60606035,4931.54545405,3000.24242394,4161.90909049,61.818181812,4421.03030259,2056.48484828,4192.8181814,1306.42424229,4855.81818133,2431.51515127,4455.5454541,90.6666666576,42.0,42.0,?
2017-08-01 19:34:38.962598,4532.30302985,3004.36363606,4124.30302989,0.0,3873.42424204,3494.78787844,3828.60606022,164.848484832,4245.36363594,4063.51515111,4460.18181774,3750.30302993,4162.93939352,3111.5151512,4314.90909048,2604.60606035,4942.87878738,3000.24242394,4166.03030261,61.818181812,4421.03030259,2056.48484828,4196.424242,1306.42424229,4857.87878739,2431.51515127,4456.57575713,90.6666666576,42.0,42.0,?
2017-08-01 19:34:38.970972,4532.81818136,3004.36363606,4125.84848444,0.0,3880.63636325,3494.78787844,3814.69696932,164.848484832,4246.90909048,4063.51515111,4463.27272683,3750.30302993,4167.06060564,3111.5151512,4320.57575714,2604.60606035,4948.03030254,3000.24242394,4165.5151511,61.818181812,4422.06060562,2056.48484828,4199.5151511,1306.42424229,4857.87878739,2431.51515127,4460.69696925,90.6666666576,42.0,42.0,?
2017-08-01 19:34:38.978774,4524.57575712,3004.36363606,4126.36363595,0.0,3877.03030264,3494.78787844,3860.54545416,164.848484832,4247.93939351,4063.51515111,4461.21212077,3750.30302993,4158.30302989,3111.5151512,4316.96969654,2604.60606035,4942.87878738,3000.24242394,4161.39393898,61.818181812,4419.48484804,2056.48484828,4193.84848443,1306.42424229,4853.75757527,2431.51515127,4459.15151471,90.6666666576,42.0,42.0,?
2017-08-01 19:34:38.986123,4526.12121167,3004.36363606,4125.33333292,0.0,3877.03030264,3494.78787844,3858.99999961,164.848484832,4248.45454503,4063.51515111,4453.48484804,3750.30302993,4147.48484807,3111.5151512,4315.93939351,2604.60606035,4946.99999951,3000.24242394,4166.54545413,61.818181812,4422.06060562,2056.48484828,4191.27272685,1306.42424229,4852.72727224,2431.51515127,4458.12121168,90.6666666576,42.0,42.0,?
2017-08-01 19:34:38.995764,4536.42424197,3004.36363606,4123.27272686,0.0,3883.72727234,3494.78787844,3808.51515113,164.848484832,4251.54545412,4063.51515111,4455.5454541,3750.30302993,4155.2121208,3111.5151512,4323.15151472,2604.60606035,4949.57575708,3000.24242394,4177.36363595,61.818181812,4431.33333289,2056.48484828,4196.93939352,1306.42424229,4859.42424194,2431.51515127,4465.33333289,90.6666666576,42.0,42.0,?
2017-08-01 19:34:39.001852,4538.99999955,3004.36363606,4122.24242383,0.0,3882.69696931,3494.78787844,3816.75757538,164.848484832,4254.63636321,4063.51515111,4462.75757531,3750.30302993,4164.48484807,3111.5151512,4325.72727229,2604.60606035,4944.42424193,3000.24242394,4172.72727231,61.818181812,4429.78787834,2056.48484828,4195.90909049,1306.42424229,4860.45454497,2431.51515127,4466.87878743,90.6666666576,42.0,42.0,?
2017-08-01 19:34:39.010666,4533.8484844,3004.36363606,4124.30302989,0.0,3876.51515113,3494.78787844,3857.96969658,164.848484832,4255.66666624,4063.51515111,4466.36363592,3750.30302993,4163.96969655,3111.5151512,4321.09090866,2604.60606035,4942.87878738,3000.24242394,4159.33333292,61.818181812,4422.06060562,2056.48484828,4191.27272685,1306.42424229,4852.72727224,2431.51515127,4461.21212077,90.6666666576,42.0,42.0,?
2017-08-01 19:34:39.018169,4531.27272682,3004.36363606,4126.36363595,0.0,3870.33333295,3494.78787844,3863.63636325,164.848484832,4257.7272723,4063.51515111,4470.99999955,3750.30302993,4167.06060564,3111.5151512,4317.48484805,2604.60606035,4939.78787829,3000.24242394,4162.42424201,61.818181812,4423.09090865,2056.48484828,4195.39393897,1306.42424229,4850.66666618,2431.51515127,4459.66666622,90.6666666576,42.0,42.0,?
2017-08-01 19:34:39.028480,4532.30302985,3004.36363606,4125.33333292,0.0,3868.27272689,3494.78787844,3846.12121174,164.848484832,4259.27272685,4063.51515111,4475.12121167,3750.30302993,4171.69696928,3111.5151512,4316.96969654,2604.60606035,4938.24242375,3000.24242394,4170.15151473,61.818181812,4422.57575713,2056.48484828,4197.96969655,1306.42424229,4855.81818133,2431.51515127,4460.69696925,90.6666666576,42.0,42.0,?
2017-08-01 19:34:39.033585,4533.33333288,3004.36363606,4124.30302989,0.0,3871.87878749,3494.78787844,3836.84848446,164.848484832,4257.7272723,4063.51515111,4472.03030258,3750.30302993,4171.18181776,3111.5151512,4317.48484805,2604.60606035,4950.60606011,3000.24242394,4168.60606019,61.818181812,4422.57575713,2056.48484828,4193.84848443,1306.42424229,4855.30302982,2431.51515127,4461.21212077,90.6666666576,42.0,42.0,?
2017-08-01 19:34:39.041142,4534.87878743,3004.36363606,4123.78787838,0.0,3872.90909052,3494.78787844,3836.84848446,164.848484832,4256.69696927,4063.51515111,4467.39393895,3750.30302993,4166.54545413,3111.5151512,4320.57575714,2604.60606035,4954.72727223,3000.24242394,4173.75757534,61.818181812,4430.30302986,2056.48484828,4194.87878746,1306.42424229,4854.27272679,2431.51515127,4463.27272683,90.6666666576,42.0,42.0,?
2017-08-01 19:34:39.048674,4533.33333288,3004.36363606,4122.75757535,0.0,3871.36363598,3494.78787844,3849.72727234,164.848484832,4253.60606018,4063.51515111,4463.78787834,3750.30302993,4159.84848443,3111.5151512,4324.18181775,2604.60606035,4946.48484799,3000.24242394,4180.45454504,61.818181812,4429.78787834,2056.48484828,4196.93939352,1306.42424229,4855.81818133,2431.51515127,4463.27272683,90.6666666576,42.0,42.0,?
2017-08-01 19:34:39.057014,4532.81818136,3004.36363606,4123.27272686,0.0,3869.30302992,3494.78787844,3862.0909087,164.848484832,4249.99999958,4063.51515111,4460.69696925,3750.30302993,4151.09090868,3111.5151512,4321.60606017,2604.60606035,4945.45454496,3000.24242394,4174.27272686,61.818181812,4423.60606016,2056.48484828,4192.30302988,1306.42424229,4854.27272679,2431.51515127,4461.72727228,90.6666666576,42.0,42.0,?
2017-08-01 19:34:39.065940,4531.27272682,3004.36363606,4121.72727232,0.0,3870.33333295,3494.78787844,3847.66666628,164.848484832,4256.18181776,4063.51515111,4466.87878743,3750.30302993,4155.2121208,3111.5151512,4323.66666623,2604.60606035,4957.81818132,3000.24242394,4171.69696928,61.818181812,4426.18181774,2056.48484828,4190.24242382,1306.42424229,4853.24242376,2431.51515127,4462.75757531,90.6666666576,42.0,42.0,?
2017-08-01 19:34:39.072595,4527.1515147,3004.36363606,4118.12121171,0.0,3871.87878749,3494.78787844,3829.63636325,164.848484832,4265.45454503,4063.51515111,4479.75757531,3750.30302993,4171.18181776,3111.5151512,4334.99999957,2604.60606035,4967.09090859,3000.24242394,4180.45454504,61.818181812,4429.78787834,2056.48484828,4195.39393897,1306.42424229,4851.69696921,2431.51515127,4463.27272683,90.6666666576,42.0,42.0,?
2017-08-01 19:34:39.080075,4541.06060561,3004.36363606,4128.42424201,0.0,3868.7878784,3494.78787844,3844.57575719,164.848484832,4261.33333291,4063.51515111,4480.78787834,3750.30302993,4174.27272686,3111.5151512,4330.36363593,2604.60606035,4950.60606011,3000.24242394,4178.90909049,61.818181812,4427.72727228,2056.48484828,4197.45454503,1306.42424229,4859.42424194,2431.51515127,4468.93939349,90.6666666576,42.0,42.0,?
2017-08-01 19:34:39.089743,4539.51515106,3004.36363606,4128.42424201,0.0,3866.21212083,3494.78787844,3872.90909052,164.848484832,4251.03030261,4063.51515111,4473.06060561,3750.30302993,4164.48484807,3111.5151512,4310.27272684,2604.60606035,4931.54545405,3000.24242394,4172.21212079,61.818181812,4423.60606016,2056.48484828,4193.84848443,1306.42424229,4859.42424194,2431.51515127,4466.36363592,90.6666666576,42.0,42.0,?
2017-08-01 19:34:39.095942,4514.27272682,3004.36363606,4115.03030262,0.0,3869.30302992,3494.78787844,3866.21212083,164.848484832,4253.09090867,4063.51515111,4471.51515107,3750.30302993,4157.78787837,3111.5151512,4301.51515109,2604.60606035,4942.87878738,3000.24242394,4176.33333292,61.818181812,4421.5454541,2056.48484828,4191.27272685,1306.42424229,4844.99999952,2431.51515127,4453.48484804,90.6666666576,42.0,42.0,?
2017-08-01 19:34:39.104520,4523.54545409,3004.36363606,4121.2121208,0.0,3871.87878749,3494.78787844,3836.84848446,164.848484832,4257.7272723,4063.51515111,4468.42424198,3750.30302993,4151.60606019,3111.5151512,4298.93939351,2604.60606035,4941.84848435,3000.24242394,4174.78787837,61.818181812,4424.12121168,2056.48484828,4191.78787837,1306.42424229,4850.66666618,2431.51515127,4458.63636319,90.6666666576,42.0,42.0,?
2017-08-01 19:34:39.113898,4533.8484844,3004.36363606,4122.75757535,0.0,3872.39393901,3494.78787844,3839.93939356,164.848484832,4255.15151473,4063.51515111,4463.78787834,3750.30302993,4147.48484807,3111.5151512,4302.54545412,2604.60606035,4924.33333284,3000.24242394,4171.69696928,61.818181812,4425.15151471,2056.48484828,4192.30302988,1306.42424229,4859.42424194,2431.51515127,4464.30302986,90.6666666576,42.0,42.0,?
2017-08-01 19:34:39.119087,4528.18181773,3004.36363606,4119.66666625,0.0,3871.87878749,3494.78787844,3855.39393901,164.848484832,4253.60606018,4063.51515111,4466.87878743,3750.30302993,4153.66666625,3111.5151512,4319.54545411,2604.60606035,4945.45454496,3000.24242394,4175.8181814,61.818181812,4426.18181774,2056.48484828,4190.24242382,1306.42424229,4855.30302982,2431.51515127,4463.78787834,90.6666666576,42.0,42.0,?
2017-08-01 19:34:39.127234,4531.27272682,3004.36363606,4124.30302989,0.0,3871.87878749,3494.78787844,3848.69696931,164.848484832,4255.15151473,4063.51515111,4471.51515107,3750.30302993,4157.27272686,3111.5151512,4328.30302987,2604.60606035,4969.15151465,3000.24242394,4174.78787837,61.818181812,4425.66666622,2056.48484828,4188.69696928,1306.42424229,4853.75757527,2431.51515127,4465.33333289,90.6666666576,42.0,42.0,?
2017-08-01 19:34:39.134096,4527.66666621,3004.36363606,4121.2121208,0.0,3874.96969658,3494.78787844,3835.81818143,164.848484832,4256.69696927,4063.51515111,4468.42424198,3750.30302993,4160.36363595,3111.5151512,4322.12121169,2604.60606035,4951.63636314,3000.24242394,4172.21212079,61.818181812,4422.06060562,2056.48484828,4189.72727231,1306.42424229,4852.21212073,2431.51515127,4462.75757531,90.6666666576,42.0,42.0,?
2017-08-01 19:34:39.142692,4529.72727227,3004.36363606,4121.72727232,0.0,3879.60606022,3494.78787844,3835.81818143,164.848484832,4256.18181776,4063.51515111,4466.36363592,3750.30302993,4165.5151511,3111.5151512,4322.12121169,2604.60606035,4942.87878738,3000.24242394,4176.33333292,61.818181812,4425.15151471,2056.48484828,4192.8181814,1306.42424229,4854.7878783,2431.51515127,4464.30302986,90.6666666576,42.0,42.0,?
2017-08-01 19:34:39.151164,4535.90909046,3004.36363606,4125.33333292,0.0,3877.03030264,3494.78787844,3860.03030264,164.848484832,4258.75757533,4063.51515111,4470.99999955,3750.30302993,4168.60606019,3111.5151512,4325.21212078,2604.60606035,4961.93939344,3000.24242394,4182.5151511,61.818181812,4431.84848441,2056.48484828,4194.87878746,1306.42424229,4855.81818133,2431.51515127,4466.36363592,90.6666666576,42.0,42.0,?
2017-08-01 19:34:39.160191,4529.72727227,3004.36363606,4122.75757535,0.0,3871.36363598,3494.78787844,3879.0909087,164.848484832,4265.96969654,4063.51515111,4476.66666622,3750.30302993,4174.78787837,3111.5151512,4321.09090866,2604.60606035,4966.06060556,3000.24242394,4180.96969655,61.818181812,4433.90909047,2056.48484828,4193.84848443,1306.42424229,4852.72727224,2431.51515127,4461.72727228,90.6666666576,42.0,42.0,?
2017-08-01 19:34:39.167023,4529.72727227,3004.36363606,4124.81818141,0.0,3869.81818143,3494.78787844,3860.03030264,164.848484832,4266.48484806,4063.51515111,4479.24242379,3750.30302993,4178.90909049,3111.5151512,4317.48484805,2604.60606035,4944.93939344,3000.24242394,4173.75757534,61.818181812,4429.78787834,2056.48484828,4191.78787837,1306.42424229,4853.24242376,2431.51515127,4461.21212077,90.6666666576,42.0,42.0,?
2017-08-01 19:34:39.174928,4533.8484844,3004.36363606,4127.39393898,0.0,3868.7878784,3494.78787844,3838.90909053,164.848484832,4262.36363594,4063.51515111,4476.66666622,3750.30302993,4169.1212117,3111.5151512,4316.96969654,2604.60606035,4934.12121163,3000.24242394,4166.03030261,61.818181812,4423.60606016,2056.48484828,4189.72727231,1306.42424229,4855.30302982,2431.51515127,4464.30302986,90.6666666576,42.0,42.0,?
2017-08-01 19:34:39.181123,4518.90909046,3004.36363606,4116.06060565,0.0,3868.27272689,3494.78787844,3851.27272689,164.848484832,4264.424242,4063.51515111,4473.06060561,3750.30302993,4156.75757534,3111.5151512,4320.06060563,2604.60606035,4948.54545405,3000.24242394,4171.18181776,61.818181812,4420.51515107,2056.48484828,4188.69696928,1306.42424229,4846.03030255,2431.51515127,4458.63636319,90.6666666576,42.0,42.0,?
2017-08-01 19:34:39.191244,4533.33333288,3004.36363606,4125.33333292,0.0,3866.72727234,3494.78787844,3852.81818143,164.848484832,4265.45454503,4063.51515111,4469.45454501,3750.30302993,4153.15151474,3111.5151512,4321.09090866,2604.60606035,4955.24242375,3000.24242394,4180.96969655,61.818181812,4426.18181774,2056.48484828,4191.78787837,1306.42424229,4855.30302982,2431.51515127,4463.27272683,90.6666666576,42.0,42.0,?
2017-08-01 19:34:39.197282,4554.96969651,3004.36363606,4136.66666625,0.0,3864.66666628,3494.78787844,3850.24242386,164.848484832,4259.27272685,4063.51515111,4470.48484804,3750.30302993,4154.18181777,3111.5151512,4318.51515108,2604.60606035,4943.3939389,3000.24242394,4174.27272686,61.818181812,4427.72727228,2056.48484828,4193.84848443,1306.42424229,4870.24242376,2431.51515127,4470.48484804,90.6666666576,42.0,42.0,?
2017-08-01 19:34:39.210046,4528.18181773,3004.36363606,4118.12121171,0.0,3871.87878749,3494.78787844,3856.42424204,164.848484832,4259.78787836,4063.51515111,4474.60606016,3750.30302993,4159.84848443,3111.5151512,4323.66666623,2604.60606035,4945.96969648,3000.24242394,4171.18181776,61.818181812,4423.60606016,2056.48484828,4190.24242382,1306.42424229,4853.75757527,2431.51515127,4462.75757531,90.6666666576,42.0,42.0,?
2017-08-01 19:34:39.213578,4527.1515147,3004.36363606,4118.63636322,0.0,3879.60606022,3494.78787844,3826.03030265,164.848484832,4261.84848442,4063.51515111,4474.09090864,3750.30302993,4167.57575716,3111.5151512,4326.75757532,2604.60606035,4955.24242375,3000.24242394,4182.5151511,61.818181812,4430.30302986,2056.48484828,4191.78787837,1306.42424229,4851.69696921,2431.51515127,4466.87878743,90.6666666576,42.0,42.0,?
2017-08-01 19:34:39.220555,4544.1515147,2987.87878758,4127.39393898,0.0,3875.4848481,3494.78787844,3824.99999962,164.848484832,4264.93939351,4063.51515111,4478.21212076,3750.30302993,4178.90909049,3111.5151512,4325.72727229,2604.60606035,4967.60606011,3000.24242394,4191.27272685,61.818181812,4437.51515107,2056.48484828,4196.93939352,1306.42424229,4862.51515103,2431.51515127,4473.06060561,90.6666666576,42.0,42.0,?
2017-08-01 19:34:39.228327,4529.72727227,2987.87878758,4120.69696928,4.1212121208,3864.66666628,3494.78787844,3875.99999961,164.848484832,4269.57575715,4063.51515111,4484.39393895,3750.30302993,4185.60606019,3111.5151512,4329.84848442,2604.60606035,4981.51515102,3000.24242394,4190.75757534,61.818181812,4428.75757531,2056.48484828,4195.90909049,1306.42424229,4854.7878783,2431.51515127,4464.30302986,90.6666666576,42.0,42.0,?
2017-08-01 19:34:39.238213,4521.48484803,2987.87878758,4120.18181777,4.1212121208,3860.54545416,3494.78787844,3871.87878749,164.848484832,4263.90909048,4063.51515111,4474.09090864,3750.30302993,4176.33333292,3111.5151512,4324.18181775,2604.60606035,4963.9999995,3000.24242394,4174.78787837,61.818181812,4417.9393935,2056.48484828,4190.75757534,1306.42424229,4852.21212073,2431.51515127,4456.06060561,70.0606060536,42.0,42.0,?
2017-08-01 19:34:39.244988,4526.12121167,2987.87878758,4123.78787838,4.1212121208,3868.27272689,3498.90909056,3832.21212083,164.848484832,4257.7272723,4063.51515111,4465.8484844,3750.30302993,4169.1212117,3111.5151512,4314.39393896,2604.60606035,4940.81818132,3000.24242394,4161.39393898,61.818181812,4416.90909047,2056.48484828,4186.1212117,1306.42424229,4853.24242376,2431.51515127,4457.09090865,70.0606060536,42.0,42.0,?
2017-08-01 19:34:39.253797,4530.24242379,2987.87878758,4126.36363595,4.1212121208,3871.36363598,3498.90909056,3841.4848481,173.090909074,4258.75757533,4063.51515111,4468.42424198,3750.30302993,4165.5151511,3111.5151512,4313.36363593,2604.60606035,4949.06060557,3000.24242394,4169.63636322,61.818181812,4417.9393935,2056.48484828,4185.09090867,1306.42424229,4853.24242376,2431.51515127,4460.69696925,70.0606060536,42.0,42.0,?
2017-08-01 19:34:39.263335,4527.1515147,2987.87878758,4124.30302989,4.1212121208,3860.54545416,3498.90909056,3851.7878784,173.090909074,4254.1212117,4067.63636323,4460.69696925,3750.30302993,4149.03030262,3111.5151512,4306.15151472,2604.60606035,4949.06060557,3000.24242394,4180.45454504,61.818181812,4413.81818138,2056.48484828,4188.18181776,1306.42424229,4851.69696921,2431.51515127,4455.5454541,70.0606060536,42.0,42.0,?
2017-08-01 19:34:39.267733,4525.60606015,2987.87878758,4121.72727232,4.1212121208,3858.99999961,3498.90909056,3835.30302992,173.090909074,4251.54545412,4067.63636323,4456.57575713,3754.42424205,4141.30302989,3111.5151512,4301.51515109,2604.60606035,4941.84848435,3000.24242394,4181.99999958,61.818181812,4418.96969653,2056.48484828,4190.75757534,1306.42424229,4853.24242376,2431.51515127,4456.57575713,70.0606060536,42.0,42.0,?
2017-08-01 19:34:39.275041,4529.72727227,2987.87878758,4122.75757535,4.1212121208,3866.72727234,3498.90909056,3839.42424204,173.090909074,4260.81818139,4067.63636323,4470.99999955,3754.42424205,4156.24242383,3111.5151512,4318.51515108,2604.60606035,4953.6969692,3000.24242394,4183.54545413,61.818181812,4427.72727228,2056.48484828,4192.30302988,1306.42424229,4858.39393891,2431.51515127,4467.39393895,70.0606060536,42.0,42.0,?
2017-08-01 19:34:39.283114,4530.24242379,2987.87878758,4123.27272686,4.1212121208,3860.03030264,3498.90909056,3863.12121173,173.090909074,4265.45454503,4067.63636323,4479.75757531,3754.42424205,4166.03030261,3111.5151512,4330.36363593,2604.60606035,4955.75757526,3000.24242394,4182.5151511,61.818181812,4422.06060562,2056.48484828,4192.8181814,1306.42424229,4854.7878783,2431.51515127,4464.81818137,70.0606060536,42.0,42.0,?
2017-08-01 19:34:39.292169,4530.7575753,2987.87878758,4125.33333292,4.1212121208,3853.84848446,3498.90909056,3873.93939355,173.090909074,4263.39393897,4067.63636323,4478.21212076,3754.42424205,4169.1212117,3111.5151512,4329.84848442,2604.60606035,4958.33333284,3004.36363606,4186.63636322,61.818181812,4420.51515107,2056.48484828,4193.33333291,1306.42424229,4853.24242376,2431.51515127,4458.63636319,70.0606060536,42.0,42.0,?
2017-08-01 19:34:39.299617,4534.87878743,2987.87878758,4125.33333292,4.1212121208,3866.21212083,3498.90909056,3860.54545416,173.090909074,4266.99999957,4067.63636323,4484.39393895,3754.42424205,4183.03030261,3111.5151512,4342.21212078,2604.60606035,4984.60606011,3004.36363606,4202.09090867,37.0909090872,4430.81818138,2056.48484828,4192.30302988,1306.42424229,4856.84848436,2431.51515127,4465.8484844,70.0606060536,42.0,42.0,?
2017-08-01 19:34:39.306157,4532.81818136,2987.87878758,4123.27272686,4.1212121208,3861.57575719,3498.90909056,3853.33333295,173.090909074,4266.99999957,4067.63636323,4484.90909046,3754.42424205,4195.90909049,3111.5151512,4353.03030259,2604.60606035,4999.03030253,3004.36363606,4204.15151473,37.0909090872,4429.78787834,2035.87878768,4188.69696928,1306.42424229,4855.81818133,2431.51515127,4465.33333289,70.0606060536,42.0,42.0,?
2017-08-01 19:34:39.315727,4529.72727227,2987.87878758,4123.78787838,4.1212121208,3842.51515113,3498.90909056,3852.30302992,173.090909074,4258.24242382,4067.63636323,4473.57575713,3754.42424205,4189.21212079,3111.5151512,4341.69696926,2604.60606035,4984.09090859,3004.36363606,4192.8181814,37.0909090872,4420.51515107,2035.87878768,4187.66666625,1302.30303017,4855.30302982,2431.51515127,4453.48484804,70.0606060536,42.0,42.0,?
2017-08-01 19:34:39.323855,4531.27272682,2987.87878758,4124.30302989,4.1212121208,3845.60606022,3498.90909056,3837.36363598,173.090909074,4254.63636321,4067.63636323,4466.36363592,3754.42424205,4178.39393898,3111.5151512,4331.90909048,2604.60606035,4969.15151465,3004.36363606,4185.09090867,37.0909090872,4422.57575713,2035.87878768,4187.66666625,1302.30303017,4856.84848436,2415.03030279,4453.99999955,70.0606060536,42.0,42.0,?
2017-08-01 19:34:39.330404,4532.30302985,2987.87878758,4124.30302989,4.1212121208,3857.45454507,3498.90909056,3831.69696931,173.090909074,4256.18181776,4067.63636323,4461.72727228,3754.42424205,4171.69696928,3111.5151512,4331.39393896,2604.60606035,4958.33333284,3004.36363606,4179.42424201,37.0909090872,4426.69696925,2035.87878768,4188.69696928,1302.30303017,4857.87878739,2415.03030279,4461.72727228,70.0606060536,42.0,42.0,?
2017-08-01 19:34:39.338158,4530.7575753,2987.87878758,4124.30302989,4.1212121208,3862.60606022,3498.90909056,3837.36363598,173.090909074,4256.69696927,4067.63636323,4457.60606016,3754.42424205,4168.09090867,3111.5151512,4329.3333329,2604.60606035,4949.57575708,3004.36363606,4196.93939352,37.0909090872,4424.63636319,2031.75757555,4193.84848443,1302.30303017,4857.36363588,2415.03030279,4462.2424238,70.0606060536,42.0,42.0,?
2017-08-01 19:34:39.348001,4532.30302985,2987.87878758,4124.30302989,4.1212121208,3868.27272689,3498.90909056,3848.69696931,173.090909074,4258.24242382,4067.63636323,4458.63636319,3754.42424205,4170.15151473,3111.5151512,4330.36363593,2604.60606035,4959.87878738,3004.36363606,4206.72727231,37.0909090872,4427.72727228,2031.75757555,4195.39393897,1302.30303017,4857.36363588,2415.03030279,4462.2424238,70.0606060536,42.0,42.0,?
2017-08-01 19:34:39.353114,4535.90909046,2987.87878758,4124.81818141,4.1212121208,3871.87878749,3498.90909056,3857.45454507,173.090909074,4257.7272723,4067.63636323,4460.69696925,3754.42424205,4171.69696928,3111.5151512,4330.87878745,2604.60606035,4977.3939389,3004.36363606,4186.63636322,37.0909090872,4434.9393935,2031.75757555,4193.33333291,1302.30303017,4857.87878739,2415.03030279,4467.39393895,70.0606060536,42.0,42.0,?
2017-08-01 19:34:39.362591,4531.78787833,2987.87878758,4124.81818141,4.1212121208,3867.75757537,3498.90909056,3869.30302992,173.090909074,4255.15151473,4067.63636323,4461.72727228,3754.42424205,4168.09090867,3111.5151512,4326.75757532,2604.60606035,4983.06060556,3004.36363606,4187.66666625,37.0909090872,4431.84848441,2031.75757555,4192.30302988,1302.30303017,4857.36363588,2415.03030279,4466.36363592,70.0606060536,42.0,42.0,?
2017-08-01 19:34:39.370040,4529.21212076,2987.87878758,4125.84848444,4.1212121208,3862.60606022,3498.90909056,3870.84848446,173.090909074,4254.63636321,4067.63636323,4464.81818137,3754.42424205,4167.06060564,3111.5151512,4322.6363632,2604.60606035,4975.84848435,3004.36363606,4200.54545413,37.0909090872,4423.60606016,2031.75757555,4189.72727231,1302.30303017,4855.30302982,2415.03030279,4459.66666622,70.0606060536,42.0,42.0,?
2017-08-01 19:34:39.379398,4529.72727227,2987.87878758,4126.36363595,4.1212121208,3856.42424204,3498.90909056,3846.12121174,173.090909074,4256.18181776,4067.63636323,4465.8484844,3754.42424205,4164.48484807,3111.5151512,4316.45454502,2604.60606035,4964.51515102,3004.36363606,4189.21212079,37.0909090872,4420.51515107,2031.75757555,4186.1212117,1302.30303017,4851.1818177,2415.03030279,4456.57575713,70.0606060536,42.0,42.0,?
2017-08-01 19:34:39.386067,4525.09090864,2987.87878758,4123.27272686,4.1212121208,3853.84848446,3498.90909056,3827.06060568,173.090909074,4258.75757533,4067.63636323,4466.87878743,3754.42424205,4159.84848443,3111.5151512,4313.87878745,2604.60606035,4962.45454496,3004.36363606,4190.75757534,37.0909090872,4422.06060562,2031.75757555,4189.21212079,1302.30303017,4850.15151467,2415.03030279,4457.09090865,70.0606060536,42.0,42.0,?
2017-08-01 19:34:39.394890,4526.12121167,2987.87878758,4121.72727232,4.1212121208,3859.51515113,3498.90909056,3847.15151477,173.090909074,4262.87878745,4067.63636323,4477.18181773,3754.42424205,4164.99999958,3111.5151512,4324.18181775,2604.60606035,4958.33333284,3004.36363606,4205.69696928,37.0909090872,4427.21212077,2031.75757555,4193.84848443,1302.30303017,4856.84848436,2415.03030279,4463.27272683,70.0606060536,42.0,42.0,?
2017-08-01 19:34:39.400253,4533.8484844,2987.87878758,4124.30302989,4.1212121208,3862.60606022,3498.90909056,3867.24242386,173.090909074,4264.93939351,4067.63636323,4482.33333289,3754.42424205,4174.27272686,3111.5151512,4331.39393896,2604.60606035,4945.45454496,3004.36363606,4207.24242382,37.0909090872,4433.39393895,2031.75757555,4195.39393897,1302.30303017,4861.484848,2415.03030279,4466.36363592,70.0606060536,42.0,42.0,?
2017-08-01 19:34:39.408118,4534.87878743,2987.87878758,4125.33333292,4.1212121208,3864.66666628,3498.90909056,3854.36363598,173.090909074,4268.54545412,4067.63636323,4477.69696925,3754.42424205,4176.33333292,3111.5151512,4330.87878745,2604.60606035,4960.3939389,3004.36363606,4223.7272723,37.0909090872,4437.51515107,2031.75757555,4195.90909049,1302.30303017,4859.42424194,2415.03030279,4465.33333289,70.0606060536,42.0,42.0,?
2017-08-01 19:34:39.418929,4532.81818136,2987.87878758,4123.78787838,4.1212121208,3868.7878784,3498.90909056,3861.57575719,173.090909074,4277.81818139,4067.63636323,4477.18181773,3754.42424205,4178.39393898,3111.5151512,4334.48484805,2604.60606035,4994.90909041,3004.36363606,4242.27272685,37.0909090872,4437.51515107,2031.75757555,4194.36363594,1302.30303017,4855.81818133,2415.03030279,4466.36363592,70.0606060536,42.0,42.0,?
2017-08-01 19:34:39.424773,4533.8484844,2987.87878758,4124.81818141,4.1212121208,3868.7878784,3498.90909056,3858.99999961,173.090909074,4275.24242381,4067.63636323,4478.72727228,3754.42424205,4185.09090867,3111.5151512,4335.51515108,2604.60606035,4992.33333283,3004.36363606,4234.54545412,37.0909090872,4436.48484804,2031.75757555,4193.33333291,1302.30303017,4854.27272679,2415.03030279,4467.90909046,70.0606060536,42.0,42.0,?
2017-08-01 19:34:39.432679,4535.39393894,2987.87878758,4125.33333292,4.1212121208,3867.75757537,3498.90909056,3826.03030265,173.090909074,4264.93939351,4067.63636323,4475.63636319,3754.42424205,4187.15151473,3111.5151512,4332.42424199,2604.60606035,4970.18181768,3004.36363606,4235.06060564,37.0909090872,4435.96969653,2031.75757555,4195.39393897,1302.30303017,4857.87878739,2415.03030279,4468.93939349,70.0606060536,42.0,42.0,?
2017-08-01 19:34:39.441843,4535.39393894,2987.87878758,4125.33333292,4.1212121208,3874.45454507,3498.90909056,3851.7878784,173.090909074,4265.96969654,4067.63636323,4474.60606016,3754.42424205,4186.63636322,3111.5151512,4333.96969654,2604.60606035,4970.18181768,3004.36363606,4239.18181776,37.0909090872,4438.03030259,2031.75757555,4194.36363594,1302.30303017,4861.484848,2415.03030279,4471.51515107,70.0606060536,42.0,42.0,?
2017-08-01 19:34:39.447108,4534.87878743,2987.87878758,4124.81818141,4.1212121208,3879.0909087,3498.90909056,3876.51515113,173.090909074,4270.60606018,4067.63636323,4478.21212076,3754.42424205,4186.63636322,3111.5151512,4332.42424199,2604.60606035,4974.81818132,3004.36363606,4222.18181776,37.0909090872,4438.5454541,2031.75757555,4189.21212079,1302.30303017,4858.90909042,2415.03030279,4470.99999955,70.0606060536,42.0,42.0,?
2017-08-01 19:34:39.456611,4531.27272682,2987.87878758,4125.84848444,4.1212121208,3869.81818143,3498.90909056,3846.12121174,173.090909074,4269.06060563,4067.63636323,4477.69696925,3754.42424205,4177.36363595,3111.5151512,4323.15151472,2604.60606035,4962.45454496,3004.36363606,4219.60606018,37.0909090872,4428.75757531,2031.75757555,4189.72727231,1302.30303017,4852.72727224,2415.03030279,4460.69696925,70.0606060536,42.0,42.0,?
2017-08-01 19:34:39.464185,4528.18181773,2987.87878758,4127.39393898,4.1212121208,3864.15151477,3498.90909056,3830.15151477,173.090909074,4264.93939351,4067.63636323,4475.63636319,3754.42424205,4164.99999958,3111.5151512,4320.06060563,2604.60606035,4946.99999951,3004.36363606,4236.09090867,37.0909090872,4418.96969653,2031.75757555,4194.36363594,1302.30303017,4851.1818177,2415.03030279,4454.51515107,70.0606060536,42.0,42.0,?
2017-08-01 19:34:39.472030,4529.72727227,2987.87878758,4125.33333292,4.1212121208,3872.90909052,3498.90909056,3839.42424204,173.090909074,4264.424242,4067.63636323,4477.18181773,3754.42424205,4167.57575716,3111.5151512,4325.72727229,2604.60606035,4950.60606011,3004.36363606,4227.33333291,37.0909090872,4422.57575713,2031.75757555,4193.84848443,1302.30303017,4853.75757527,2415.03030279,4460.18181774,70.0606060536,42.0,42.0,?
2017-08-01 19:34:39.480190,4530.24242379,2987.87878758,4124.81818141,4.1212121208,3873.42424204,3498.90909056,3856.93939355,173.090909074,4265.96969654,4067.63636323,4480.78787834,3754.42424205,4176.33333292,3111.5151512,4328.81818139,2604.60606035,4969.15151465,3004.36363606,4217.54545412,37.0909090872,4427.72727228,2031.75757555,4190.75757534,1302.30303017,4855.81818133,2415.03030279,4462.75757531,70.0606060536,42.0,42.0,?
2017-08-01 19:34:39.486505,4530.24242379,2987.87878758,4127.39393898,4.1212121208,3873.42424204,3498.90909056,3873.93939355,173.090909074,4265.45454503,4067.63636323,4481.81818137,3754.42424205,4176.33333292,3111.5151512,4325.21212078,2604.60606035,4973.27272678,3004.36363606,4217.03030261,37.0909090872,4428.2424238,2031.75757555,4189.72727231,1302.30303017,4857.87878739,2415.03030279,4464.30302986,70.0606060536,42.0,42.0,?
2017-08-01 19:34:39.494513,4534.36363591,2987.87878758,4127.9090905,4.1212121208,3884.75757537,3498.90909056,3865.1818178,173.090909074,4262.87878745,4067.63636323,4480.27272682,3754.42424205,4176.33333292,3111.5151512,4323.66666623,2604.60606035,4961.42424193,3004.36363606,4186.63636322,37.0909090872,4434.42424198,2031.75757555,4185.60606019,1302.30303017,4858.90909042,2415.03030279,4470.99999955,70.0606060536,42.0,42.0,?
2017-08-01 19:34:39.502712,4535.39393894,2987.87878758,4124.30302989,4.1212121208,3880.63636325,3498.90909056,3838.39393901,173.090909074,4263.90909048,4067.63636323,4474.60606016,3754.42424205,4181.48484807,3111.5151512,4329.3333329,2604.60606035,4959.87878738,3004.36363606,4182.5151511,37.0909090872,4435.45454501,2031.75757555,4185.60606019,1302.30303017,4856.84848436,2415.03030279,4472.03030258,70.0606060536,42.0,42.0,?
2017-08-01 19:34:39.511097,4531.27272682,2987.87878758,4123.78787838,4.1212121208,3866.21212083,3498.90909056,3843.54545416,173.090909074,4265.45454503,4067.63636323,4468.93939349,3754.42424205,4182.5151511,3111.5151512,4330.87878745,2604.60606035,4960.3939389,3004.36363606,4234.54545412,37.0909090872,4426.18181774,2031.75757555,4194.36363594,1302.30303017,4853.75757527,2415.03030279,4464.30302986,70.0606060536,42.0,42.0,?
2017-08-01 19:34:39.518973,4530.24242379,2987.87878758,4126.87878747,4.1212121208,3871.36363598,3498.90909056,3856.93939355,173.090909074,4265.96969654,4067.63636323,4475.12121167,3754.42424205,4180.96969655,3111.5151512,4331.39393896,2604.60606035,4967.09090859,3004.36363606,4247.424242,37.0909090872,4423.09090865,2031.75757555,4196.424242,1302.30303017,4852.21212073,2415.03030279,4462.2424238,70.0606060536,42.0,42.0,?
2017-08-01 19:34:39.526307,4533.33333288,2987.87878758,4127.39393898,4.1212121208,3885.27272688,3498.90909056,3838.39393901,173.090909074,4270.09090866,4067.63636323,4487.48484804,3754.42424205,4189.72727231,3111.5151512,4342.21212078,2604.60606035,4986.15151465,3004.36363606,4218.57575715,37.0909090872,4435.96969653,2031.75757555,4191.78787837,1302.30303017,4858.39393891,2415.03030279,4469.45454501,70.0606060536,42.0,42.0,?
2017-08-01 19:34:39.534273,4532.30302985,2987.87878758,4126.87878747,4.1212121208,3878.57575719,3498.90909056,3836.33333295,173.090909074,4267.51515109,4067.63636323,4481.81818137,3754.42424205,4186.63636322,3111.5151512,4340.66666623,2604.60606035,4975.33333284,3004.36363606,4217.54545412,37.0909090872,4437.51515107,2031.75757555,4187.15151473,1302.30303017,4859.93939345,2415.03030279,4469.96969652,70.0606060536,42.0,42.0,?
2017-08-01 19:34:39.541810,4528.69696924,2987.87878758,4125.33333292,4.1212121208,3871.87878749,3498.90909056,3865.1818178,173.090909074,4261.84848442,4067.63636323,4472.03030258,3754.42424205,4170.15151473,3111.5151512,4325.21212078,2604.60606035,4952.15151466,3004.36363606,4213.93939352,37.0909090872,4427.72727228,2031.75757555,4191.78787837,1302.30303017,4854.7878783,2415.03030279,4465.8484844,70.0606060536,42.0,42.0,?
2017-08-01 19:34:39.549751,4530.7575753,2987.87878758,4123.27272686,4.1212121208,3886.81818143,3498.90909056,3878.06060567,173.090909074,4266.48484806,4067.63636323,4479.24242379,3754.42424205,4172.21212079,3111.5151512,4327.78787836,2604.60606035,4961.42424193,3004.36363606,4190.75757534,37.0909090872,4431.84848441,2031.75757555,4198.48484806,1302.30303017,4856.33333285,2415.03030279,4469.96969652,70.0606060536,42.0,42.0,?
2017-08-01 19:34:39.557506,4533.33333288,2987.87878758,4125.84848444,4.1212121208,3886.81818143,3498.90909056,3847.15151477,173.090909074,4264.93939351,4067.63636323,4476.1515147,3754.42424205,4178.39393898,3111.5151512,4333.96969654,2604.60606035,4969.66666617,3004.36363606,4195.39393897,37.0909090872,4435.96969653,2031.75757555,4193.33333291,1302.30303017,4859.93939345,2415.03030279,4471.51515107,70.0606060536,42.0,42.0,?
2017-08-01 19:34:39.565109,4529.21212076,2987.87878758,4125.84848444,4.1212121208,3868.27272689,3498.90909056,3840.96969659,173.090909074,4259.78787836,4067.63636323,4465.33333289,3754.42424205,4168.09090867,3111.5151512,4324.18181775,2604.60606035,4958.84848435,3004.36363606,4222.69696927,37.0909090872,4424.63636319,2031.75757555,4185.09090867,1302.30303017,4855.30302982,2415.03030279,4464.81818137,70.0606060536,42.0,42.0,?
2017-08-01 19:34:39.574659,4527.66666621,2987.87878758,4123.78787838,4.1212121208,3871.36363598,3498.90909056,3893.51515113,173.090909074,4270.09090866,4067.63636323,4473.06060561,3754.42424205,4165.5151511,3111.5151512,4324.18181775,2604.60606035,4965.54545405,3004.36363606,4230.424242,37.0909090872,4422.57575713,2031.75757555,4188.69696928,1302.30303017,4853.75757527,2415.03030279,4465.8484844,70.0606060536,42.0,42.0,?
2017-08-01 19:34:39.584477,4542.09090864,2987.87878758,4132.03030262,4.1212121208,3884.24242385,3498.90909056,3884.24242385,173.090909074,4275.24242381,4067.63636323,4485.93939349,3754.42424205,4176.33333292,3111.5151512,4334.99999957,2604.60606035,4966.57575708,3004.36363606,4225.78787837,37.0909090872,4434.9393935,2031.75757555,4196.424242,1302.30303017,4866.12121163,2415.03030279,4478.72727228,70.0606060536,42.0,42.0,?
2017-08-01 19:34:39.588739,4535.90909046,2987.87878758,4126.87878747,4.1212121208,3872.90909052,3498.90909056,3812.12121174,173.090909074,4265.45454503,4067.63636323,4480.27272682,3754.42424205,4181.99999958,3111.5151512,4333.96969654,2604.60606035,4954.21212072,3004.36363606,4226.8181814,37.0909090872,4434.9393935,2031.75757555,4194.36363594,1302.30303017,4859.93939345,2415.03030279,4471.51515107,70.0606060536,42.0,42.0,?
2017-08-01 19:34:39.598656,4514.78787834,2987.87878758,4115.54545413,4.1212121208,3866.72727234,3498.90909056,3827.06060568,173.090909074,4265.45454503,4067.63636323,4473.06060561,3754.42424205,4181.99999958,3111.5151512,4330.87878745,2604.60606035,4958.84848435,3004.36363606,4228.36363594,37.0909090872,4426.69696925,2031.75757555,4187.66666625,1302.30303017,4844.99999952,2415.03030279,4458.12121168,70.0606060536,42.0,42.0,?
2017-08-01 19:34:39.606664,4530.24242379,2987.87878758,4126.87878747,4.1212121208,3871.36363598,3498.90909056,3892.99999961,173.090909074,4270.09090866,4067.63636323,4476.66666622,3754.42424205,4176.33333292,3111.5151512,4328.30302987,2604.60606035,4957.81818132,3004.36363606,4211.87878746,37.0909090872,4424.63636319,2031.75757555,4188.18181776,1302.30303017,4854.7878783,2415.03030279,4464.30302986,70.0606060536,42.0,42.0,?
2017-08-01 19:34:39.613643,4534.87878743,2987.87878758,4127.39393898,4.1212121208,3862.0909087,3498.90909056,3872.90909052,173.090909074,4265.45454503,4067.63636323,4476.66666622,3754.42424205,4171.18181776,3111.5151512,4323.15151472,2604.60606035,4956.78787829,3004.36363606,4194.87878746,37.0909090872,4419.99999956,2031.75757555,4192.8181814,1302.30303017,4854.27272679,2415.03030279,4461.21212077,70.0606060536,42.0,42.0,?
2017-08-01 19:34:39.619196,4524.06060561,2987.87878758,4120.69696928,4.1212121208,3861.06060567,3498.90909056,3847.15151477,173.090909074,4263.90909048,4067.63636323,4473.06060561,3754.42424205,4177.36363595,3111.5151512,4326.24242381,2604.60606035,4976.87878738,3004.36363606,4204.66666625,37.0909090872,4425.15151471,2031.75757555,4192.8181814,1302.30303017,4848.60606012,2415.03030279,4459.15151471,70.0606060536,42.0,42.0,?
2017-08-01 19:34:39.628524,4536.93939349,2987.87878758,4128.42424201,4.1212121208,3873.42424204,3498.90909056,3873.93939355,173.090909074,4265.45454503,4067.63636323,4472.03030258,3754.42424205,4176.84848443,3111.5151512,4326.75757532,2604.60606035,4972.75757526,3004.36363606,4210.84848443,37.0909090872,4438.5454541,2031.75757555,4190.24242382,1302.30303017,4860.45454497,2415.03030279,4474.09090864,70.0606060536,42.0,42.0,?
2017-08-01 19:34:39.635560,4537.96969652,2987.87878758,4123.78787838,4.1212121208,3877.03030264,3498.90909056,3859.51515113,173.090909074,4268.54545412,4067.63636323,4477.18181773,3754.42424205,4173.75757534,3111.5151512,4324.69696926,2604.60606035,4957.81818132,3004.36363606,4212.39393897,37.0909090872,4438.03030259,2031.75757555,4189.72727231,1302.30303017,4860.96969648,2415.03030279,4473.06060561,70.0606060536,42.0,42.0,?
2017-08-01 19:34:39.645258,4526.12121167,2987.87878758,4119.15151474,4.1212121208,3875.99999961,3498.90909056,3836.33333295,173.090909074,4269.57575715,4067.63636323,4476.66666622,3754.42424205,4179.93939352,3111.5151512,4327.78787836,2604.60606035,4971.72727223,3004.36363606,4231.96969655,37.0909090872,4429.78787834,2031.75757555,4190.24242382,1302.30303017,4853.24242376,2415.03030279,4461.21212077,70.0606060536,42.0,42.0,?
2017-08-01 19:34:39.652316,4542.09090864,2987.87878758,4133.57575716,4.1212121208,3877.54545416,3498.90909056,3861.57575719,173.090909074,4263.39393897,4067.63636323,4471.51515107,3754.42424205,4175.30302989,3111.5151512,4321.60606017,2604.60606035,4969.66666617,3004.36363606,4220.1212117,37.0909090872,4432.87878744,2031.75757555,4189.21212079,1302.30303017,4866.12121163,2415.03030279,4470.48484804,70.0606060536,42.0,42.0,?
2017-08-01 19:34:39.658056,4544.1515147,2987.87878758,4128.93939353,4.1212121208,3872.90909052,3498.90909056,3873.93939355,173.090909074,4257.7272723,4067.63636323,4471.51515107,3754.42424205,4162.42424201,3111.5151512,4312.84848442,2604.60606035,4945.96969648,3004.36363606,4179.42424201,37.0909090872,4434.9393935,2031.75757555,4185.60606019,1302.30303017,4864.06060557,2415.03030279,4473.06060561,70.0606060536,42.0,42.0,?
2017-08-01 19:34:39.666525,4519.42424197,2987.87878758,4112.45454504,4.1212121208,3867.75757537,3498.90909056,3850.75757537,173.090909074,4260.30302988,4067.63636323,4470.48484804,3754.42424205,4165.5151511,3111.5151512,4316.45454502,2604.60606035,4955.24242375,3004.36363606,4197.96969655,37.0909090872,4427.21212077,2031.75757555,4187.15151473,1302.30303017,4843.96969649,2415.03030279,4458.63636319,70.0606060536,42.0,42.0,?
2017-08-01 19:34:39.675746,4532.81818136,2987.87878758,4123.27272686,4.1212121208,3875.4848481,3498.90909056,3839.42424204,173.090909074,4263.90909048,4067.63636323,4473.57575713,3754.42424205,4177.36363595,3111.5151512,4327.78787836,2604.60606035,4967.60606011,3004.36363606,4250.51515109,37.0909090872,4431.33333289,2031.75757555,4197.96969655,1302.30303017,4854.7878783,2415.03030279,4467.90909046,70.0606060536,42.0,42.0,?
2017-08-01 19:34:39.682707,4546.72727227,2987.87878758,4126.87878747,4.1212121208,3885.7878784,3498.90909056,3864.66666628,173.090909074,4264.424242,4067.63636323,4478.21212076,3754.42424205,4184.06060564,3111.5151512,4337.57575714,2604.60606035,4963.9999995,3004.36363606,4233.51515109,37.0909090872,4441.63636319,2031.75757555,4196.93939352,1302.30303017,4864.57575709,2415.03030279,4478.21212076,70.0606060536,42.0,42.0,?
2017-08-01 19:34:39.690438,4532.30302985,2987.87878758,4120.18181777,4.1212121208,3881.15151476,3498.90909056,3880.12121173,173.090909074,4264.424242,4067.63636323,4475.12121167,3754.42424205,4182.5151511,3111.5151512,4338.09090866,2604.60606035,4973.27272678,3004.36363606,4191.78787837,37.0909090872,4439.06060562,2031.75757555,4187.15151473,1302.30303017,4856.33333285,2415.03030279,4469.45454501,70.0606060536,42.0,42.0,?
2017-08-01 19:34:39.700607,4529.72727227,2987.87878758,4124.30302989,4.1212121208,3876.51515113,3498.90909056,3845.09090871,173.090909074,4262.87878745,4067.63636323,4468.42424198,3754.42424205,4175.30302989,3111.5151512,4328.30302987,2604.60606035,4970.6969692,3004.36363606,4200.03030261,37.0909090872,4433.90909047,2031.75757555,4191.27272685,1302.30303017,4854.27272679,2415.03030279,4468.42424198,70.0606060536,42.0,42.0,?
2017-08-01 19:34:39.706166,4533.33333288,2987.87878758,4124.81818141,4.1212121208,3876.51515113,3498.90909056,3840.96969659,173.090909074,4262.87878745,4067.63636323,4467.39393895,3754.42424205,4167.57575716,3111.5151512,4322.12121169,2604.60606035,4954.72727223,3004.36363606,4215.48484806,37.0909090872,4434.42424198,2031.75757555,4199.5151511,1302.30303017,4852.72727224,2415.03030279,4470.48484804,70.0606060536,42.0,42.0,?
2017-08-01 19:34:39.717842,4533.8484844,2987.87878758,4123.78787838,4.1212121208,3872.90909052,3498.90909056,3885.27272688,173.090909074,4263.90909048,4067.63636323,4469.96969652,3754.42424205,4164.99999958,3111.5151512,4321.60606017,2604.60606035,4956.27272678,3004.36363606,4206.72727231,37.0909090872,4430.81818138,2031.75757555,4194.36363594,1302.30303017,4854.27272679,2415.03030279,4467.39393895,70.0606060536,42.0,42.0,?
2017-08-01 19:34:39.721561,4532.81818136,2954.90909061,4124.30302989,4.1212121208,3874.96969658,3498.90909056,3871.87878749,173.090909074,4263.90909048,4067.63636323,4469.96969652,3754.42424205,4170.15151473,3111.5151512,4320.06060563,2604.60606035,4961.93939344,3004.36363606,4200.03030261,37.0909090872,4425.66666622,2031.75757555,4189.72727231,1302.30303017,4856.33333285,2415.03030279,4466.87878743,70.0606060536,42.0,42.0,?
2017-08-01 19:34:39.729153,4532.30302985,2954.90909061,4123.78787838,4.1212121208,3878.57575719,3498.90909056,3834.7878784,173.090909074,4264.424242,4067.63636323,4472.03030258,3754.42424205,4174.78787837,3111.5151512,4319.0303026,2604.60606035,4951.63636314,3004.36363606,4200.03030261,37.0909090872,4429.27272683,2031.75757555,4191.78787837,1302.30303017,4854.7878783,2415.03030279,4470.48484804,70.0606060536,42.0,42.0,?
2017-08-01 19:34:39.737096,4532.81818136,2954.90909061,4123.27272686,4.1212121208,3875.4848481,3498.90909056,3853.84848446,173.090909074,4264.93939351,4067.63636323,4476.1515147,3754.42424205,4178.39393898,3111.5151512,4325.21212078,2604.60606035,4946.48484799,3004.36363606,4200.03030261,37.0909090872,4434.42424198,2031.75757555,4192.30302988,1302.30303017,4854.7878783,2415.03030279,4470.48484804,37.0909090872,42.0,42.0,?
2017-08-01 19:34:39.745401,4534.87878743,2954.90909061,4122.75757535,4.1212121208,3873.93939355,3507.1515148,3868.7878784,173.090909074,4263.39393897,4067.63636323,4477.18181773,3754.42424205,4186.63636322,3111.5151512,4336.54545411,2604.60606035,4954.72727223,3004.36363606,4206.21212079,37.0909090872,4433.90909047,2031.75757555,4192.30302988,1302.30303017,4857.36363588,2415.03030279,4469.96969652,37.0909090872,42.0,42.0,?
2017-08-01 19:34:39.752681,4538.48484803,2954.90909061,4124.30302989,4.1212121208,3875.99999961,3507.1515148,3854.87878749,115.393939382,4260.81818139,4067.63636323,4473.57575713,3754.42424205,4193.33333291,3111.5151512,4342.72727229,2604.60606035,4963.9999995,3004.36363606,4200.03030261,37.0909090872,4435.96969653,2031.75757555,4192.30302988,1302.30303017,4860.45454497,2415.03030279,4473.57575713,37.0909090872,42.0,42.0,?
2017-08-01 19:34:39.761175,4536.93939349,2954.90909061,4123.78787838,4.1212121208,3872.39393901,3507.1515148,3853.33333295,115.393939382,4263.39393897,4059.39393899,4469.96969652,3754.42424205,4188.18181776,3111.5151512,4335.51515108,2604.60606035,4964.51515102,3004.36363606,4186.1212117,37.0909090872,4438.5454541,2031.75757555,4190.75757534,1302.30303017,4858.39393891,2415.03030279,4473.06060561,37.0909090872,42.0,42.0,?
2017-08-01 19:34:39.768250,4532.81818136,2954.90909061,4122.75757535,4.1212121208,3871.87878749,3507.1515148,3852.81818143,115.393939382,4265.96969654,4059.39393899,4470.99999955,3754.42424205,4179.93939352,3111.5151512,4322.6363632,2604.60606035,4953.6969692,3004.36363606,4193.84848443,37.0909090872,4435.96969653,2031.75757555,4191.78787837,1302.30303017,4854.7878783,2415.03030279,4469.96969652,37.0909090872,42.0,42.0,?
2017-08-01 19:34:39.776380,4533.33333288,2954.90909061,4122.75757535,4.1212121208,3876.51515113,3507.1515148,3853.33333295,115.393939382,4265.96969654,4059.39393899,4474.60606016,3754.42424205,4183.03030261,3107.39393908,4320.06060563,2604.60606035,4959.36363587,3004.36363606,4209.8181814,37.0909090872,4436.99999956,2031.75757555,4194.87878746,1302.30303017,4856.33333285,2415.03030279,4471.51515107,37.0909090872,42.0,42.0,?
2017-08-01 19:34:39.783887,4537.454545,2954.90909061,4121.72727232,4.1212121208,3879.0909087,3507.1515148,3856.93939355,115.393939382,4269.57575715,4059.39393899,4480.27272682,3754.42424205,4189.21212079,3107.39393908,4326.75757532,2608.72727247,4975.33333284,3004.36363606,4210.84848443,37.0909090872,4442.15151471,2031.75757555,4194.36363594,1302.30303017,4859.93939345,2415.03030279,4472.5454541,37.0909090872,42.0,42.0,?
2017-08-01 19:34:39.791377,4541.06060561,2954.90909061,4122.24242383,4.1212121208,3883.72727234,3507.1515148,3857.45454507,115.393939382,4276.78787836,4059.39393899,4484.39393895,3754.42424205,4187.15151473,3107.39393908,4328.30302987,2608.72727247,4961.93939344,2971.3939391,4192.8181814,37.0909090872,4444.21212077,2031.75757555,4191.27272685,1302.30303017,4857.87878739,2415.03030279,4474.09090864,37.0909090872,42.0,42.0,?
2017-08-01 19:34:39.801726,4536.42424197,2954.90909061,4123.27272686,4.1212121208,3885.7878784,3507.1515148,3872.39393901,115.393939382,4275.75757533,4059.39393899,4482.33333289,3754.42424205,4184.57575716,3107.39393908,4326.75757532,2608.72727247,4954.72727223,2971.3939391,4184.57575716,4191.27272685,4441.63636319,2031.75757555,4191.78787837,1302.30303017,4854.27272679,2415.03030279,4476.66666622,37.0909090872,42.0,42.0,?
2017-08-01 19:34:39.807074,4531.27272682,2954.90909061,4123.78787838,4.1212121208,3886.81818143,3507.1515148,3873.93939355,115.393939382,4269.57575715,4059.39393899,4477.18181773,3754.42424205,4188.18181776,3107.39393908,4333.45454502,2608.72727247,4976.87878738,2971.3939391,4205.18181776,4191.27272685,4440.09090865,2056.48484828,4196.424242,1302.30303017,4853.24242376,2415.03030279,4477.18181773,37.0909090872,42.0,42.0,?
2017-08-01 19:34:39.816872,4533.8484844,2954.90909061,4122.75757535,4.1212121208,3892.99999961,3507.1515148,3851.7878784,115.393939382,4266.99999957,4059.39393899,4473.57575713,3754.42424205,4191.78787837,3107.39393908,4344.27272684,2608.72727247,4991.3030298,2971.3939391,4229.39393897,4191.27272685,4442.66666622,2056.48484828,4200.03030261,1302.30303017,4853.24242376,2415.03030279,4477.69696925,37.0909090872,42.0,42.0,?
2017-08-01 19:34:39.823568,4536.93939349,2954.90909061,4120.69696928,4.1212121208,3895.57575719,3507.1515148,3863.63636325,115.393939382,4265.45454503,4059.39393899,4469.45454501,3754.42424205,4188.69696928,3107.39393908,4342.72727229,2608.72727247,4986.15151465,2971.3939391,4215.48484806,4191.27272685,4443.69696925,2056.48484828,4193.33333291,1302.30303017,4856.33333285,2357.3333331,4479.75757531,37.0909090872,42.0,42.0,?
2017-08-01 19:34:39.830862,4538.48484803,2954.90909061,4120.69696928,4.1212121208,3894.03030264,3507.1515148,3861.57575719,115.393939382,4263.39393897,4059.39393899,4469.96969652,3754.42424205,4179.93939352,3107.39393908,4329.3333329,2608.72727247,4967.09090859,2971.3939391,4184.57575716,4191.27272685,4441.63636319,2056.48484828,4185.09090867,1302.30303017,4859.93939345,2357.3333331,4479.75757531,37.0909090872,42.0,42.0,?
2017-08-01 19:34:39.840078,4536.42424197,2954.90909061,4122.75757535,4.1212121208,3890.93939355,3507.1515148,3826.54545416,115.393939382,4262.36363594,4059.39393899,4474.09090864,3754.42424205,4174.27272686,3107.39393908,4320.57575714,2608.72727247,4946.99999951,2971.3939391,4185.09090867,4191.27272685,4438.5454541,2048.24242404,4189.72727231,1302.30303017,4855.81818133,2357.3333331,4474.60606016,37.0909090872,42.0,42.0,?
2017-08-01 19:34:39.847578,4530.7575753,2954.90909061,4123.27272686,4.1212121208,3886.30302991,3507.1515148,3855.90909052,115.393939382,4266.48484806,4059.39393899,4473.06060561,3754.42424205,4174.78787837,3107.39393908,4319.0303026,2608.72727247,4946.99999951,2971.3939391,4198.48484806,4191.27272685,4432.87878744,2048.24242404,4194.87878746,1314.66666654,4849.63636315,2357.3333331,4468.42424198,37.0909090872,42.0,42.0,?
2017-08-01 19:34:39.854606,4529.21212076,2954.90909061,4122.75757535,4.1212121208,3882.18181779,3507.1515148,3898.15151476,115.393939382,4273.69696927,4059.39393899,4472.5454541,3754.42424205,4175.8181814,3107.39393908,4318.51515108,2608.72727247,4955.75757526,2971.3939391,4194.36363594,4191.27272685,4425.66666622,2048.24242404,4190.24242382,1314.66666654,4851.1818177,2357.3333331,4466.36363592,37.0909090872,42.0,42.0,?
2017-08-01 19:34:39.862890,4530.24242379,2954.90909061,4123.27272686,4.1212121208,3884.75757537,3507.1515148,3865.69696931,115.393939382,4274.21212078,4059.39393899,4479.75757531,3754.42424205,4177.87878746,3107.39393908,4321.09090866,2608.72727247,4951.63636314,2971.3939391,4189.21212079,4191.27272685,4427.72727228,2048.24242404,4185.60606019,1314.66666654,4853.24242376,2357.3333331,4467.39393895,37.0909090872,42.0,42.0,?
2017-08-01 19:34:39.872840,4529.72727227,2954.90909061,4124.81818141,4.1212121208,3886.81818143,3507.1515148,3843.54545416,115.393939382,4271.63636321,4059.39393899,4483.87878743,3754.42424205,4185.60606019,3107.39393908,4331.39393896,2608.72727247,4958.84848435,2971.3939391,4207.24242382,4191.27272685,4434.9393935,2048.24242404,4190.24242382,1314.66666654,4853.24242376,2357.3333331,4468.42424198,37.0909090872,42.0,42.0,?
2017-08-01 19:34:39.877945,4531.27272682,2954.90909061,4123.27272686,4.1212121208,3885.27272688,3507.1515148,3869.81818143,115.393939382,4271.63636321,4059.39393899,4479.75757531,3754.42424205,4193.84848443,3107.39393908,4339.12121169,2608.72727247,4980.9999995,2971.3939391,4219.09090867,4191.27272685,4435.96969653,2048.24242404,4192.30302988,1314.66666654,4856.33333285,2357.3333331,4469.45454501,37.0909090872,42.0,42.0,?
2017-08-01 19:34:39.885425,4533.8484844,2954.90909061,4121.72727232,4.1212121208,3891.96969658,3507.1515148,3858.99999961,115.393939382,4270.60606018,4059.39393899,4479.24242379,3754.42424205,4199.5151511,3107.39393908,4342.72727229,2608.72727247,4987.18181768,2971.3939391,4209.30302988,4191.27272685,4436.48484804,2048.24242404,4190.75757534,1314.66666654,4857.87878739,2357.3333331,4472.03030258,37.0909090872,42.0,42.0,?
2017-08-01 19:34:39.896436,4537.96969652,2954.90909061,4123.27272686,4.1212121208,3899.69696931,3507.1515148,3839.93939356,115.393939382,4264.93939351,4059.39393899,4482.33333289,3754.42424205,4202.09090867,3107.39393908,4346.84848441,2608.72727247,4982.03030253,2971.3939391,4213.93939352,4191.27272685,4441.12121168,2048.24242404,4194.87878746,1314.66666654,4858.90909042,2357.3333331,4476.1515147,37.0909090872,42.0,42.0,?
2017-08-01 19:34:39.901764,4541.57575712,2954.90909061,4124.81818141,4.1212121208,3897.12121173,3507.1515148,3854.87878749,115.393939382,4259.27272685,4059.39393899,4476.66666622,3754.42424205,4197.45454503,3107.39393908,4344.27272684,2608.72727247,4973.78787829,2971.3939391,4215.99999958,4191.27272685,4445.75757531,2048.24242404,4194.36363594,1314.66666654,4863.03030254,2357.3333331,4479.75757531,37.0909090872,42.0,42.0,?
2017-08-01 19:34:39.909308,4541.06060561,2954.90909061,4124.30302989,4.1212121208,3893.51515113,3507.1515148,3856.42424204,115.393939382,4256.18181776,4059.39393899,4468.42424198,3754.42424205,4189.72727231,3107.39393908,4336.0303026,2608.72727247,4969.15151465,2971.3939391,4203.1212117,4191.27272685,4446.27272683,2048.24242404,4187.66666625,1314.66666654,4862.51515103,2357.3333331,4477.69696925,37.0909090872,42.0,42.0,?
2017-08-01 19:34:39.916716,4537.96969652,2954.90909061,4123.78787838,4.1212121208,3891.45454507,3507.1515148,3858.99999961,115.393939382,4259.27272685,4059.39393899,4469.96969652,3754.42424205,4189.72727231,3107.39393908,4330.87878745,2608.72727247,4971.72727223,2971.3939391,4212.39393897,4191.27272685,4441.12121168,2048.24242404,4187.66666625,1314.66666654,4856.84848436,2357.3333331,4473.57575713,37.0909090872,42.0,42.0,?
2017-08-01 19:34:39.924081,4534.87878743,2954.90909061,4123.78787838,4.1212121208,3890.42424204,3507.1515148,3862.0909087,115.393939382,4268.54545412,4059.39393899,4475.63636319,3754.42424205,4193.84848443,3107.39393908,4331.90909048,2608.72727247,4972.75757526,2971.3939391,4229.90909049,4191.27272685,4432.87878744,2048.24242404,4192.8181814,1314.66666654,4854.27272679,2357.3333331,4470.48484804,37.0909090872,42.0,42.0,?
2017-08-01 19:34:39.932627,4534.87878743,2954.90909061,4122.75757535,4.1212121208,3883.21212082,3507.1515148,3853.33333295,115.393939382,4270.60606018,4059.39393899,4476.1515147,3754.42424205,4191.78787837,3107.39393908,4330.36363593,2608.72727247,4966.06060556,2971.3939391,4217.03030261,4191.27272685,4427.72727228,2048.24242404,4193.33333291,1314.66666654,4855.30302982,2357.3333331,4469.96969652,37.0909090872,42.0,42.0,?
2017-08-01 19:34:39.941861,4534.36363591,2954.90909061,4122.75757535,4.1212121208,3875.99999961,3507.1515148,3862.0909087,115.393939382,4269.06060563,4059.39393899,4476.1515147,3754.42424205,4185.60606019,3107.39393908,4325.72727229,2608.72727247,4960.3939389,2971.3939391,4204.15151473,4191.27272685,4431.33333289,2048.24242404,4192.8181814,1314.66666654,4856.33333285,2357.3333331,4467.39393895,37.0909090872,42.0,42.0,?
2017-08-01 19:34:39.948254,4530.24242379,2954.90909061,4123.78787838,4.1212121208,3879.0909087,3507.1515148,3872.39393901,115.393939382,4269.06060563,4059.39393899,4479.75757531,3754.42424205,4184.06060564,3107.39393908,4328.30302987,2608.72727247,4967.60606011,2971.3939391,4220.1212117,4191.27272685,4436.99999956,2048.24242404,4194.87878746,1314.66666654,4857.87878739,2357.3333331,4468.42424198,37.0909090872,42.0,42.0,?
2017-08-01 19:34:39.956208,4532.30302985,2954.90909061,4122.75757535,4.1212121208,3888.36363597,3507.1515148,3846.12121174,115.393939382,4267.51515109,4059.39393899,4479.75757531,3754.42424205,4186.1212117,3107.39393908,4338.09090866,2608.72727247,4976.36363587,2971.3939391,4228.87878746,4191.27272685,4440.60606016,2048.24242404,4196.93939352,1314.66666654,4860.45454497,2357.3333331,4473.57575713,37.0909090872,42.0,42.0,?
2017-08-01 19:34:39.965201,4537.454545,2954.90909061,4122.75757535,4.1212121208,3887.33333294,3507.1515148,3833.75757537,115.393939382,4268.0303026,4059.39393899,4476.1515147,3754.42424205,4188.69696928,3107.39393908,4342.21212078,2608.72727247,4978.42424193,2971.3939391,4219.09090867,4191.27272685,4440.09090865,2048.24242404,4192.8181814,1314.66666654,4859.93939345,2357.3333331,4472.5454541,37.0909090872,42.0,42.0,?
2017-08-01 19:34:39.971459,4532.30302985,2954.90909061,4124.30302989,4.1212121208,3879.0909087,3507.1515148,3857.96969658,115.393939382,4270.60606018,4059.39393899,4473.57575713,3754.42424205,4186.1212117,3107.39393908,4333.45454502,2608.72727247,4978.93939344,2971.3939391,4209.30302988,4191.27272685,4434.42424198,2048.24242404,4186.63636322,1314.66666654,4856.33333285,2357.3333331,4466.36363592,37.0909090872,42.0,42.0,?
2017-08-01 19:34:39.980750,4530.24242379,2954.90909061,4124.30302989,4.1212121208,3881.15151476,3507.1515148,3863.63636325,115.393939382,4268.54545412,4059.39393899,4472.5454541,3754.42424205,4178.90909049,3107.39393908,4323.66666623,2608.72727247,4964.51515102,2971.3939391,4209.30302988,4191.27272685,4434.42424198,2048.24242404,4186.63636322,1314.66666654,4855.81818133,2357.3333331,4468.42424198,37.0909090872,42.0,42.0,?
2017-08-01 19:34:39.988695,4536.42424197,2954.90909061,4123.27272686,4.1212121208,3890.42424204,3507.1515148,3862.0909087,115.393939382,4265.96969654,4059.39393899,4471.51515107,3754.42424205,4178.90909049,3107.39393908,4326.24242381,2608.72727247,4951.12121163,2971.3939391,4218.57575715,4191.27272685,4440.60606016,2048.24242404,4188.18181776,1314.66666654,4857.87878739,2357.3333331,4475.12121167,37.0909090872,42.0,42.0,?
2017-08-01 19:34:39.995916,4536.93939349,2954.90909061,4124.30302989,4.1212121208,3891.45454507,3507.1515148,3863.63636325,115.393939382,4267.51515109,4059.39393899,4470.48484804,3754.42424205,4184.06060564,3107.39393908,4332.93939351,2608.72727247,4958.84848435,2971.3939391,4227.33333291,4191.27272685,4444.21212077,2048.24242404,4188.69696928,1314.66666654,4857.36363588,2357.3333331,4474.60606016,37.0909090872,42.0,42.0,?
2017-08-01 19:34:40.002087,4534.87878743,2954.90909061,4125.84848444,4.1212121208,3882.18181779,3507.1515148,3840.96969659,115.393939382,4269.06060563,4059.39393899,4470.99999955,3754.42424205,4185.60606019,3107.39393908,4331.90909048,2608.72727247,4967.60606011,2971.3939391,4229.90909049,4191.27272685,4439.57575713,2048.24242404,4189.72727231,1314.66666654,4854.27272679,2357.3333331,4472.5454541,37.0909090872,42.0,42.0,?
2017-08-01 19:34:40.011364,4536.93939349,2954.90909061,4123.78787838,4.1212121208,3882.18181779,3507.1515148,3825.51515113,115.393939382,4272.15151472,4059.39393899,4474.60606016,3754.42424205,4186.63636322,3107.39393908,4330.87878745,2608.72727247,4968.12121162,2971.3939391,4219.09090867,4191.27272685,4436.99999956,2048.24242404,4187.15151473,1314.66666654,4855.30302982,2357.3333331,4473.06060561,37.0909090872,42.0,42.0,?
2017-08-01 19:34:40.018713,4535.90909046,2954.90909061,4123.27272686,4.1212121208,3892.4848481,3507.1515148,3855.39393901,115.393939382,4276.78787836,4059.39393899,4481.81818137,3754.42424205,4191.27272685,3107.39393908,4335.51515108,2608.72727247,4974.81818132,2971.3939391,4218.57575715,4191.27272685,4438.5454541,2048.24242404,4188.69696928,1314.66666654,4859.42424194,2357.3333331,4474.09090864,37.0909090872,42.0,42.0,?
2017-08-01 19:34:40.026759,4530.24242379,2954.90909061,4123.78787838,4.1212121208,3891.45454507,3507.1515148,3895.06060567,115.393939382,4274.21212078,4059.39393899,4481.30302985,3754.42424205,4185.60606019,3107.39393908,4331.90909048,2608.72727247,4973.78787829,2971.3939391,4234.54545412,4191.27272685,4433.39393895,2048.24242404,4195.39393897,1314.66666654,4855.30302982,2357.3333331,4470.48484804,37.0909090872,42.0,42.0,?
2017-08-01 19:34:40.035757,4529.21212076,2954.90909061,4124.30302989,4.1212121208,3879.0909087,3507.1515148,3897.12121173,115.393939382,4267.51515109,4059.39393899,4471.51515107,3754.42424205,4170.15151473,3107.39393908,4317.99999957,2608.72727247,4953.18181769,2971.3939391,4228.36363594,4191.27272685,4424.63636319,2048.24242404,4194.36363594,1314.66666654,4849.63636315,2357.3333331,4466.36363592,37.0909090872,42.0,42.0,?
2017-08-01 19:34:40.042155,4531.27272682,2954.90909061,4124.81818141,4.1212121208,3873.93939355,3507.1515148,3850.24242386,115.393939382,4262.87878745,4059.39393899,4466.87878743,3754.42424205,4167.57575716,3107.39393908,4309.75757533,2608.72727247,4939.27272678,2971.3939391,4206.72727231,4191.27272685,4425.15151471,2048.24242404,4189.21212079,1314.66666654,4853.75757527,2357.3333331,4468.42424198,37.0909090872,42.0,42.0,?
2017-08-01 19:34:40.051169,4531.78787833,2954.90909061,4124.30302989,4.1212121208,3874.45454507,3507.1515148,3818.30302992,115.393939382,4258.24242382,4059.39393899,4468.42424198,3754.42424205,4175.30302989,3107.39393908,4313.36363593,2608.72727247,4942.87878738,2971.3939391,4210.84848443,4191.27272685,4430.81818138,2048.24242404,4189.72727231,1314.66666654,4855.30302982,2357.3333331,4469.45454501,37.0909090872,42.0,42.0,?
2017-08-01 19:34:40.057610,4530.7575753,2954.90909061,4122.24242383,4.1212121208,3875.99999961,3507.1515148,3855.39393901,115.393939382,4257.21212079,4059.39393899,4468.42424198,3754.42424205,4173.24242383,3107.39393908,4319.0303026,2608.72727247,4956.78787829,2971.3939391,4223.7272723,4191.27272685,4430.81818138,2048.24242404,4189.21212079,1314.66666654,4851.1818177,2357.3333331,4468.42424198,37.0909090872,42.0,42.0,?
2017-08-01 19:34:40.065075,4530.7575753,2954.90909061,4121.2121208,4.1212121208,3882.69696931,3507.1515148,3880.12121173,115.393939382,4260.30302988,4059.39393899,4467.39393895,3754.42424205,4169.1212117,3107.39393908,4319.54545411,2608.72727247,4966.06060556,2971.3939391,4215.48484806,4191.27272685,4431.33333289,2048.24242404,4187.15151473,1314.66666654,4851.69696921,2357.3333331,4472.03030258,37.0909090872,42.0,42.0,?
2017-08-01 19:34:40.074735,4536.42424197,2954.90909061,4123.27272686,4.1212121208,3888.36363597,3507.1515148,3839.42424204,115.393939382,4259.78787836,4059.39393899,4469.96969652,3754.42424205,4174.27272686,3107.39393908,4320.06060563,2608.72727247,4958.84848435,2971.3939391,4213.93939352,4191.27272685,4437.51515107,2048.24242404,4189.21212079,1314.66666654,4858.90909042,2357.3333331,4476.1515147,37.0909090872,42.0,42.0,?
2017-08-01 19:34:40.081093,4537.96969652,2954.90909061,4125.84848444,4.1212121208,3887.33333294,3507.1515148,3823.45454507,115.393939382,4259.27272685,4059.39393899,4472.5454541,3754.42424205,4178.90909049,3107.39393908,4323.66666623,2608.72727247,4953.6969692,2971.3939391,4225.78787837,4191.27272685,4440.60606016,2048.24242404,4190.24242382,1314.66666654,4860.96969648,2357.3333331,4475.63636319,37.0909090872,42.0,42.0,?
2017-08-01 19:34:40.089153,4532.30302985,2954.90909061,4125.33333292,4.1212121208,3884.75757537,3507.1515148,3851.7878784,115.393939382,4263.39393897,4059.39393899,4470.99999955,3754.42424205,4178.39393898,3107.39393908,4325.72727229,2608.72727247,4956.78787829,2971.3939391,4225.27272685,4191.27272685,4438.03030259,2048.24242404,4188.69696928,1314.66666654,4855.81818133,2357.3333331,4473.06060561,37.0909090872,42.0,42.0,?
2017-08-01 19:34:40.096457,4530.24242379,2954.90909061,4123.78787838,4.1212121208,3883.72727234,3507.1515148,3861.06060567,115.393939382,4264.424242,4059.39393899,4466.87878743,3754.42424205,4179.42424201,3107.39393908,4325.21212078,2608.72727247,4960.3939389,2971.3939391,4215.48484806,4191.27272685,4433.90909047,2048.24242404,4185.09090867,1314.66666654,4855.30302982,2357.3333331,4468.93939349,37.0909090872,42.0,42.0,?
2017-08-01 19:34:40.108020,4532.30302985,2954.90909061,4121.72727232,4.1212121208,3882.18181779,3507.1515148,3862.0909087,115.393939382,4259.78787836,4059.39393899,4463.78787834,3754.42424205,4178.90909049,3107.39393908,4321.09090866,2608.72727247,4959.87878738,2971.3939391,4211.36363594,4191.27272685,4433.39393895,2048.24242404,4184.06060564,1314.66666654,4856.84848436,2357.3333331,4466.87878743,37.0909090872,42.0,42.0,?
2017-08-01 19:34:40.113249,4533.8484844,2954.90909061,4122.75757535,4.1212121208,3876.51515113,3507.1515148,3861.06060567,115.393939382,4259.78787836,4059.39393899,4463.78787834,3754.42424205,4176.33333292,3107.39393908,4315.93939351,2608.72727247,4956.27272678,2971.3939391,4213.424242,4191.27272685,4434.42424198,2048.24242404,4190.24242382,1314.66666654,4855.30302982,2357.3333331,4469.45454501,37.0909090872,42.0,42.0,?
2017-08-01 19:34:40.122423,4532.81818136,2954.90909061,4125.33333292,4.1212121208,3872.90909052,3507.1515148,3855.39393901,115.393939382,4265.96969654,4059.39393899,4467.39393895,3754.42424205,4176.33333292,3107.39393908,4317.99999957,2608.72727247,4956.78787829,2971.3939391,4208.78787837,4191.27272685,4430.81818138,2048.24242404,4191.27272685,1314.66666654,4853.24242376,2357.3333331,4468.42424198,37.0909090872,42.0,42.0,?
2017-08-01 19:34:40.128176,4530.7575753,2954.90909061,4123.78787838,4.1212121208,3875.4848481,3507.1515148,3844.57575719,115.393939382,4267.51515109,4059.39393899,4468.93939349,3754.42424205,4178.90909049,3107.39393908,4325.72727229,2608.72727247,4961.93939344,2971.3939391,4208.27272685,4191.27272685,4429.27272683,2048.24242404,4186.1212117,1314.66666654,4852.21212073,2357.3333331,4467.39393895,37.0909090872,42.0,42.0,?
2017-08-01 19:34:40.135637,4533.8484844,2954.90909061,4123.27272686,4.1212121208,3879.60606022,3507.1515148,3832.72727234,115.393939382,4263.39393897,4059.39393899,4464.81818137,3754.42424205,4181.99999958,3107.39393908,4326.24242381,2608.72727247,4955.24242375,2971.3939391,4215.99999958,4191.27272685,4432.36363592,2048.24242404,4187.66666625,1314.66666654,4854.7878783,2357.3333331,4473.57575713,37.0909090872,42.0,42.0,?
2017-08-01 19:34:40.143507,4537.454545,2954.90909061,4124.30302989,4.1212121208,3878.57575719,3507.1515148,3843.54545416,115.393939382,4262.36363594,4059.39393899,4463.27272683,3754.42424205,4179.93939352,3107.39393908,4320.57575714,2608.72727247,4941.33333284,2971.3939391,4208.27272685,4191.27272685,4435.45454501,2048.24242404,4190.24242382,1314.66666654,4858.90909042,2357.3333331,4476.1515147,37.0909090872,42.0,42.0,?
2017-08-01 19:34:40.151200,4526.12121167,2954.90909061,4120.69696928,4.1212121208,3874.96969658,3507.1515148,3872.39393901,115.393939382,4267.51515109,4059.39393899,4468.42424198,3754.42424205,4177.87878746,3107.39393908,4323.66666623,2608.72727247,4945.45454496,2971.3939391,4202.09090867,4191.27272685,4432.87878744,2048.24242404,4187.15151473,1314.66666654,4853.24242376,2357.3333331,4467.90909046,37.0909090872,42.0,42.0,?
2017-08-01 19:34:40.161249,4526.63636318,2954.90909061,4124.81818141,4.1212121208,3878.06060567,3507.1515148,3881.66666628,115.393939382,4268.0303026,4059.39393899,4467.90909046,3754.42424205,4179.93939352,3107.39393908,4329.84848442,2608.72727247,4960.3939389,2971.3939391,4213.93939352,4191.27272685,4430.81818138,2048.24242404,4187.66666625,1314.66666654,4852.72727224,2357.3333331,4470.48484804,37.0909090872,42.0,42.0,?
2017-08-01 19:34:40.167251,4543.12121167,2954.90909061,4129.96969656,4.1212121208,3884.75757537,3507.1515148,3869.81818143,115.393939382,4264.93939351,4059.39393899,4462.75757531,3754.42424205,4178.90909049,3107.39393908,4326.75757532,2608.72727247,4968.63636314,2971.3939391,4219.09090867,4191.27272685,4431.33333289,2048.24242404,4191.78787837,1314.66666654,4863.03030254,2357.3333331,4480.78787834,37.0909090872,42.0,42.0,?
2017-08-01 19:34:40.177043,4530.24242379,2954.90909061,4119.15151474,4.1212121208,3887.84848446,3507.1515148,3858.99999961,115.393939382,4268.0303026,4059.39393899,4464.30302986,3754.42424205,4182.5151511,3107.39393908,4328.30302987,2608.72727247,4970.6969692,2971.3939391,4213.93939352,4191.27272685,4431.84848441,2048.24242404,4193.33333291,1314.66666654,4856.33333285,2357.3333331,4472.5454541,37.0909090872,42.0,42.0,?
2017-08-01 19:34:40.183731,4518.90909046,2954.90909061,4119.15151474,4.1212121208,3890.42424204,3507.1515148,3840.45454507,115.393939382,4270.09090866,4059.39393899,4467.90909046,3754.42424205,4191.27272685,3107.39393908,4333.96969654,2608.72727247,4970.18181768,2971.3939391,4215.48484806,4191.27272685,4434.42424198,2048.24242404,4190.75757534,1314.66666654,4848.60606012,2357.3333331,4463.27272683,37.0909090872,42.0,42.0,?
2017-08-01 19:34:40.190053,4541.57575712,2954.90909061,4134.09090868,4.1212121208,3897.12121173,3507.1515148,3839.93939356,115.393939382,4265.45454503,4059.39393899,4465.33333289,3754.42424205,4184.57575716,3107.39393908,4325.21212078,2608.72727247,4960.3939389,2971.3939391,4209.8181814,4191.27272685,4437.51515107,2048.24242404,4185.60606019,1314.66666654,4862.51515103,2357.3333331,4474.09090864,37.0909090872,42.0,42.0,?
2017-08-01 19:34:40.199220,4547.24242379,2954.90909061,4130.48484807,4.1212121208,3896.0909087,3507.1515148,3842.51515113,115.393939382,4263.39393897,4059.39393899,4459.15151471,3754.42424205,4170.15151473,3107.39393908,4310.27272684,2608.72727247,4939.27272678,2971.3939391,4192.8181814,4191.27272685,4432.36363592,2048.24242404,4185.60606019,1314.66666654,4866.12121163,2357.3333331,4478.21212076,37.0909090872,42.0,42.0,?
2017-08-01 19:34:40.206830,4525.60606015,2954.90909061,4119.66666625,4.1212121208,3885.7878784,3507.1515148,3837.87878749,115.393939382,4264.93939351,4059.39393899,4456.06060561,3754.42424205,4168.09090867,3107.39393908,4308.21212078,2608.72727247,4932.06060557,2971.3939391,4189.72727231,4191.27272685,4424.12121168,2048.24242404,4190.24242382,1314.66666654,4850.15151467,2357.3333331,4465.33333289,37.0909090872,42.0,42.0,?
2017-08-01 19:34:40.217348,4524.57575712,2954.90909061,4126.36363595,4.1212121208,3882.69696931,3507.1515148,3858.99999961,115.393939382,4264.424242,4059.39393899,4457.60606016,3754.42424205,4170.15151473,3107.39393908,4312.3333329,2608.72727247,4947.51515102,2971.3939391,4194.87878746,4191.27272685,4423.09090865,2048.24242404,4189.21212079,1314.66666654,4850.66666618,2357.3333331,4463.27272683,37.0909090872,42.0,42.0,?
2017-08-01 19:34:40.221741,4533.8484844,2954.90909061,4126.87878747,4.1212121208,3886.30302991,3507.1515148,3868.7878784,115.393939382,4265.96969654,4059.39393899,4460.18181774,3754.42424205,4169.1212117,3107.39393908,4317.99999957,2608.72727247,4960.3939389,2971.3939391,4197.96969655,4191.27272685,4427.72727228,2048.24242404,4186.63636322,1314.66666654,4860.45454497,2357.3333331,4472.03030258,37.0909090872,42.0,42.0,?
2017-08-01 19:34:40.230987,4533.8484844,3004.36363606,4119.15151474,4.1212121208,3889.90909052,3507.1515148,3857.96969658,115.393939382,4271.12121169,4059.39393899,4461.72727228,3754.42424205,4175.30302989,3107.39393908,4328.81818139,2608.72727247,4966.57575708,2971.3939391,4205.18181776,4191.27272685,4433.90909047,2048.24242404,4191.78787837,1314.66666654,4859.93939345,2357.3333331,4474.60606016,37.0909090872,42.0,42.0,?
2017-08-01 19:34:40.237999,4537.96969652,3004.36363606,4123.78787838,0.0,3895.57575719,3507.1515148,3854.36363598,115.393939382,4270.60606018,4059.39393899,4463.27272683,3754.42424205,4181.48484807,3107.39393908,4332.42424199,2608.72727247,4968.63636314,2971.3939391,4212.39393897,4191.27272685,4442.15151471,2048.24242404,4195.90909049,1314.66666654,4859.93939345,2357.3333331,4476.66666622,37.0909090872,42.0,42.0,?
2017-08-01 19:34:40.246280,4535.90909046,3004.36363606,4125.84848444,0.0,3895.06060567,3507.1515148,3847.66666628,115.393939382,4266.48484806,4059.39393899,4464.30302986,3754.42424205,4180.45454504,3107.39393908,4330.36363593,2608.72727247,4955.75757526,2971.3939391,4212.39393897,4191.27272685,4443.69696925,2048.24242404,4193.33333291,1314.66666654,4858.90909042,2357.3333331,4477.18181773,90.6666666576,42.0,42.0,?
2017-08-01 19:34:40.253981,4533.33333288,3004.36363606,4125.33333292,0.0,3888.36363597,3503.03030268,3843.54545416,115.393939382,4266.48484806,4059.39393899,4462.2424238,3754.42424205,4179.42424201,3107.39393908,4327.78787836,2608.72727247,4946.99999951,2971.3939391,4200.54545413,4191.27272685,4434.42424198,2048.24242404,4189.72727231,1314.66666654,4856.33333285,2357.3333331,4475.63636319,90.6666666576,42.0,42.0,?
2017-08-01 19:34:40.262511,4532.30302985,3004.36363606,4125.84848444,0.0,3891.45454507,3503.03030268,3860.03030264,103.03030302,4267.51515109,4059.39393899,4459.66666622,3754.42424205,4176.33333292,3107.39393908,4320.06060563,2608.72727247,4956.78787829,2971.3939391,4189.72727231,4191.27272685,4425.15151471,2048.24242404,4188.69696928,1314.66666654,4856.33333285,2357.3333331,4473.57575713,90.6666666576,42.0,42.0,?
2017-08-01 19:34:40.268053,4528.18181773,3004.36363606,4122.75757535,0.0,3895.57575719,3503.03030268,3865.69696931,103.03030302,4266.48484806,4055.27272687,4463.27272683,3754.42424205,4174.78787837,3107.39393908,4317.48484805,2608.72727247,4965.54545405,2971.3939391,4189.21212079,4191.27272685,4424.12121168,2048.24242404,4188.69696928,1314.66666654,4855.30302982,2357.3333331,4472.03030258,90.6666666576,42.0,42.0,?
2017-08-01 19:34:40.276251,4527.66666621,3004.36363606,4124.30302989,0.0,3887.33333294,3503.03030268,3849.21212083,103.03030302,4265.96969654,4055.27272687,4464.30302986,3750.30302993,4176.84848443,3107.39393908,4318.51515108,2608.72727247,4956.78787829,2971.3939391,4188.18181776,4191.27272685,4426.69696925,2048.24242404,4188.18181776,1314.66666654,4851.69696921,2357.3333331,4469.96969652,90.6666666576,42.0,42.0,?
2017-08-01 19:34:40.285646,4529.72727227,3004.36363606,4127.9090905,0.0,3886.30302991,3503.03030268,3828.09090871,103.03030302,4266.99999957,4055.27272687,4458.12121168,3750.30302993,4179.42424201,3107.39393908,4316.45454502,2608.72727247,4946.48484799,2971.3939391,4185.60606019,4191.27272685,4424.12121168,2048.24242404,4190.75757534,1314.66666654,4850.15151467,2357.3333331,4468.42424198,90.6666666576,42.0,42.0,?
2017-08-01 19:34:40.293330,4532.81818136,3004.36363606,4125.33333292,0.0,3894.03030264,3503.03030268,3830.66666628,103.03030302,4265.96969654,4055.27272687,4456.06060561,3750.30302993,4178.90909049,3107.39393908,4315.93939351,2612.84848459,4946.48484799,2971.3939391,4186.63636322,4191.27272685,4423.09090865,2048.24242404,4192.30302988,1314.66666654,4856.33333285,2357.3333331,4470.99999955,90.6666666576,42.0,42.0,?
2017-08-01 19:34:40.300911,4532.81818136,3004.36363606,4121.72727232,0.0,3891.45454507,3503.03030268,3864.15151477,103.03030302,4264.93939351,4055.27272687,4460.69696925,3750.30302993,4176.84848443,3107.39393908,4317.48484805,2612.84848459,4953.6969692,2979.63636334,4189.72727231,4191.27272685,4428.75757531,2048.24242404,4189.72727231,1314.66666654,4859.42424194,2357.3333331,4475.12121167,90.6666666576,42.0,42.0,?
2017-08-01 19:34:40.307829,4530.7575753,3004.36363606,4121.72727232,0.0,3887.33333294,3503.03030268,3882.18181779,103.03030302,4264.93939351,4055.27272687,4464.81818137,3750.30302993,4177.87878746,3107.39393908,4317.48484805,2612.84848459,4960.90909041,2979.63636334,4194.87878746,4199.5151511,4431.33333289,2048.24242404,4188.18181776,1314.66666654,4856.33333285,2357.3333331,4474.60606016,90.6666666576,42.0,42.0,?
2017-08-01 19:34:40.315249,4532.81818136,3004.36363606,4123.78787838,0.0,3893.51515113,3503.03030268,3854.87878749,103.03030302,4265.45454503,4055.27272687,4466.36363592,3750.30302993,4180.45454504,3107.39393908,4322.6363632,2612.84848459,4969.66666617,2979.63636334,4202.60606019,4199.5151511,4432.87878744,2101.81818161,4191.27272685,1314.66666654,4859.42424194,2357.3333331,4473.06060561,90.6666666576,42.0,42.0,?
2017-08-01 19:34:40.325635,4537.454545,3004.36363606,4124.81818141,0.0,3899.69696931,3503.03030268,3851.7878784,103.03030302,4266.48484806,4055.27272687,4463.78787834,3750.30302993,4179.42424201,3107.39393908,4331.39393896,2612.84848459,4972.24242375,2979.63636334,4207.24242382,4199.5151511,4439.06060562,2101.81818161,4194.87878746,1306.42424229,4861.99999951,2357.3333331,4477.69696925,90.6666666576,42.0,42.0,?
2017-08-01 19:34:40.331632,4539.51515106,3004.36363606,4125.84848444,0.0,3900.21212082,3503.03030268,3876.51515113,103.03030302,4264.424242,4055.27272687,4458.63636319,3750.30302993,4174.27272686,3107.39393908,4329.3333329,2612.84848459,4958.84848435,2979.63636334,4202.60606019,4199.5151511,4440.09090865,2101.81818161,4195.39393897,1306.42424229,4859.42424194,2419.15151491,4478.21212076,90.6666666576,42.0,42.0,?
2017-08-01 19:34:40.339191,4535.90909046,3004.36363606,4123.78787838,0.0,3897.63636325,3503.03030268,3837.36363598,103.03030302,4259.27272685,4055.27272687,4456.57575713,3750.30302993,4172.72727231,3107.39393908,4322.12121169,2612.84848459,4954.21212072,2979.63636334,4194.87878746,4199.5151511,4434.9393935,2101.81818161,4192.30302988,1306.42424229,4858.39393891,2419.15151491,4473.57575713,90.6666666576,42.0,42.0,?
2017-08-01 19:34:40.348541,4530.7575753,3004.36363606,4120.69696928,0.0,3896.0909087,3503.03030268,3808.51515113,103.03030302,4259.78787836,4055.27272687,4454.51515107,3750.30302993,4174.78787837,3107.39393908,4321.60606017,2612.84848459,4961.42424193,2979.63636334,4191.78787837,4199.5151511,4434.42424198,2105.93939373,4188.18181776,1306.42424229,4857.36363588,2419.15151491,4473.06060561,90.6666666576,42.0,42.0,?
2017-08-01 19:34:40.354060,4532.81818136,3004.36363606,4123.27272686,0.0,3894.03030264,3503.03030268,3854.87878749,103.03030302,4260.30302988,4055.27272687,4452.45454501,3750.30302993,4174.27272686,3107.39393908,4323.15151472,2612.84848459,4955.75757526,2979.63636334,4190.75757534,4199.5151511,4434.9393935,2105.93939373,4187.66666625,1306.42424229,4856.33333285,2419.15151491,4475.63636319,90.6666666576,42.0,42.0,?
2017-08-01 19:34:40.362074,4536.93939349,3004.36363606,4127.39393898,0.0,3887.84848446,3503.03030268,3877.54545416,103.03030302,4256.69696927,4055.27272687,4451.93939349,3750.30302993,4169.1212117,3107.39393908,4316.96969654,2612.84848459,4952.66666617,2979.63636334,4187.66666625,4199.5151511,4431.84848441,2105.93939373,4187.15151473,1306.42424229,4854.7878783,2419.15151491,4472.5454541,90.6666666576,42.0,42.0,?
2017-08-01 19:34:40.372155,4532.81818136,3004.36363606,4125.33333292,0.0,3883.72727234,3503.03030268,3855.90909052,103.03030302,4256.18181776,4055.27272687,4450.39393895,3750.30302993,4163.45454504,3107.39393908,4306.66666624,2612.84848459,4960.90909041,2979.63636334,4185.60606019,4199.5151511,4431.33333289,2105.93939373,4186.63636322,1306.42424229,4856.84848436,2419.15151491,4469.45454501,90.6666666576,42.0,42.0,?
2017-08-01 19:34:40.379363,4529.72727227,3004.36363606,4122.75757535,0.0,3887.33333294,3503.03030268,3861.57575719,103.03030302,4261.84848442,4055.27272687,4451.93939349,3750.30302993,4163.96969655,3107.39393908,4306.66666624,2612.84848459,4956.27272678,2979.63636334,4191.78787837,4199.5151511,4434.42424198,2105.93939373,4188.69696928,1306.42424229,4860.45454497,2419.15151491,4470.99999955,90.6666666576,42.0,42.0,?
2017-08-01 19:34:40.387563,4532.81818136,3004.36363606,4123.27272686,0.0,3893.51515113,3503.03030268,3863.63636325,103.03030302,4263.90909048,4055.27272687,4457.60606016,3750.30302993,4168.60606019,3107.39393908,4314.90909048,2612.84848459,4945.45454496,2979.63636334,4198.48484806,4199.5151511,4436.48484804,2105.93939373,4189.72727231,1306.42424229,4858.39393891,2419.15151491,4473.06060561,90.6666666576,42.0,42.0,?
2017-08-01 19:34:40.393098,4536.93939349,3004.36363606,4124.81818141,0.0,3899.18181779,3503.03030268,3830.15151477,103.03030302,4262.87878745,4055.27272687,4460.18181774,3750.30302993,4173.75757534,3107.39393908,4323.66666623,2612.84848459,4955.24242375,2979.63636334,4202.09090867,4199.5151511,4439.57575713,2105.93939373,4188.18181776,1306.42424229,4857.87878739,2419.15151491,4477.18181773,90.6666666576,42.0,42.0,?
2017-08-01 19:34:40.401087,4536.93939349,3004.36363606,4124.81818141,0.0,3903.30302991,3503.03030268,3829.63636325,103.03030302,4259.27272685,4055.27272687,4457.60606016,3750.30302993,4173.24242383,3107.39393908,4326.24242381,2612.84848459,4967.09090859,2979.63636334,4207.24242382,4199.5151511,4444.21212077,2105.93939373,4189.72727231,1306.42424229,4859.93939345,2419.15151491,4482.33333289,90.6666666576,42.0,42.0,?
2017-08-01 19:34:40.410317,4534.36363591,3004.36363606,4124.30302989,0.0,3903.81818143,3503.03030268,3849.72727234,103.03030302,4253.09090867,4055.27272687,4454.51515107,3750.30302993,4170.15151473,3107.39393908,4322.12121169,2612.84848459,4968.63636314,2979.63636334,4211.36363594,4199.5151511,4444.21212077,2105.93939373,4189.72727231,1306.42424229,4858.39393891,2419.15151491,4483.36363592,90.6666666576,42.0,42.0,?
2017-08-01 19:34:40.417546,4535.90909046,3004.36363606,4122.75757535,0.0,3905.36363597,3503.03030268,3854.87878749,103.03030302,4254.1212117,4055.27272687,4455.03030258,3750.30302993,4173.75757534,3107.39393908,4322.12121169,2612.84848459,4969.66666617,2979.63636334,4212.90909049,4199.5151511,4443.18181774,2105.93939373,4188.69696928,1306.42424229,4857.87878739,2419.15151491,4480.78787834,90.6666666576,42.0,42.0,?
2017-08-01 19:34:40.425136,4537.454545,3004.36363606,4121.72727232,0.0,3909.48484809,3503.03030268,3857.45454507,103.03030302,4259.27272685,4055.27272687,4459.15151471,3750.30302993,4178.39393898,3107.39393908,4327.27272684,2612.84848459,4971.21212072,2979.63636334,4214.45454503,4199.5151511,4445.2424238,2105.93939373,4190.24242382,1306.42424229,4859.42424194,2419.15151491,4478.72727228,90.6666666576,42.0,42.0,?
2017-08-01 19:34:40.433719,4535.39393894,3004.36363606,4121.2121208,0.0,3907.42424203,3503.03030268,3849.21212083,103.03030302,4258.75757533,4055.27272687,4458.63636319,3750.30302993,4167.57575716,3107.39393908,4320.57575714,2612.84848459,4963.9999995,2979.63636334,4208.27272685,4199.5151511,4443.69696925,2105.93939373,4188.18181776,1306.42424229,4857.87878739,2419.15151491,4479.75757531,90.6666666576,42.0,42.0,?
2017-08-01 19:34:40.441118,4532.30302985,3004.36363606,4121.2121208,0.0,3902.7878784,3503.03030268,3831.1818178,103.03030302,4255.15151473,4055.27272687,4452.45454501,3750.30302993,4153.15151474,3107.39393908,4305.12121169,2612.84848459,4940.81818132,2979.63636334,4197.96969655,4199.5151511,4438.03030259,2105.93939373,4182.5151511,1306.42424229,4855.81818133,2419.15151491,4481.30302985,90.6666666576,42.0,42.0,?
2017-08-01 19:34:40.448791,4533.8484844,3004.36363606,4122.24242383,0.0,3905.87878749,3503.03030268,3835.81818143,103.03030302,4257.7272723,4055.27272687,4453.99999955,3750.30302993,4159.33333292,3107.39393908,4303.57575715,2612.84848459,4930.51515102,2979.63636334,4203.63636322,4199.5151511,4442.66666622,2105.93939373,4184.06060564,1306.42424229,4857.87878739,2419.15151491,4482.8484844,90.6666666576,42.0,42.0,?
2017-08-01 19:34:40.456103,4537.454545,3004.36363606,4125.33333292,0.0,3915.15151476,3503.03030268,3867.24242386,103.03030302,4263.39393897,4055.27272687,4461.21212077,3750.30302993,4170.66666625,3107.39393908,4311.81818139,2612.84848459,4945.96969648,2979.63636334,4211.36363594,4199.5151511,4450.39393895,2105.93939373,4189.72727231,1306.42424229,4857.87878739,2419.15151491,4483.87878743,90.6666666576,42.0,42.0,?
2017-08-01 19:34:40.465821,4535.39393894,3004.36363606,4125.33333292,0.0,3919.27272688,3503.03030268,3876.51515113,103.03030302,4262.87878745,4055.27272687,4459.15151471,3750.30302993,4169.1212117,3107.39393908,4314.39393896,2612.84848459,4951.12121163,2979.63636334,4202.60606019,4199.5151511,4445.75757531,2105.93939373,4188.69696928,1306.42424229,4855.30302982,2419.15151491,4484.39393895,90.6666666576,42.0,42.0,?
2017-08-01 19:34:40.477902,4531.27272682,3004.36363606,4124.81818141,0.0,3916.69696931,3503.03030268,3854.36363598,103.03030302,4260.30302988,4055.27272687,4455.5454541,3750.30302993,4166.54545413,3107.39393908,4315.93939351,2612.84848459,4946.48484799,2979.63636334,4195.39393897,4199.5151511,4439.06060562,2105.93939373,4185.09090867,1306.42424229,4855.81818133,2419.15151491,4483.36363592,90.6666666576,42.0,42.0,?
2017-08-01 19:34:40.482073,4530.7575753,3004.36363606,4124.81818141,0.0,3918.24242385,3503.03030268,3837.36363598,103.03030302,4260.30302988,4055.27272687,4458.12121168,3750.30302993,4170.66666625,3107.39393908,4319.0303026,2612.84848459,4956.78787829,2979.63636334,4203.1212117,4199.5151511,4444.21212077,2105.93939373,4186.63636322,1306.42424229,4856.84848436,2419.15151491,4484.39393895,90.6666666576,42.0,42.0,?
2017-08-01 19:34:40.487656,4533.8484844,3004.36363606,4124.81818141,0.0,3927.51515112,3503.03030268,3835.30302992,103.03030302,4258.24242382,4055.27272687,4457.09090865,3750.30302993,4170.66666625,3107.39393908,4318.51515108,2612.84848459,4959.36363587,2979.63636334,4212.39393897,4199.5151511,4449.36363592,2105.93939373,4190.75757534,1306.42424229,4855.30302982,2419.15151491,4493.1515147,90.6666666576,42.0,42.0,?
2017-08-01 19:34:40.496388,4537.96969652,3004.36363606,4123.27272686,0.0,3940.393939,3503.03030268,3831.69696931,103.03030302,4254.1212117,4055.27272687,4451.93939349,3750.30302993,4167.06060564,3107.39393908,4313.87878745,2612.84848459,4945.96969648,2979.63636334,4216.51515109,4199.5151511,4453.99999955,2105.93939373,4191.78787837,1306.42424229,4856.33333285,2419.15151491,4500.87878743,90.6666666576,42.0,42.0,?
2017-08-01 19:34:40.504468,4542.60606015,3004.36363606,4122.24242383,0.0,3949.66666627,3503.03030268,3843.54545416,103.03030302,4252.57575715,4055.27272687,4451.42424198,3750.30302993,4163.45454504,3107.39393908,4308.7272723,2612.84848459,4946.99999951,2979.63636334,4227.33333291,4199.5151511,4464.81818137,2105.93939373,4190.24242382,1306.42424229,4861.99999951,2419.15151491,4504.99999955,90.6666666576,42.0,42.0,?
2017-08-01 19:34:40.511947,4544.1515147,3004.36363606,4122.24242383,0.0,3950.18181779,3503.03030268,3865.69696931,103.03030302,4252.06060564,4055.27272687,4455.5454541,3750.30302993,4160.87878746,3107.39393908,4303.57575715,2612.84848459,4953.6969692,2979.63636334,4237.1212117,4199.5151511,4473.06060561,2105.93939373,4189.72727231,1306.42424229,4861.484848,2419.15151491,4508.60606016,90.6666666576,42.0,42.0,?
2017-08-01 19:34:40.519596,4538.48484803,3004.36363606,4121.72727232,0.0,3944.51515112,3503.03030268,3847.66666628,103.03030302,4251.03030261,4055.27272687,4459.15151471,3750.30302993,4157.27272686,3107.39393908,4299.45454502,2612.84848459,4942.87878738,2979.63636334,4226.30302988,4199.5151511,4468.42424198,2105.93939373,4189.21212079,1306.42424229,4854.7878783,2419.15151491,4504.99999955,90.6666666576,42.0,42.0,?
2017-08-01 19:34:40.527763,4533.8484844,3004.36363606,4122.24242383,0.0,3944.51515112,3503.03030268,3824.4848481,103.03030302,4252.06060564,4055.27272687,4457.09090865,3750.30302993,4154.18181777,3107.39393908,4297.39393896,2612.84848459,4926.90909042,2979.63636334,4215.99999958,4199.5151511,4465.33333289,2105.93939373,4189.72727231,1306.42424229,4855.30302982,2419.15151491,4496.75757531,90.6666666576,42.0,42.0,?
2017-08-01 19:34:40.534989,4536.93939349,3004.36363606,4123.78787838,0.0,3945.03030264,3503.03030268,3847.15151477,103.03030302,4250.51515109,4055.27272687,4448.8484844,3750.30302993,4153.66666625,3107.39393908,4298.42424199,2612.84848459,4926.90909042,2979.63636334,4223.7272723,4199.5151511,4463.27272683,2105.93939373,4188.69696928,1306.42424229,4858.39393891,2419.15151491,4497.78787834,90.6666666576,42.0,42.0,?
2017-08-01 19:34:40.543440,4538.99999955,3004.36363606,4122.75757535,0.0,3939.36363597,3503.03030268,3866.72727234,103.03030302,4247.424242,4055.27272687,4445.2424238,3750.30302993,4155.72727231,3107.39393908,4302.54545412,2612.84848459,4943.90909041,2979.63636334,4223.7272723,4199.5151511,4454.51515107,2105.93939373,4185.09090867,1306.42424229,4854.7878783,2419.15151491,4498.81818137,90.6666666576,42.0,42.0,?
2017-08-01 19:34:40.550782,4535.90909046,3004.36363606,4123.27272686,0.0,3935.24242385,3503.03030268,3856.42424204,103.03030302,4248.96969654,4055.27272687,4447.30302986,3750.30302993,4161.90909049,3107.39393908,4310.27272684,2612.84848459,4956.78787829,2979.63636334,4212.39393897,4199.5151511,4451.42424198,2105.93939373,4185.60606019,1306.42424229,4854.7878783,2419.15151491,4496.24242379,90.6666666576,42.0,42.0,?
2017-08-01 19:34:40.559030,4535.90909046,3004.36363606,4126.36363595,0.0,3934.21212082,3503.03030268,3847.15151477,103.03030302,4252.57575715,4055.27272687,4447.81818137,3750.30302993,4166.54545413,3107.39393908,4317.99999957,2612.84848459,4958.33333284,2979.63636334,4214.45454503,4199.5151511,4456.57575713,2105.93939373,4188.18181776,1306.42424229,4856.33333285,2419.15151491,4496.75757531,90.6666666576,42.0,42.0,?
2017-08-01 19:34:40.566243,4536.93939349,3004.36363606,4126.36363595,0.0,3933.6969693,3503.03030268,3841.99999962,103.03030302,4254.63636321,4055.27272687,4451.93939349,3750.30302993,4168.09090867,3107.39393908,4314.90909048,2612.84848459,4953.18181769,2979.63636334,4222.69696927,4199.5151511,4454.51515107,2105.93939373,4187.15151473,1306.42424229,4856.33333285,2419.15151491,4493.66666622,90.6666666576,42.0,42.0,?
2017-08-01 19:34:40.573514,4536.42424197,3004.36363606,4123.27272686,0.0,3930.60606021,3503.03030268,3836.33333295,103.03030302,4255.15151473,4055.27272687,4456.57575713,3750.30302993,4162.42424201,3107.39393908,4304.60606018,2612.84848459,4938.24242375,2979.63636334,4219.60606018,4199.5151511,4449.87878743,2105.93939373,4185.60606019,1306.42424229,4858.90909042,2419.15151491,4490.57575713,90.6666666576,42.0,42.0,?
2017-08-01 19:34:40.582088,4533.33333288,3004.36363606,4124.30302989,0.0,3921.84848446,3503.03030268,3827.57575719,103.03030302,4253.09090867,4055.27272687,4451.42424198,3750.30302993,4147.99999959,3107.39393908,4296.87878745,2612.84848459,4924.84848436,2979.63636334,4209.8181814,4199.5151511,4447.81818137,2105.93939373,4185.60606019,1306.42424229,4858.90909042,2419.15151491,4488.51515107,90.6666666576,42.0,42.0,?
2017-08-01 19:34:40.593942,4528.18181773,3004.36363606,4127.9090905,0.0,3911.03030264,3503.03030268,3830.15151477,103.03030302,4247.424242,4055.27272687,4443.18181774,3750.30302993,4141.30302989,3107.39393908,4290.18181775,2612.84848459,4926.90909042,2979.63636334,4202.09090867,4199.5151511,4442.66666622,2105.93939373,4183.03030261,1306.42424229,4852.72727224,2419.15151491,4481.81818137,90.6666666576,42.0,42.0,?
2017-08-01 19:34:40.598272,4528.69696924,3004.36363606,4125.33333292,0.0,3909.48484809,3503.03030268,3849.72727234,103.03030302,4239.18181776,4055.27272687,4443.18181774,3750.30302993,4149.03030262,3107.39393908,4292.24242381,2612.84848459,4936.6969692,2979.63636334,4206.21212079,4199.5151511,4441.63636319,2105.93939373,4184.06060564,1306.42424229,4854.27272679,2419.15151491,4480.78787834,90.6666666576,42.0,42.0,?
2017-08-01 19:34:40.606901,4533.8484844,3004.36363606,4124.30302989,0.0,3914.63636324,3503.03030268,3848.69696931,103.03030302,4238.66666624,4055.27272687,4446.78787834,3750.30302993,4157.78787837,3107.39393908,4304.60606018,2612.84848459,4936.6969692,2979.63636334,4208.78787837,4199.5151511,4444.72727228,2105.93939373,4188.18181776,1306.42424229,4860.45454497,2419.15151491,4485.42424198,90.6666666576,42.0,42.0,?
2017-08-01 19:34:40.613677,4533.8484844,3004.36363606,4124.81818141,0.0,3907.93939355,3503.03030268,3835.30302992,103.03030302,4242.78787836,4055.27272687,4442.66666622,3750.30302993,4153.66666625,3107.39393908,4305.12121169,2612.84848459,4925.87878739,2979.63636334,4198.48484806,4199.5151511,4441.12121168,2105.93939373,4188.18181776,1306.42424229,4856.84848436,2419.15151491,4483.87878743,90.6666666576,42.0,42.0,?
2017-08-01 19:34:40.622363,4528.18181773,3004.36363606,4123.27272686,0.0,3897.63636325,3503.03030268,3849.72727234,103.03030302,4245.36363594,4055.27272687,4441.12121168,3750.30302993,4145.42424201,3107.39393908,4297.39393896,2612.84848459,4931.54545405,2979.63636334,4194.36363594,4199.5151511,4433.39393895,2105.93939373,4185.60606019,1306.42424229,4850.66666618,2419.15151491,4478.21212076,90.6666666576,42.0,42.0,?
2017-08-01 19:34:40.628742,4524.06060561,3004.36363606,4125.33333292,0.0,3894.03030264,3503.03030268,3856.42424204,103.03030302,4247.424242,4055.27272687,4444.72727228,3750.30302993,4146.96969656,3107.39393908,4302.0303026,2612.84848459,4955.24242375,2979.63636334,4198.48484806,4199.5151511,4429.78787834,2105.93939373,4184.57575716,1306.42424229,4850.66666618,2419.15151491,4478.72727228,90.6666666576,42.0,42.0,?
2017-08-01 19:34:40.636213,4527.1515147,3004.36363606,4126.36363595,0.0,3895.06060567,3503.03030268,3824.99999962,103.03030302,4248.45454503,4055.27272687,4442.66666622,3750.30302993,4151.09090868,3107.39393908,4308.7272723,2612.84848459,4951.12121163,2979.63636334,4201.06060564,4199.5151511,4429.78787834,2105.93939373,4188.18181776,1306.42424229,4855.81818133,2419.15151491,4480.27272682,90.6666666576,42.0,42.0,?
2017-08-01 19:34:40.646029,4533.33333288,3004.36363606,4122.75757535,0.0,3897.63636325,3503.03030268,3812.12121174,103.03030302,4248.45454503,4055.27272687,4441.12121168,3750.30302993,4149.54545413,3107.39393908,4307.18181775,2612.84848459,4931.03030254,2979.63636334,4203.1212117,4199.5151511,4433.90909047,2105.93939373,4190.24242382,1306.42424229,4857.87878739,2419.15151491,4478.72727228,90.6666666576,42.0,42.0,?
2017-08-01 19:34:40.652151,4537.96969652,3004.36363606,4122.75757535,0.0,3899.69696931,3503.03030268,3846.63636325,103.03030302,4254.63636321,4055.27272687,4444.72727228,3750.30302993,4151.60606019,3107.39393908,4311.81818139,2612.84848459,4948.03030254,2979.63636334,4207.75757534,4199.5151511,4438.5454541,2105.93939373,4188.18181776,1306.42424229,4856.84848436,2419.15151491,4480.78787834,90.6666666576,42.0,42.0,?
2017-08-01 19:34:40.659365,4537.96969652,3004.36363606,4126.36363595,0.0,3899.18181779,3503.03030268,3873.42424204,103.03030302,4258.75757533,4055.27272687,4447.81818137,3750.30302993,4160.87878746,3107.39393908,4321.60606017,2612.84848459,4974.30302981,2979.63636334,4211.36363594,4199.5151511,4441.12121168,2105.93939373,4186.1212117,1306.42424229,4856.33333285,2419.15151491,4485.93939349,90.6666666576,42.0,42.0,?
2017-08-01 19:34:40.667223,4537.96969652,3004.36363606,4123.78787838,0.0,3898.15151476,3503.03030268,3868.27272689,103.03030302,4254.1212117,4055.27272687,4445.75757531,3750.30302993,4160.36363595,3107.39393908,4315.93939351,2612.84848459,4961.42424193,2979.63636334,4209.8181814,4199.5151511,4442.66666622,2105.93939373,4187.15151473,1306.42424229,4856.33333285,2419.15151491,4486.96969652,90.6666666576,42.0,42.0,?
2017-08-01 19:34:40.676338,4541.06060561,3004.36363606,4120.69696928,0.0,3899.69696931,3503.03030268,3843.54545416,103.03030302,4248.96969654,4055.27272687,4444.21212077,3750.30302993,4152.63636322,3107.39393908,4302.0303026,2612.84848459,4937.72727223,2979.63636334,4209.8181814,4199.5151511,4442.66666622,2105.93939373,4187.66666625,1306.42424229,4857.87878739,2419.15151491,4484.90909046,90.6666666576,42.0,42.0,?
2017-08-01 19:34:40.684733,4540.03030258,3004.36363606,4122.75757535,0.0,3896.60606022,3503.03030268,3815.21212083,103.03030302,4252.57575715,4055.27272687,4446.78787834,3750.30302993,4156.24242383,3107.39393908,4300.99999957,2612.84848459,4936.6969692,2979.63636334,4211.87878746,4199.5151511,4436.99999956,2105.93939373,4186.1212117,1306.42424229,4858.90909042,2419.15151491,4482.8484844,90.6666666576,42.0,42.0,?
2017-08-01 19:34:40.691247,4531.78787833,3004.36363606,4125.33333292,0.0,3888.87878749,3503.03030268,3819.84848447,103.03030302,4257.7272723,4055.27272687,4449.36363592,3750.30302993,4160.36363595,3107.39393908,4303.57575715,2612.84848459,4934.63636314,2979.63636334,4203.63636322,4199.5151511,4428.2424238,2105.93939373,4184.06060564,1306.42424229,4854.27272679,2419.15151491,4478.21212076,90.6666666576,42.0,42.0,?
2017-08-01 19:34:40.698999,4524.57575712,3004.36363606,4125.33333292,0.0,3887.33333294,3503.03030268,3860.54545416,103.03030302,4258.24242382,4055.27272687,4448.33333289,3750.30302993,4157.78787837,3107.39393908,4302.54545412,2612.84848459,4929.48484799,2979.63636334,4193.84848443,4199.5151511,4423.09090865,2105.93939373,4182.5151511,1306.42424229,4847.06060558,2419.15151491,4470.99999955,90.6666666576,42.0,42.0,?
2017-08-01 19:34:40.706124,4527.1515147,3004.36363606,4123.27272686,0.0,3892.99999961,3503.03030268,3868.7878784,103.03030302,4255.15151473,4055.27272687,4451.93939349,3750.30302993,4161.90909049,3107.39393908,4308.21212078,2612.84848459,4942.87878738,2979.63636334,4207.24242382,4199.5151511,4426.69696925,2105.93939373,4183.03030261,1306.42424229,4850.66666618,2419.15151491,4470.99999955,90.6666666576,42.0,42.0,?
2017-08-01 19:34:40.714907,4534.87878743,3004.36363606,4124.30302989,0.0,3889.90909052,3503.03030268,3835.81818143,103.03030302,4253.60606018,4055.27272687,4459.15151471,3750.30302993,4170.15151473,3107.39393908,4314.90909048,2612.84848459,4953.6969692,2979.63636334,4209.8181814,4199.5151511,4432.87878744,2105.93939373,4184.06060564,1306.42424229,4860.45454497,2419.15151491,4474.09090864,90.6666666576,42.0,42.0,?
2017-08-01 19:34:40.722350,4535.39393894,3004.36363606,4124.81818141,0.0,3880.12121173,3503.03030268,3828.60606022,103.03030302,4251.54545412,4055.27272687,4457.60606016,3750.30302993,4166.54545413,3107.39393908,4310.27272684,2612.84848459,4945.45454496,2979.63636334,4188.69696928,4199.5151511,4433.90909047,2105.93939373,4183.03030261,1306.42424229,4860.45454497,2419.15151491,4475.63636319,90.6666666576,42.0,42.0,?
2017-08-01 19:34:40.730028,4534.36363591,2996.12121182,4122.24242383,0.0,3886.81818143,3503.03030268,3833.75757537,103.03030302,4251.03030261,4055.27272687,4454.51515107,3750.30302993,4164.99999958,3107.39393908,4311.81818139,2612.84848459,4944.93939344,2979.63636334,4196.93939352,4199.5151511,4437.51515107,2105.93939373,4185.09090867,1306.42424229,4856.33333285,2419.15151491,4479.75757531,90.6666666576,42.0,42.0,?
2017-08-01 19:34:40.738759,4535.39393894,2996.12121182,4122.24242383,4.1212121208,3896.60606022,3503.03030268,3837.87878749,103.03030302,4257.21212079,4055.27272687,4459.66666622,3750.30302993,4175.30302989,3107.39393908,4322.12121169,2612.84848459,4955.24242375,2979.63636334,4218.57575715,4199.5151511,4440.09090865,2105.93939373,4188.18181776,1306.42424229,4855.81818133,2419.15151491,4481.81818137,90.6666666576,42.0,42.0,?
2017-08-01 19:34:40.745107,4534.36363591,2996.12121182,4123.78787838,4.1212121208,3889.393939,3503.03030268,3845.09090871,103.03030302,4261.33333291,4055.27272687,4463.78787834,3750.30302993,4178.39393898,3107.39393908,4318.51515108,2612.84848459,4956.78787829,2979.63636334,4206.21212079,4199.5151511,4431.33333289,2105.93939373,4186.1212117,1306.42424229,4854.7878783,2419.15151491,4474.60606016,53.5757575704,42.0,42.0,?
2017-08-01 19:34:40.753060,4533.33333288,2996.12121182,4124.81818141,4.1212121208,3881.15151476,3503.03030268,3835.81818143,103.03030302,4261.33333291,4055.27272687,4464.30302986,3750.30302993,4173.24242383,3107.39393908,4308.7272723,2612.84848459,4953.6969692,2979.63636334,4194.87878746,4199.5151511,4422.06060562,2105.93939373,4182.5151511,1306.42424229,4852.72727224,2419.15151491,4468.42424198,53.5757575704,42.0,42.0,?
2017-08-01 19:34:40.762627,4531.27272682,2996.12121182,4125.33333292,4.1212121208,3875.4848481,3503.03030268,3844.57575719,173.090909074,4259.27272685,4055.27272687,4462.2424238,3750.30302993,4169.63636322,3107.39393908,4305.12121169,2612.84848459,4946.48484799,2979.63636334,4197.45454503,4199.5151511,4416.90909047,2105.93939373,4179.93939352,1306.42424229,4852.21212073,2419.15151491,4470.99999955,53.5757575704,42.0,42.0,?
2017-08-01 19:34:40.770001,4528.18181773,2996.12121182,4121.72727232,4.1212121208,3871.36363598,3503.03030268,3853.33333295,173.090909074,4252.06060564,4055.27272687,4457.09090865,3750.30302993,4166.03030261,3107.39393908,4303.06060563,2612.84848459,4930.51515102,2979.63636334,4181.48484807,4199.5151511,4408.15151471,2105.93939373,4178.90909049,1306.42424229,4848.60606012,2419.15151491,4468.42424198,53.5757575704,42.0,42.0,?
2017-08-01 19:34:40.777352,4527.1515147,2996.12121182,4120.69696928,4.1212121208,3868.7878784,3503.03030268,3831.1818178,173.090909074,4246.90909048,4055.27272687,4451.93939349,3750.30302993,4158.8181814,3107.39393908,4296.87878745,2612.84848459,4922.27272678,2979.63636334,4167.06060564,4199.5151511,4403.51515107,2105.93939373,4178.39393898,1306.42424229,4847.57575709,2419.15151491,4464.81818137,53.5757575704,42.0,42.0,?
2017-08-01 19:34:40.784750,4528.18181773,2996.12121182,4126.36363595,4.1212121208,3867.24242386,3503.03030268,3822.93939356,173.090909074,4251.54545412,4055.27272687,4452.96969652,3750.30302993,4153.66666625,3099.15151484,4294.30302987,2612.84848459,4926.90909042,2979.63636334,4174.78787837,4199.5151511,4411.75757532,2105.93939373,4178.39393898,1306.42424229,4850.66666618,2419.15151491,4466.36363592,53.5757575704,42.0,42.0,?
2017-08-01 19:34:40.792168,4528.18181773,2996.12121182,4125.84848444,4.1212121208,3872.39393901,3503.03030268,3826.03030265,173.090909074,4262.87878745,4055.27272687,4461.21212077,3750.30302993,4157.27272686,3099.15151484,4299.45454502,2604.60606035,4927.93939345,2979.63636334,4179.42424201,4199.5151511,4422.57575713,2105.93939373,4180.45454504,1306.42424229,4850.66666618,2419.15151491,4469.96969652,53.5757575704,42.0,42.0,?
2017-08-01 19:34:40.800636,4527.66666621,2996.12121182,4123.78787838,4.1212121208,3875.99999961,3503.03030268,3833.24242386,173.090909074,4270.09090866,4055.27272687,4464.30302986,3750.30302993,4161.39393898,3099.15151484,4304.60606018,2604.60606035,4927.42424193,2975.51515122,4185.09090867,4199.5151511,4425.66666622,2105.93939373,4182.5151511,1306.42424229,4849.12121164,2419.15151491,4472.5454541,53.5757575704,42.0,42.0,?
2017-08-01 19:34:40.809301,4526.12121167,2996.12121182,4126.36363595,4.1212121208,3872.39393901,3503.03030268,3839.93939356,173.090909074,4262.87878745,4055.27272687,4454.51515107,3750.30302993,4158.8181814,3099.15151484,4303.57575715,2604.60606035,4927.42424193,2975.51515122,4200.03030261,4215.99999958,4422.57575713,2105.93939373,4183.03030261,1306.42424229,4848.60606012,2419.15151491,4471.51515107,53.5757575704,42.0,42.0,?
2017-08-01 19:34:40.817042,4525.09090864,2996.12121182,4125.84848444,4.1212121208,3872.39393901,3503.03030268,3823.96969659,173.090909074,4252.57575715,4055.27272687,4448.8484844,3750.30302993,4159.33333292,3099.15151484,4304.60606018,2604.60606035,4926.3939389,2975.51515122,4205.18181776,4215.99999958,4418.96969653,2044.12121192,4182.5151511,1306.42424229,4850.66666618,2419.15151491,4468.93939349,53.5757575704,42.0,42.0,?
2017-08-01 19:34:40.826887,4528.69696924,2996.12121182,4124.30302989,4.1212121208,3877.03030264,3503.03030268,3834.7878784,173.090909074,4255.15151473,4055.27272687,4457.09090865,3750.30302993,4168.60606019,3099.15151484,4312.3333329,2604.60606035,4934.63636314,2975.51515122,4204.66666625,4215.99999958,4418.45454501,2044.12121192,4184.57575716,1302.30303017,4851.69696921,2419.15151491,4469.45454501,53.5757575704,42.0,42.0,?
2017-08-01 19:34:40.832117,4532.81818136,2996.12121182,4125.84848444,4.1212121208,3875.99999961,3503.03030268,3880.63636325,173.090909074,4256.69696927,4055.27272687,4460.69696925,3750.30302993,4169.63636322,3099.15151484,4317.99999957,2604.60606035,4949.57575708,2975.51515122,4209.30302988,4215.99999958,4421.5454541,2044.12121192,4187.15151473,1302.30303017,4852.72727224,2402.66666643,4472.5454541,53.5757575704,42.0,42.0,?
2017-08-01 19:34:40.840716,4531.27272682,2996.12121182,4124.81818141,4.1212121208,3878.06060567,3503.03030268,3866.72727234,173.090909074,4251.54545412,4055.27272687,4455.5454541,3750.30302993,4163.45454504,3099.15151484,4318.51515108,2604.60606035,4962.96969647,2975.51515122,4211.36363594,4207.75757534,4425.15151471,2044.12121192,4185.09090867,1302.30303017,4853.24242376,2402.66666643,4471.51515107,53.5757575704,42.0,42.0,?
2017-08-01 19:34:40.847583,4528.18181773,2996.12121182,4123.27272686,4.1212121208,3881.15151476,3503.03030268,3816.75757538,173.090909074,4255.66666624,4055.27272687,4460.18181774,3750.30302993,4167.06060564,3099.15151484,4316.45454502,2604.60606035,4968.63636314,2975.51515122,4205.69696928,4207.75757534,4424.12121168,2052.36363616,4184.06060564,1302.30303017,4851.69696921,2402.66666643,4468.93939349,53.5757575704,42.0,42.0,?
2017-08-01 19:34:40.855104,4531.78787833,2996.12121182,4125.33333292,4.1212121208,3872.90909052,3503.03030268,3827.06060568,173.090909074,4262.87878745,4055.27272687,4471.51515107,3750.30302993,4173.24242383,3099.15151484,4313.87878745,2604.60606035,4965.03030253,2975.51515122,4200.03030261,4207.75757534,4422.57575713,2052.36363616,4186.63636322,1302.30303017,4853.24242376,2402.66666643,4469.96969652,53.5757575704,42.0,42.0,?
2017-08-01 19:34:40.865303,4533.8484844,2996.12121182,4124.30302989,4.1212121208,3869.81818143,3503.03030268,3849.72727234,173.090909074,4263.39393897,4055.27272687,4473.06060561,3750.30302993,4176.33333292,3099.15151484,4316.96969654,2604.60606035,4961.42424193,2975.51515122,4207.24242382,4207.75757534,4425.66666622,2052.36363616,4190.24242382,1302.30303017,4857.87878739,2402.66666643,4472.03030258,53.5757575704,42.0,42.0,?
2017-08-01 19:34:40.870729,4531.27272682,2996.12121182,4124.81818141,4.1212121208,3871.87878749,3503.03030268,3849.72727234,173.090909074,4265.45454503,4055.27272687,4470.99999955,3750.30302993,4181.48484807,3099.15151484,4323.66666623,2604.60606035,4957.30302981,2975.51515122,4209.30302988,4207.75757534,4426.69696925,2052.36363616,4189.21212079,1302.30303017,4858.39393891,2402.66666643,4473.06060561,53.5757575704,42.0,42.0,?
2017-08-01 19:34:40.878164,4530.24242379,2996.12121182,4126.87878747,4.1212121208,3863.63636325,3503.03030268,3852.30302992,173.090909074,4263.39393897,4055.27272687,4473.06060561,3750.30302993,4185.09090867,3099.15151484,4322.6363632,2604.60606035,4946.48484799,2975.51515122,4184.57575716,4207.75757534,4418.96969653,2052.36363616,4186.1212117,1302.30303017,4852.21212073,2402.66666643,4467.90909046,53.5757575704,42.0,42.0,?
2017-08-01 19:34:40.887915,4529.72727227,2996.12121182,4123.27272686,4.1212121208,3858.99999961,3503.03030268,3833.24242386,173.090909074,4258.24242382,4055.27272687,4472.03030258,3750.30302993,4183.54545413,3099.15151484,4320.06060563,2604.60606035,4941.33333284,2975.51515122,4180.45454504,4207.75757534,4414.84848441,2052.36363616,4186.63636322,1302.30303017,4849.12121164,2402.66666643,4462.2424238,53.5757575704,42.0,42.0,?
