Timestamp,F3 Value,F3 Quality,FC5 Value,FC5 Quality,F7 Value,F7 Quality,T7 Value,T7 Quality,P7 Value,P7 Quality,O1 Value,O1 Quality,O2 Value,O2 Quality,P8 Value,P8 Quality,T8 Value,T8 Quality,F8 Value,F8 Quality,AF4 Value,AF4 Quality,FC6 Value,FC6 Quality,F4 Value,F4 Quality,AF3 Value,AF3 Quality,X Value,Y Value,Z Value
2017-07-31 18:32:57.918868,4443.18181774,0,4184.57575716,0,3828.09090871,0,3746.69696932,0,4219.60606018,0,3156.33333302,0,4109.36363595,0,4261.33333291,0,4817.1818177,0,4075.87878747,0,4309.24242381,0,4237.1212117,0,4749.18181771,0,4407.6363632,0,42.0,42.0,?
2017-07-31 18:32:57.919523,4393.21212077,0,4222.18181776,0,3724.03030266,0,3746.69696932,0,4219.60606018,0,5557.4545449,0,4136.66666625,0,4187.15151473,0,4817.1818177,3000.24242394,4075.87878747,0,4310.27272684,0,4237.1212117,0,4734.24242377,0,4349.9393935,0,42.0,42.0,?
2017-07-31 18:32:57.922757,4389.60606017,0,4219.09090867,0,3724.03030266,0,3745.15151478,0,4224.24242382,0,5564.1515146,0,4128.42424201,0,4182.5151511,0,4817.1818177,3000.24242394,4083.09090868,4125.33333292,4310.27272684,0,4238.15151473,0,4728.06060559,0,4345.30302987,0,42.0,42.0,?
2017-07-31 18:32:57.926219,4380.84848441,0,4210.33333291,0,3718.87878751,0,3745.15151478,0,4221.66666624,0,5557.96969641,0,4116.57575716,0,4170.66666625,0,4815.63636315,3000.24242394,4075.36363596,4125.33333292,4302.54545412,3647.27272691,4236.09090867,0,4713.63636317,0,4338.60606017,0,42.0,42.0,?
2017-07-31 18:32:57.933889,4374.66666623,0,4214.45454503,0,3715.2727269,0,3739.48484811,0,4207.75757534,0,5543.03030248,0,4105.24242383,0,4158.8181814,0,4809.96969649,3000.24242394,4062.48484808,4125.33333292,4291.21212078,3647.27272691,4237.1212117,0.0,4712.09090862,0,4338.60606017,0,42.0,42.0,?
2017-07-31 18:32:57.937296,4375.69696926,0,4218.57575715,0,3720.93939357,0,3738.45454508,0,4207.24242382,0,5547.1515146,0,4110.39393898,0,4163.96969655,0,4804.81818134,3000.24242394,4064.03030262,4125.33333292,4292.24242381,3647.27272691,4237.63636321,0.0,4716.21212074,3033.21212091,4344.27272684,0,42.0,42.0,?
2017-07-31 18:32:57.940324,4382.39393896,0,4211.87878746,0,3725.06060569,0,3743.60606023,0,4219.60606018,0,5561.0606055,0,4121.2121208,0,4172.72727231,0,4806.36363588,3000.24242394,4071.24242384,4133.57575716,4299.96969654,3647.27272691,4236.09090867,0.0,4716.72727226,3033.21212091,4347.36363593,0,42.0,42.0,?
2017-07-31 18:32:57.943998,4383.9393935,0,4213.424242,0,3719.90909054,0,3742.06060569,0,4219.60606018,0,5562.60606005,0,4120.69696928,0,4171.18181776,0,4808.42424194,3000.24242394,4068.15151474,4133.57575716,4296.36363593,3651.39393903,4236.09090867,0.0,4719.81818135,3033.21212091,4345.30302987,0,42.0,42.0,?
2017-07-31 18:32:57.953390,4375.69696926,0,4214.96969655,0,3715.2727269,0,3738.45454508,0,4210.33333291,0,5554.87878732,0,4113.48484807,0,4164.99999958,0,4801.72727225,3000.24242394,4057.84848444,4133.57575716,4285.54545412,3651.39393903,4236.09090867,0.0,4720.84848438,3033.21212091,4340.66666623,0,42.0,42.0,?
2017-07-31 18:32:57.957742,4368.48484805,0,4210.33333291,0,3713.72727236,0,3739.99999963,0,4206.21212079,0,5551.78787823,0,4107.81818141,0,4157.78787837,0,4798.12121164,3000.24242394,4054.75757535,4133.57575716,4284.51515109,3651.39393903,4236.60606018,0.0,4714.6666662,3033.21212091,4339.6363632,0,42.0,42.0,?
2017-07-31 18:32:57.962140,4367.45454502,0,4214.45454503,0,3711.15151478,0,3738.45454508,0,4201.57575716,0,5556.42424187,0,4103.18181777,0,4152.63636322,0,4802.24242376,3000.24242394,4061.96969656,4133.57575716,4287.09090866,3651.39393903,4238.66666624,0.0,4708.99999953,3033.21212091,4340.15151472,0,42.0,42.0,?
2017-07-31 18:32:57.965452,4367.45454502,0,4212.90909049,0,3707.54545417,0,3731.24242387,0,4194.36363594,0,5555.90909035,0,4100.09090868,0,4151.60606019,0,4801.21212073,3000.24242394,4062.48484808,4133.57575716,4286.06060563,3651.39393903,4238.15151473,0.0,4709.51515104,3033.21212091,4338.09090866,0,42.0,42.0,?
2017-07-31 18:32:57.969071,4365.39393896,0,4211.36363594,0,3705.48484811,0,3726.60606023,0,4188.69696928,0,5544.06060551,0,4099.57575717,0,4151.09090868,0,4794.51515104,3000.24242394,4051.66666626,4133.57575716,4281.93939351,3651.39393903,4235.57575715,0.0,4707.45454498,3033.21212091,4335.51515108,0,42.0,42.0,?
2017-07-31 18:32:57.973056,4364.87878744,0,4215.99999958,0,3705.99999963,0,3727.63636326,0,4184.06060564,0,5537.87878733,0,4102.66666626,0,4155.2121208,0,4798.12121164,3000.24242394,4050.63636323,4133.57575716,4279.36363594,3651.39393903,4236.60606018,0.0,4703.84848438,3033.21212091,4331.90909048,0,42.0,42.0,?
2017-07-31 18:32:57.976396,4361.27272684,0,4212.90909049,0,3704.9696966,0,3726.60606023,0,4179.93939352,0,5540.4545449,0,4099.57575717,0,4155.2121208,0,4799.66666619,3000.24242394,4048.06060566,4133.57575716,4279.87878745,3651.39393903,4236.60606018,0.0,4699.72727226,3033.21212091,4324.18181775,0,42.0,42.0,?
2017-07-31 18:32:57.979638,4353.03030259,0,4208.27272685,0,3698.2727269,0,3724.54545417,0,4177.36363595,0,5535.81818126,0,4088.75757535,0,4142.84848443,0,4788.33333285,3000.24242394,4034.15151475,4133.57575716,4272.66666624,3651.39393903,4234.03030261,0.0,4693.03030256,3033.21212091,4320.06060563,0,42.0,42.0,?
2017-07-31 18:32:57.984194,4353.54545411,0,4209.8181814,0,3695.69696933,0,3725.06060569,0,4177.87878746,0,5531.69696914,0,4087.2121208,0,4138.72727231,0,4780.60606013,3000.24242394,4032.6060602,4133.57575716,4265.45454503,3651.39393903,4235.06060564,0.0,4692.51515105,3033.21212091,4323.66666623,0,42.0,42.0,?
2017-07-31 18:32:57.987483,4358.18181775,0,4212.39393897,0,3695.18181781,0,3716.30302993,0,4173.24242383,0,5527.06060551,0,4088.24242383,0,4141.8181814,0,4781.63636316,3000.24242394,4036.21212081,4133.57575716,4264.424242,3651.39393903,4235.57575715,0.0,4696.63636317,3033.21212091,4325.21212078,0,42.0,42.0,?
2017-07-31 18:32:57.992040,4351.48484805,0,4207.75757534,0,3688.99999963,0,3708.06060569,0,4167.06060564,0,5519.33333278,0,4084.12121171,0,4142.33333292,0,4784.72727225,3000.24242394,4032.6060602,4133.57575716,4258.24242382,3651.39393903,4232.99999958,0.0,4686.84848438,3033.21212091,4319.54545411,0,42.0,42.0,?
2017-07-31 18:32:58.000772,4339.12121169,0,4203.1212117,0,3687.45454509,0,3715.78787842,0,4169.63636322,0,5517.27272672,0,4083.6060602,0,4141.8181814,0,4781.12121164,3000.24242394,4025.90909051,4133.57575716,4253.09090867,3651.39393903,4235.06060564,0.0,4677.57575711,3033.21212091,4314.90909048,0,42.0,42.0,?
2017-07-31 18:32:58.008035,4339.12121169,0,4206.72727231,0,3691.06060569,0,3716.81818145,0,4171.69696928,0,5517.27272672,0,4084.12121171,0,4140.27272686,0,4771.33333286,3000.24242394,4020.24242384,4133.57575716,4255.15151473,3651.39393903,4236.60606018,0.0,4680.15151468,3033.21212091,4313.36363593,0,42.0,42.0,?
2017-07-31 18:32:58.018106,4345.81818138,0,4207.75757534,0,3690.03030266,0,3709.60606024,0,4168.60606019,0,5517.27272672,0,4086.18181777,0,4143.36363595,0,4771.84848437,3000.24242394,4024.36363596,4133.57575716,4257.21212079,3651.39393903,4234.03030261,0.0,4682.72727226,3033.21212091,4314.90909048,0,42.0,42.0,?
2017-07-31 18:32:58.023916,4344.78787835,0,4205.69696928,0,3686.93939357,0,3713.21212084,0,4170.15151473,0,5520.36363581,0,4091.84848444,0,4151.09090868,0,4782.66666619,3000.24242394,4035.18181778,4133.57575716,4260.30302988,3651.39393903,4235.06060564,0.0,4682.72727226,3033.21212091,4320.06060563,0,42.0,42.0,?
2017-07-31 18:32:58.030089,4341.69696926,0,4208.78787837,0,3689.51515115,0,3717.84848448,0,4175.30302989,0,5525.51515096,0,4093.39393898,0,4150.06060565,0,4785.24242376,3000.24242394,4035.69696929,4133.57575716,4260.81818139,3651.39393903,4237.1212117,0.0,4683.24242377,3033.21212091,4318.51515108,0,42.0,42.0,?
2017-07-31 18:32:58.038590,4346.3333329,0,4211.87878746,0,3692.09090872,0,3715.2727269,0,4176.84848443,0,5527.06060551,0,4090.30302989,0,4144.90909049,0,4782.15151467,3000.24242394,4027.96969657,4133.57575716,4257.21212079,3651.39393903,4236.09090867,0.0,4684.2727268,3033.21212091,4315.93939351,0,42.0,42.0,?
2017-07-31 18:32:58.046131,4349.42424199,0,4206.72727231,0,3691.06060569,0,3716.81818145,0,4174.78787837,0,5523.96969642,0,4086.69696929,0,4148.5151511,0,4785.75757528,3000.24242394,4027.96969657,4133.57575716,4257.7272723,3651.39393903,4233.51515109,0.0,4688.39393893,3033.21212091,4320.57575714,0,42.0,42.0,?
2017-07-31 18:32:58.056343,4342.72727229,0,4202.60606019,0,3689.51515115,0,3725.5757572,0,4177.36363595,0,5518.81818127,0,4089.27272686,0,4155.2121208,0,4792.45454498,3000.24242394,4036.72727232,4133.57575716,4259.27272685,3651.39393903,4233.51515109,0.0,4689.93939347,3033.21212091,4320.06060563,0,42.0,42.0,?
2017-07-31 18:32:58.063076,4333.96969654,0,4206.72727231,0,3684.87878751,0,3722.99999963,0,4175.8181814,0,5512.63636309,0,4088.75757535,0,4150.06060565,0,4789.36363588,3000.24242394,4035.69696929,4133.57575716,4254.1212117,3651.39393903,4237.1212117,0.0,4685.81818135,3033.21212091,4313.87878745,0,42.0,42.0,?
2017-07-31 18:32:58.073727,4327.78787836,0,4205.69696928,0,3676.63636327,0,3707.03030266,0,4163.96969655,0,5506.96969642,0,4080.51515111,0,4140.27272686,0,4780.60606013,3000.24242394,4020.75757536,4133.57575716,4245.87878745,3651.39393903,4236.60606018,0.0,4678.09090862,3033.21212091,4308.7272723,0,42.0,42.0,?
2017-07-31 18:32:58.077043,4325.21212078,0,4199.5151511,0,3672.51515115,0,3699.81818145,0,4159.84848443,0,5506.4545449,0,4080.51515111,0,4145.42424201,0,4788.33333285,3000.24242394,4018.18181778,4133.57575716,4245.87878745,3651.39393903,4234.54545412,0.0,4680.15151468,3033.21212091,4310.27272684,0,42.0,42.0,?
2017-07-31 18:32:58.085009,4330.36363593,0,4200.54545413,0,3671.99999963,0,3705.99999963,0,4165.5151511,0,5514.18181763,0,4088.75757535,0,4155.72727231,0,4801.72727225,3000.24242394,4029.51515111,4133.57575716,4252.57575715,3651.39393903,4237.1212117,0.0,4695.09090862,3033.21212091,4315.93939351,0,42.0,42.0,?
2017-07-31 18:32:58.095001,4331.39393896,0,4204.15151473,0,3670.9696966,0,3704.9696966,0,4164.48484807,0,5517.27272672,0,4085.66666626,0,4150.06060565,0,4796.5757571,3000.24242394,4036.21212081,4133.57575716,4252.57575715,3651.39393903,4238.15151473,0.0,4700.24242377,3033.21212091,4312.3333329,0,42.0,42.0,?
2017-07-31 18:32:58.100996,4327.78787836,0,4204.66666625,0,3674.57575721,0,3700.33333296,0,4160.87878746,0,5516.24242369,0,4078.96969656,0,4139.75757534,0,4789.36363588,3000.24242394,4036.21212081,4133.57575716,4249.99999958,3651.39393903,4235.06060564,0.0,4695.09090862,3033.21212091,4310.78787836,0,42.0,42.0,?
2017-07-31 18:32:58.109019,4332.42424199,0,4204.66666625,0,3680.75757539,0,3703.42424205,0,4166.03030261,0,5522.93939339,0,4079.99999959,0,4140.27272686,0,4792.45454498,3000.24242394,4028.9999996,4133.57575716,4245.87878745,3651.39393903,4234.03030261,0.0,4690.45454499,3033.21212091,4317.99999957,0,42.0,42.0,?
2017-07-31 18:32:58.120200,4332.93939351,0,4201.57575716,0,3677.15151478,0,3705.48484811,0,4171.69696928,0,5527.57575702,0,4075.87878747,0,4138.72727231,0,4786.27272679,3000.24242394,4017.15151475,4133.57575716,4236.60606018,3651.39393903,4234.03030261,0.0,4682.21212074,3033.21212091,4314.90909048,0,42.0,42.0,?
2017-07-31 18:32:58.125720,4324.18181775,0,4199.5151511,0,3670.45454509,0,3703.93939357,0,4167.57575716,0,5520.36363581,0,4069.69696929,0,4134.60606019,0,4777.51515104,3000.24242394,4015.6060602,4133.57575716,4228.87878746,3651.39393903,4234.03030261,0.0,4672.93939347,3033.21212091,4306.66666624,0,42.0,42.0,?
2017-07-31 18:32:58.132465,4322.6363632,0,4202.60606019,0,3674.57575721,0,3704.9696966,0,4162.42424201,0,5511.09090854,0,4073.3030299,0,4140.27272686,0,4787.30302982,3000.24242394,4021.27272687,4133.57575716,4227.33333291,3651.39393903,4234.03030261,0.0,4671.39393893,3033.21212091,4306.15151472,0,42.0,42.0,?
2017-07-31 18:32:58.141178,4328.81818139,0,4205.18181776,0,3676.63636327,0,3700.33333296,0,4164.48484807,0,5504.90909036,0,4072.27272687,0,4141.30302989,0,4790.90909043,3000.24242394,4019.21212081,4133.57575716,4230.424242,3651.39393903,4234.54545412,0.0,4671.39393893,3033.21212091,4307.69696927,0,42.0,42.0,?
2017-07-31 18:32:58.148692,4321.60606017,0,4200.54545413,0,3667.363636,0,3692.09090872,0,4164.48484807,0,5497.69696915,0,4060.42424202,0,4128.42424201,0,4773.39393892,3000.24242394,4007.87878748,4133.57575716,4223.7272723,3651.39393903,4232.99999958,0.0,4661.09090862,3033.21212091,4301.51515109,0,42.0,42.0,?
2017-07-31 18:32:58.159379,4308.7272723,0,4196.424242,0,3657.57575721,0,3691.57575721,0,4164.99999958,0,5497.69696915,0,4057.33333293,0,4124.30302989,0,4765.15151467,3000.24242394,3995.51515112,4133.57575716,4212.90909049,3651.39393903,4233.51515109,0.0,4656.45454499,3033.21212091,4293.78787836,0,42.0,42.0,?
2017-07-31 18:32:58.165159,4310.78787836,0,4195.90909049,0,3658.09090873,0,3699.81818145,0,4171.69696928,0,5501.81818127,0,4064.54545414,0,4134.09090868,0,4772.36363589,3000.24242394,3997.06060566,4133.57575716,4212.90909049,3651.39393903,4235.57575715,0.0,4664.69696923,3033.21212091,4296.36363593,0,42.0,42.0,?
2017-07-31 18:32:58.173286,4319.54545411,0,4201.57575716,0,3669.93939357,0,3700.33333296,0,4161.39393898,0,5488.93939339,0,4061.45454505,0,4130.48484807,0,4768.24242377,3000.24242394,4007.36363596,4133.57575716,4215.48484806,3651.39393903,4234.54545412,0.0,4664.69696923,3033.21212091,4308.21212078,0,42.0,42.0,?
2017-07-31 18:32:58.182622,4319.54545411,0,4201.57575716,0,3669.93939357,0,3700.33333296,0,4161.39393898,0,5488.93939339,0,4061.45454505,0,4130.48484807,0,4768.24242377,3000.24242394,4007.36363596,4133.57575716,4215.48484806,3651.39393903,4234.54545412,0.0,4664.69696923,3033.21212091,4308.21212078,0,42.0,42.0,?
2017-07-31 18:32:58.187096,4329.3333329,0,4201.06060564,0,3670.9696966,0,3702.90909054,0,4162.42424201,0,5495.63636309,0,4064.03030262,0,4130.48484807,0,4777.51515104,3000.24242394,4010.96969657,4133.57575716,4221.66666624,3651.39393903,4232.99999958,0.0,4671.90909044,3033.21212091,4315.93939351,0,42.0,42.0,?
2017-07-31 18:32:58.195788,4327.27272684,0,4198.99999958,0,3669.42424206,0,3701.36363599,0,4161.39393898,0,5499.75757521,0,4064.54545414,0,4130.99999959,0,4775.45454498,3000.24242394,4008.39393899,4133.57575716,4220.1212117,3651.39393903,4234.03030261,0.0,4668.81818135,3033.21212091,4312.84848442,0,42.0,42.0,?
2017-07-31 18:32:58.205072,4314.39393896,0,4196.93939352,0,3664.27272691,0,3694.6666663,0,4155.72727231,0,5497.69696915,0,4061.45454505,0,4124.81818141,0,4763.60606013,3000.24242394,3997.57575718,4133.57575716,4211.36363594,3651.39393903,4234.03030261,0.0,4663.15151469,3033.21212091,4305.12121169,0,42.0,42.0,?
2017-07-31 18:32:58.210381,4308.7272723,0,4196.93939352,0,3655.51515115,0,3690.03030266,0,4160.36363595,0,5502.8484843,0,4065.57575717,0,4124.81818141,0,4766.69696922,3000.24242394,3996.03030263,4133.57575716,4204.15151473,3651.39393903,4228.36363594,0.0,4661.60606014,3033.21212091,4298.93939351,0,42.0,42.0,?
2017-07-31 18:32:58.218384,4313.36363593,0,4198.99999958,0,3654.99999963,0,3687.45454509,0,4163.96969655,0,5507.48484793,0,4069.18181777,0,4130.48484807,0,4768.75757528,3000.24242394,4000.15151475,4133.57575716,4201.57575716,3651.39393903,4230.424242,0.0,4661.09090862,3033.21212091,4296.87878745,0,42.0,42.0,?
2017-07-31 18:32:58.232419,4317.48484805,0,4199.5151511,0,3666.84848448,0,3689.51515115,0,4156.24242383,0,5503.87878733,0,4062.48484808,0,4125.33333292,0,4757.42424195,3000.24242394,3993.45454506,4133.57575716,4198.99999958,3651.39393903,4233.51515109,0.0,4663.15151469,3033.21212091,4298.42424199,0,42.0,42.0,?
2017-07-31 18:32:58.235570,4319.0303026,0,4197.45454503,0,3673.54545418,0,3690.54545418,0,4151.60606019,0,5497.69696915,0,4049.6060602,0,4117.09090868,0,4754.84848437,3000.24242394,3991.39393899,4133.57575716,4200.54545413,3651.39393903,4230.93939352,0.0,4671.39393893,3033.21212091,4303.57575715,0,42.0,42.0,?
2017-07-31 18:32:58.244263,4324.69696926,0,4194.87878746,0,3670.9696966,0,3685.90909054,0,4153.15151474,0,5493.06060551,0,4044.45454505,0,4120.18181777,0,4764.12121164,3000.24242394,4003.75757536,4133.57575716,4212.39393897,3651.39393903,4231.96969655,0.0,4680.15151468,3033.21212091,4312.3333329,0,42.0,42.0,?
2017-07-31 18:32:58.249806,4325.21212078,0,4196.424242,0,3668.90909054,0,3684.363636,0,4149.03030262,0,5493.06060551,0,4047.03030263,0,4120.18181777,0,4763.09090861,3000.24242394,4004.78787839,4133.57575716,4212.90909049,3651.39393903,4231.45454503,0.0,4671.90909044,3033.21212091,4310.78787836,0,42.0,42.0,?
2017-07-31 18:32:58.259125,4314.39393896,0,4196.93939352,0,3661.69696933,0,3681.78787842,0,4142.33333292,0,5496.1515146,0,4042.39393899,0,4107.81818141,0,4750.72727225,3000.24242394,3989.84848445,4133.57575716,4195.39393897,3651.39393903,4231.45454503,0.0,4656.45454499,3033.21212091,4296.36363593,0,42.0,42.0,?
2017-07-31 18:32:58.265704,4305.63636321,0,4190.24242382,0,3653.45454509,0,3676.12121175,0,4143.36363595,0,5497.18181763,0,4034.66666626,0,4099.57575717,0,4744.03030256,3000.24242394,3982.12121172,4133.57575716,4184.57575716,3651.39393903,4230.93939352,0.0,4650.27272681,3033.21212091,4289.15151472,0,42.0,42.0,?
2017-07-31 18:32:58.273047,4305.12121169,0,4188.69696928,0,3653.45454509,0,3675.09090872,0,4147.48484807,0,5497.69696915,0,4041.87878747,0,4104.72727232,0,4749.18181771,3000.24242394,3983.66666627,4133.57575716,4188.18181776,3651.39393903,4229.90909049,0.0,4649.75757529,3033.21212091,4294.81818139,0,42.0,42.0,?
2017-07-31 18:32:58.282991,4305.63636321,0,4192.8181814,0,3656.54545418,0,3680.24242387,0,4147.48484807,0,5500.27272672,0,4058.36363596,0,4113.99999959,0,4754.33333286,3000.24242394,3985.72727233,4133.57575716,4193.33333291,3651.39393903,4232.48484806,0.0,4654.39393893,3033.21212091,4304.60606018,0,42.0,42.0,?
2017-07-31 18:32:58.289382,4310.78787836,3597.81818146,4191.27272685,0,3660.15151479,0,3685.39393903,0,4145.93939352,0,5502.33333278,0,4064.03030262,0,4121.72727232,0,4754.33333286,3000.24242394,3989.84848445,4133.57575716,4195.39393897,3651.39393903,4230.93939352,0.0,4662.12121166,3033.21212091,4310.27272684,0,42.0,42.0,?
2017-07-31 18:32:58.298505,4321.60606017,3597.81818146,4194.36363594,1005.57575748,3667.87878751,0,3688.99999963,0,4143.87878746,0,5497.69696915,0,4057.84848444,0,4128.42424201,0,4758.45454498,3000.24242394,3998.60606021,4133.57575716,4203.1212117,3651.39393903,4228.87878746,0.0,4668.81818135,3033.21212091,4311.81818139,0,42.0,42.0,?
2017-07-31 18:32:58.304761,4325.21212078,3597.81818146,4197.45454503,1005.57575748,3671.99999963,0,3687.45454509,0,4141.8181814,0,5478.63636309,0,4050.12121172,0,4127.9090905,0,4767.72727225,3000.24242394,4004.78787839,4133.57575716,4212.39393897,3651.39393903,4230.424242,0.0,4667.78787832,3033.21212091,4311.81818139,2963.15151486,42.0,42.0,?
2017-07-31 18:32:58.313783,4321.09090866,3597.81818146,4193.84848443,1005.57575748,3667.87878751,3911.03030264,3681.2727269,0,4142.33333292,0,5450.81818127,0,4043.42424202,0,4123.78787838,0,4769.2727268,3000.24242394,3999.12121172,4133.57575716,4212.90909049,3651.39393903,4231.45454503,0.0,4658.51515105,3033.21212091,4305.63636321,2963.15151486,42.0,42.0,?
2017-07-31 18:32:58.320144,4322.6363632,3597.81818146,4192.30302988,1005.57575748,3663.75757539,3911.03030264,3678.69696933,432.727272684,4148.5151511,0,5436.39393885,0,4042.9090905,0,4124.81818141,0,4764.12121164,3000.24242394,3990.87878748,4133.57575716,4214.45454503,3651.39393903,4231.96969655,0.0,4653.87878741,3033.21212091,4297.90909048,2963.15151486,42.0,42.0,?
2017-07-31 18:32:58.328016,4320.57575714,3597.81818146,4189.72727231,1005.57575748,3660.15151479,3911.03030264,3677.15151478,432.727272684,4153.66666625,255.51515149,5428.66666612,0,4046.51515111,0,4121.2121208,0,4757.93939346,3000.24242394,3987.27272687,4133.57575716,4218.57575715,3651.39393903,4229.90909049,0.0,4652.33333287,3033.21212091,4288.63636321,2963.15151486,42.0,42.0,?
2017-07-31 18:32:58.336425,4313.36363593,3597.81818146,4188.18181776,1005.57575748,3657.06060569,3911.03030264,3675.60606024,432.727272684,4151.60606019,255.51515149,5412.69696916,4117.09090868,4046.51515111,0,4113.99999959,0,4750.72727225,3000.24242394,3987.78787839,4133.57575716,4219.60606018,3651.39393903,4227.84848443,0.0,4652.33333287,3033.21212091,4274.21212078,2963.15151486,42.0,42.0,?
2017-07-31 18:32:58.343740,4322.6363632,3597.81818146,4193.84848443,1005.57575748,3669.42424206,3911.03030264,3678.69696933,432.727272684,4153.15151474,255.51515149,5403.9393934,4117.09090868,4050.63636323,3486.5454542,4122.75757535,0,4760.51515104,3000.24242394,3996.54545415,4133.57575716,4230.93939352,3651.39393903,4229.90909049,0.0,4662.12121166,3033.21212091,4272.15151472,2963.15151486,42.0,42.0,?
2017-07-31 18:32:58.351571,4341.18181775,3597.81818146,4196.93939352,1005.57575748,3679.72727236,3911.03030264,3683.33333296,432.727272684,4156.24242383,255.51515149,5403.42424188,4117.09090868,4061.45454505,3486.5454542,4137.18181777,3053.81818151,4780.09090861,3000.24242394,4006.84848445,4133.57575716,4245.36363594,3651.39393903,4229.90909049,0.0,4670.87878741,3033.21212091,4278.84848442,2963.15151486,42.0,42.0,?
2017-07-31 18:32:58.359199,4347.36363593,3597.81818146,4194.87878746,1005.57575748,3676.63636327,3911.03030264,3684.363636,432.727272684,4149.03030262,255.51515149,5391.06060552,4117.09090868,4066.6060602,3486.5454542,4135.63636322,3053.81818151,4781.63636316,3020.84848455,4007.36363596,4133.57575716,4249.48484806,3651.39393903,4229.39393897,0.0,4674.48484802,3033.21212091,4279.87878745,2963.15151486,42.0,42.0,?
2017-07-31 18:32:58.368882,4346.84848441,3597.81818146,4192.30302988,1005.57575748,3680.75757539,3911.03030264,3681.2727269,432.727272684,4144.39393898,255.51515149,5374.06060552,4117.09090868,4062.99999959,3486.5454542,4132.54545413,3053.81818151,4781.63636316,3020.84848455,4007.87878748,4104.72727232,4248.96969654,3651.39393903,4229.90909049,0.0,4674.99999953,3033.21212091,4279.87878745,2963.15151486,42.0,42.0,?
2017-07-31 18:32:58.375189,4347.36363593,3597.81818146,4192.8181814,1005.57575748,3687.45454509,3911.03030264,3682.81818145,432.727272684,4146.96969656,255.51515149,5362.72727219,4117.09090868,4060.93939353,3486.5454542,4138.2121208,3053.81818151,4788.84848437,3020.84848455,4015.09090869,4104.72727232,4244.84848442,3651.39393903,4230.424242,0.0,4675.51515105,3033.21212091,4276.27272685,2963.15151486,42.0,42.0,?
2017-07-31 18:32:58.383647,4341.69696926,3597.81818146,4190.24242382,1005.57575748,3678.69696933,3911.03030264,3687.45454509,432.727272684,4146.96969656,255.51515149,5351.39393886,4117.09090868,4059.9090905,3486.5454542,4137.69696928,3053.81818151,4782.15151467,3020.84848455,4012.51515111,4104.72727232,4237.1212117,3651.39393903,4231.45454503,0.0,4674.48484802,3033.21212091,4268.0303026,2963.15151486,42.0,42.0,?
2017-07-31 18:32:58.390926,4330.87878745,3597.81818146,4186.63636322,1005.57575748,3666.84848448,3911.03030264,3683.33333296,432.727272684,4142.33333292,255.51515149,5340.57575704,4117.09090868,4047.54545414,3486.5454542,4124.81818141,3053.81818151,4762.06060558,3020.84848455,3994.48484809,4104.72727232,4225.27272685,3651.39393903,4230.424242,0.0,4661.60606014,3095.03030272,4260.81818139,2963.15151486,42.0,42.0,?
2017-07-31 18:32:58.398923,4328.81818139,3597.81818146,4191.78787837,1005.57575748,3665.30302994,3911.03030264,3673.54545418,432.727272684,4138.72727231,255.51515149,5334.39393886,4117.09090868,4034.15151475,3486.5454542,4113.99999959,3053.81818151,4750.21212074,3020.84848455,3984.18181778,4117.09090868,4215.99999958,3651.39393903,4228.36363594,0.0,4647.69696923,3095.03030272,4261.84848442,2963.15151486,42.0,42.0,?
2017-07-31 18:32:58.407912,4332.42424199,3597.81818146,4194.36363594,1005.57575748,3668.39393903,3911.03030264,3676.12121175,432.727272684,4141.30302989,255.51515149,5334.90909038,4117.09090868,4035.18181778,3486.5454542,4116.06060565,3053.81818151,4757.42424195,3020.84848455,3988.81818142,4117.09090868,4213.424242,3643.15151479,4227.84848443,0.0,4642.03030257,3095.03030272,4265.45454503,2963.15151486,42.0,42.0,?
2017-07-31 18:32:58.414616,4327.27272684,3597.81818146,4187.66666625,1005.57575748,3669.42424206,3911.03030264,3681.78787842,432.727272684,4142.33333292,255.51515149,5334.39393886,4117.09090868,4041.36363596,3486.5454542,4123.27272686,3053.81818151,4767.21212074,3020.84848455,3993.45454506,4117.09090868,4215.48484806,3643.15151479,4229.90909049,12.3636363624,4642.03030257,3095.03030272,4260.81818139,2963.15151486,42.0,42.0,?
2017-07-31 18:32:58.422137,4327.27272684,3597.81818146,4184.57575716,1005.57575748,3673.54545418,3911.03030264,3684.363636,432.727272684,4137.18181777,255.51515149,5327.18181765,4117.09090868,4040.84848444,3486.5454542,4122.75757535,3053.81818151,4764.12121164,3020.84848455,3997.57575718,4117.09090868,4228.36363594,3643.15151479,4231.96969655,12.3636363624,4652.84848438,3095.03030272,4260.81818139,2963.15151486,42.0,42.0,?
2017-07-31 18:32:58.429595,4340.15151472,3597.81818146,4189.21212079,1005.57575748,3682.81818145,3911.03030264,3686.93939357,432.727272684,4138.2121208,255.51515149,5323.57575704,4117.09090868,4040.84848444,3486.5454542,4123.78787838,3053.81818151,4760.51515104,3020.84848455,4003.75757536,4117.09090868,4237.1212117,3643.15151479,4230.424242,12.3636363624,4664.69696923,3095.03030272,4272.66666624,2963.15151486,42.0,42.0,?
2017-07-31 18:32:58.437445,4347.87878744,3597.81818146,4191.27272685,1005.57575748,3687.45454509,3911.03030264,3687.9696966,432.727272684,4144.90909049,255.51515149,5321.51515098,4117.09090868,4042.39393899,3486.5454542,4133.06060565,3053.81818151,4769.78787831,3020.84848455,3999.63636324,4117.09090868,4230.93939352,3643.15151479,4229.39393897,12.3636363624,4661.09090862,3095.03030272,4276.27272685,2963.15151486,42.0,42.0,?
2017-07-31 18:32:58.447267,4338.60606017,3597.81818146,4189.72727231,1005.57575748,3681.78787842,3911.03030264,3683.84848448,432.727272684,4144.90909049,255.51515149,5314.81818129,4117.09090868,4043.93939353,3486.5454542,4140.27272686,3053.81818151,4774.42424195,3020.84848455,3994.48484809,4117.09090868,4225.27272685,3643.15151479,4231.45454503,12.3636363624,4654.39393893,3095.03030272,4268.54545412,2963.15151486,42.0,42.0,?
2017-07-31 18:32:58.453673,4322.6363632,3597.81818146,4188.18181776,1005.57575748,3673.03030266,3911.03030264,3679.21212084,432.727272684,4141.8181814,255.51515149,5306.06060553,4117.09090868,4047.54545414,3486.5454542,4133.57575716,3053.81818151,4766.18181771,3020.84848455,3996.54545415,4117.09090868,4221.66666624,3643.15151479,4228.36363594,12.3636363624,4652.84848438,3095.03030272,4258.75757533,2963.15151486,42.0,42.0,?
2017-07-31 18:32:58.461595,4318.51515108,3597.81818146,4186.1212117,1005.57575748,3671.99999963,3911.03030264,3679.21212084,432.727272684,4142.84848443,255.51515149,5300.39393886,4117.09090868,4048.57575717,3486.5454542,4125.84848444,3053.81818151,4764.63636316,3020.84848455,3997.06060566,4117.09090868,4216.51515109,3643.15151479,4227.84848443,12.3636363624,4651.30302984,3095.03030272,4256.69696927,2963.15151486,42.0,42.0,?
2017-07-31 18:32:58.468790,4328.30302987,3597.81818146,4186.1212117,1005.57575748,3675.09090872,3911.03030264,3682.81818145,432.727272684,4142.33333292,255.51515149,5296.27272674,4117.09090868,4048.06060566,3486.5454542,4128.93939353,3053.81818151,4766.18181771,3020.84848455,3991.90909051,4117.09090868,4213.93939352,3643.15151479,4230.93939352,12.3636363624,4653.3636359,3095.03030272,4261.84848442,2963.15151486,42.0,42.0,?
2017-07-31 18:32:58.476007,4333.96969654,3597.81818146,4188.18181776,1005.57575748,3676.63636327,3911.03030264,3682.81818145,432.727272684,4139.24242383,255.51515149,5292.15151462,4117.09090868,4045.9999996,3486.5454542,4130.99999959,3053.81818151,4759.99999952,3020.84848455,3989.84848445,4117.09090868,4216.51515109,3643.15151479,4229.90909049,12.3636363624,4655.42424196,3095.03030272,4264.424242,2963.15151486,42.0,42.0,?
2017-07-31 18:32:58.484923,4333.45454502,3597.81818146,4188.18181776,1005.57575748,3679.72727236,3911.03030264,3680.75757539,432.727272684,4141.8181814,255.51515149,5296.27272674,4117.09090868,4047.03030263,3486.5454542,4129.96969656,3053.81818151,4761.03030255,3020.84848455,3997.06060566,4117.09090868,4221.15151473,3643.15151479,4227.84848443,12.3636363624,4652.84848438,3095.03030272,4268.0303026,2963.15151486,42.0,42.0,?
2017-07-31 18:32:58.491986,4333.96969654,3597.81818146,4189.21212079,1005.57575748,3685.39393903,3911.03030264,3682.81818145,432.727272684,4148.5151511,255.51515149,5300.39393886,4117.09090868,4051.15151475,3486.5454542,4133.57575716,3053.81818151,4769.78787831,3020.84848455,4003.75757536,4117.09090868,4223.7272723,3643.15151479,4229.39393897,12.3636363624,4652.33333287,3095.03030272,4272.15151472,2963.15151486,42.0,42.0,?
2017-07-31 18:32:58.501976,4338.09090866,3597.81818146,4191.78787837,1005.57575748,3686.42424206,3911.03030264,3683.84848448,432.727272684,4147.48484807,255.51515149,5294.7272722,4117.09090868,4052.18181778,3486.5454542,4135.12121171,3053.81818151,4766.69696922,3020.84848455,3998.60606021,4117.09090868,4222.69696927,3643.15151479,4230.424242,12.3636363624,4658.51515105,3095.03030272,4274.7272723,2963.15151486,42.0,42.0,?
2017-07-31 18:32:58.509503,4341.69696926,3597.81818146,4189.72727231,1005.57575748,3687.45454509,3911.03030264,3685.39393903,432.727272684,4144.39393898,255.51515149,5292.15151462,4117.09090868,4053.72727232,3486.5454542,4136.15151474,3053.81818151,4758.45454498,3020.84848455,3996.03030263,4117.09090868,4221.66666624,3643.15151479,4229.90909049,12.3636363624,4664.18181772,3095.03030272,4276.78787836,2963.15151486,42.0,42.0,?
2017-07-31 18:32:58.516189,4340.15151472,3597.81818146,4186.63636322,1005.57575748,3687.9696966,3911.03030264,3688.48484812,432.727272684,4144.90909049,255.51515149,5295.24242371,4117.09090868,4056.3030299,3486.5454542,4141.8181814,3053.81818151,4764.12121164,3020.84848455,4002.21212081,4117.09090868,4216.51515109,3643.15151479,4231.96969655,12.3636363624,4667.27272681,3095.03030272,4275.75757533,2963.15151486,42.0,42.0,?
2017-07-31 18:32:58.524032,4337.57575714,3597.81818146,4187.66666625,1005.57575748,3681.78787842,3911.03030264,3686.93939357,432.727272684,4143.87878746,255.51515149,5292.66666614,4117.09090868,4055.27272687,3486.5454542,4143.36363595,3053.81818151,4770.30302983,3020.84848455,4001.6969693,4117.09090868,4214.96969655,3643.15151479,4235.06060564,12.3636363624,4671.90909044,3095.03030272,4278.84848442,2963.15151486,42.0,42.0,?
2017-07-31 18:32:58.532227,4341.18181775,3597.81818146,4188.18181776,1005.57575748,3680.24242387,3911.03030264,3685.39393903,432.727272684,4140.78787837,255.51515149,5287.51515099,4117.09090868,4055.78787838,3486.5454542,4136.66666625,3053.81818151,4767.21212074,3020.84848455,3998.60606021,4117.09090868,4222.18181776,3643.15151479,4231.96969655,12.3636363624,4672.42424196,3095.03030272,4286.57575715,2963.15151486,42.0,42.0,?
2017-07-31 18:32:58.539975,4343.24242381,3597.81818146,4187.66666625,1005.57575748,3684.87878751,3911.03030264,3684.363636,432.727272684,4141.8181814,255.51515149,5291.12121159,4117.09090868,4056.81818141,3486.5454542,4133.06060565,3053.81818151,4767.21212074,3020.84848455,4005.3030299,4117.09090868,4222.69696927,3643.15151479,4228.36363594,12.3636363624,4670.3636359,3095.03030272,4287.60606018,2963.15151486,42.0,42.0,?
2017-07-31 18:32:58.547758,4337.06060563,3597.81818146,4186.1212117,1005.57575748,3678.69696933,3911.03030264,3683.84848448,432.727272684,4144.39393898,255.51515149,5292.66666614,4117.09090868,4050.12121172,3486.5454542,4132.54545413,3053.81818151,4770.81818134,3020.84848455,4005.3030299,4117.09090868,4214.96969655,3643.15151479,4230.93939352,12.3636363624,4672.42424196,3095.03030272,4282.45454503,2963.15151486,42.0,42.0,?
2017-07-31 18:32:58.555670,4329.84848442,3597.81818146,4181.99999958,1005.57575748,3672.51515115,3911.03030264,3682.81818145,432.727272684,4141.8181814,255.51515149,5286.48484796,4117.09090868,4039.81818141,3486.5454542,4129.96969656,3053.81818151,4762.5757571,3020.84848455,3992.93939354,4117.09090868,4210.84848443,3643.15151479,4231.45454503,12.3636363624,4668.30302984,3095.03030272,4277.81818139,2963.15151486,42.0,42.0,?
2017-07-31 18:32:58.562937,4325.72727229,3597.81818146,4180.96969655,1005.57575748,3674.57575721,3911.03030264,3679.21212084,432.727272684,4139.24242383,255.51515149,5280.81818129,4117.09090868,4039.81818141,3486.5454542,4127.9090905,3053.81818151,4752.2727268,3020.84848455,3987.78787839,4117.09090868,4209.30302988,3643.15151479,4228.36363594,12.3636363624,4659.03030256,3095.03030272,4273.69696927,2963.15151486,42.0,42.0,?
2017-07-31 18:32:58.574426,4324.69696926,3597.81818146,4185.09090867,1005.57575748,3673.03030266,3911.03030264,3678.18181781,432.727272684,4137.69696928,255.51515149,5279.78787826,4117.09090868,4048.06060566,3486.5454542,4132.54545413,3053.81818151,4759.48484801,3020.84848455,3998.09090869,4117.09090868,4207.75757534,3643.15151479,4228.87878746,12.3636363624,4657.48484802,3095.03030272,4269.57575715,2963.15151486,42.0,42.0,?
2017-07-31 18:32:58.582667,4328.81818139,3597.81818146,4187.66666625,1005.57575748,3675.09090872,3911.03030264,3684.363636,432.727272684,4138.72727231,255.51515149,5279.78787826,4117.09090868,4058.87878747,3486.5454542,4139.24242383,3053.81818151,4773.90909043,3020.84848455,4008.90909051,4117.09090868,4217.54545412,3643.15151479,4231.45454503,12.3636363624,4668.30302984,3095.03030272,4273.18181775,2963.15151486,42.0,42.0,?
2017-07-31 18:32:58.586615,4337.06060563,3597.81818146,4183.54545413,1005.57575748,3686.42424206,3911.03030264,3691.57575721,432.727272684,4139.24242383,255.51515149,5278.75757523,4117.09090868,4061.96969656,3486.5454542,4141.30302989,3053.81818151,4775.45454498,3020.84848455,4007.87878748,4117.09090868,4232.99999958,3643.15151479,4232.48484806,12.3636363624,4678.09090862,3095.03030272,4283.48484806,2963.15151486,42.0,42.0,?
2017-07-31 18:32:58.594198,4339.6363632,3597.81818146,4180.96969655,1005.57575748,3687.9696966,3911.03030264,3685.90909054,432.727272684,4137.69696928,255.51515149,5279.27272674,4117.09090868,4056.81818141,3486.5454542,4143.36363595,3053.81818151,4773.39393892,3020.84848455,4005.81818142,4117.09090868,4232.99999958,3643.15151479,4229.90909049,12.3636363624,4676.54545408,3095.03030272,4284.51515109,2963.15151486,42.0,42.0,?
2017-07-31 18:32:58.601828,4338.60606017,3597.81818146,4185.60606019,1005.57575748,3686.42424206,3911.03030264,3679.72727236,432.727272684,4142.33333292,255.51515149,5285.96969644,4117.09090868,4059.9090905,3486.5454542,4149.03030262,3053.81818151,4779.5757571,3020.84848455,4011.9999996,4117.09090868,4229.90909049,3643.15151479,4229.90909049,12.3636363624,4674.99999953,3095.03030272,4282.45454503,2963.15151486,42.0,42.0,?
2017-07-31 18:32:58.609629,4334.48484805,3597.81818146,4186.63636322,1005.57575748,3685.90909054,3911.03030264,3682.81818145,432.727272684,4144.39393898,255.51515149,5292.66666614,4117.09090868,4065.06060565,3486.5454542,4150.06060565,3053.81818151,4776.99999952,3020.84848455,4006.84848445,4117.09090868,4226.8181814,3643.15151479,4229.90909049,12.3636363624,4672.42424196,3095.03030272,4279.87878745,2963.15151486,42.0,42.0,?
2017-07-31 18:32:58.618171,4326.24242381,3597.81818146,4181.99999958,1005.57575748,3671.99999963,3911.03030264,3682.30302993,432.727272684,4139.75757534,255.51515149,5286.48484796,4117.09090868,4050.63636323,3486.5454542,4135.12121171,3053.81818151,4762.06060558,3020.84848455,3987.78787839,4117.09090868,4212.90909049,3643.15151479,4227.33333291,12.3636363624,4656.45454499,3095.03030272,4266.99999957,2963.15151486,42.0,42.0,?
2017-07-31 18:32:58.625893,4321.60606017,3597.81818146,4180.45454504,1005.57575748,3662.72727236,3911.03030264,3675.60606024,432.727272684,4137.18181777,255.51515149,5276.18181765,4117.09090868,4034.15151475,3486.5454542,4122.75757535,3053.81818151,4751.75757528,3020.84848455,3980.06060566,4117.09090868,4202.60606019,3643.15151479,4227.84848443,12.3636363624,4646.15151469,3095.03030272,4259.78787836,2963.15151486,42.0,42.0,?
2017-07-31 18:32:58.634155,4320.06060563,3597.81818146,4181.48484807,1005.57575748,3669.42424206,3911.03030264,3674.06060569,432.727272684,4139.75757534,255.51515149,5275.66666614,4117.09090868,4039.3030299,3486.5454542,4131.5151511,3053.81818151,4749.69696922,3020.84848455,3982.63636324,4117.09090868,4198.48484806,3643.15151479,4227.84848443,12.3636363624,4649.24242378,3095.03030272,4265.96969654,2963.15151486,42.0,42.0,?
2017-07-31 18:32:58.641481,4316.96969654,3597.81818146,4181.48484807,1005.57575748,3673.54545418,3911.03030264,3675.60606024,432.727272684,4137.69696928,255.51515149,5276.69696917,4117.09090868,4049.09090869,3486.5454542,4142.84848443,3053.81818151,4755.8787874,3020.84848455,3984.6969693,4117.09090868,4200.03030261,3643.15151479,4227.33333291,12.3636363624,4654.39393893,3095.03030272,4268.0303026,2963.15151486,42.0,42.0,?
2017-07-31 18:32:58.650450,4322.12121169,3597.81818146,4184.06060564,1005.57575748,3675.60606024,3911.03030264,3679.21212084,432.727272684,4134.60606019,255.51515149,5274.12121159,4117.09090868,4048.57575717,3486.5454542,4141.30302989,3053.81818151,4768.75757528,3020.84848455,3996.03030263,4117.09090868,4214.45454503,3643.15151479,4229.90909049,12.3636363624,4663.6666662,3095.03030272,4268.54545412,2963.15151486,42.0,42.0,?
2017-07-31 18:32:58.656551,4334.48484805,3597.81818146,4188.69696928,1005.57575748,3685.90909054,3911.03030264,3687.45454509,432.727272684,4136.66666625,255.51515149,5268.45454493,4117.09090868,4050.12121172,3486.5454542,4140.78787837,3053.81818151,4771.33333286,3020.84848455,4008.90909051,4117.09090868,4226.8181814,3643.15151479,4232.48484806,12.3636363624,4675.51515105,3095.03030272,4281.93939351,2963.15151486,42.0,42.0,?
2017-07-31 18:32:58.664218,4334.48484805,3597.81818146,4184.57575716,1005.57575748,3688.48484812,3911.03030264,3682.81818145,432.727272684,4135.12121171,255.51515149,5262.78787826,4117.09090868,4050.12121172,3486.5454542,4140.27272686,3053.81818151,4755.8787874,3020.84848455,4003.75757536,4117.09090868,4223.21212079,3643.15151479,4230.424242,12.3636363624,4674.48484802,3095.03030272,4289.15151472,2963.15151486,42.0,42.0,?
2017-07-31 18:32:58.674049,4320.57575714,3597.81818146,4177.87878746,1005.57575748,3677.6666663,3911.03030264,3670.45454509,432.727272684,4128.42424201,255.51515149,5263.30302978,4117.09090868,4042.9090905,3486.5454542,4128.93939353,3053.81818151,4746.60606013,3020.84848455,3988.81818142,4117.09090868,4210.84848443,3643.15151479,4226.8181814,12.3636363624,4659.54545408,3095.03030272,4274.21212078,2963.15151486,42.0,42.0,?
2017-07-31 18:32:58.680652,4317.48484805,3597.81818146,4180.45454504,1005.57575748,3673.03030266,3911.03030264,3673.54545418,432.727272684,4126.87878747,255.51515149,5264.33333281,4117.09090868,4042.39393899,3486.5454542,4126.36363595,3053.81818151,4751.75757528,3020.84848455,3983.66666627,4117.09090868,4206.21212079,3643.15151479,4228.36363594,12.3636363624,4651.30302984,3095.03030272,4266.99999957,2963.15151486,42.0,42.0,?
2017-07-31 18:32:58.687263,4320.57575714,3597.81818146,4181.48484807,1005.57575748,3675.60606024,3911.03030264,3683.33333296,432.727272684,4130.99999959,255.51515149,5258.66666614,4117.09090868,4047.54545414,3486.5454542,4136.15151474,3053.81818151,4754.84848437,3020.84848455,3986.24242384,4117.09090868,4206.21212079,3643.15151479,4230.93939352,12.3636363624,4650.27272681,3095.03030272,4271.12121169,2963.15151486,42.0,42.0,?
2017-07-31 18:32:58.696480,4312.3333329,3597.81818146,4179.42424201,1005.57575748,3673.03030266,3911.03030264,3680.75757539,432.727272684,4130.48484807,255.51515149,5257.1212116,4117.09090868,4043.93939353,3486.5454542,4137.18181777,3053.81818151,4750.72727225,3020.84848455,3980.06060566,4117.09090868,4203.63636322,3643.15151479,4228.87878746,12.3636363624,4646.15151469,3095.03030272,4264.424242,2963.15151486,42.0,42.0,?
2017-07-31 18:32:58.704592,4311.81818139,3597.81818146,4181.48484807,1005.57575748,3671.48484812,3911.03030264,3680.24242387,432.727272684,4129.96969656,255.51515149,5263.30302978,4117.09090868,4043.42424202,3486.5454542,4134.60606019,3053.81818151,4752.2727268,3020.84848455,3980.06060566,4117.09090868,4210.33333291,3643.15151479,4227.84848443,12.3636363624,4655.42424196,3095.03030272,4268.0303026,2963.15151486,42.0,42.0,?
2017-07-31 18:32:58.711880,4320.57575714,3597.81818146,4183.54545413,1005.57575748,3676.12121175,3911.03030264,3685.39393903,432.727272684,4129.96969656,255.51515149,5261.24242372,4117.09090868,4050.12121172,3486.5454542,4138.2121208,3053.81818151,4760.51515104,3020.84848455,3998.09090869,4117.09090868,4220.1212117,3643.15151479,4229.39393897,12.3636363624,4665.21212075,3095.03030272,4280.90909048,2963.15151486,42.0,42.0,?
2017-07-31 18:32:58.719565,4319.54545411,3597.81818146,4181.99999958,1005.57575748,3676.12121175,3911.03030264,3682.81818145,432.727272684,4124.81818141,255.51515149,5250.93939341,4117.09090868,4048.57575717,3486.5454542,4139.75757534,3053.81818151,4758.96969649,3020.84848455,4002.72727233,4117.09090868,4217.03030261,3643.15151479,4229.90909049,12.3636363624,4658.51515105,3095.03030272,4277.81818139,2963.15151486,42.0,42.0,?
2017-07-31 18:32:58.726997,4317.48484805,3597.81818146,4178.39393898,1005.57575748,3676.12121175,3911.03030264,3681.2727269,432.727272684,4124.81818141,255.51515149,5249.90909038,4117.09090868,4041.87878747,3486.5454542,4136.15151474,3053.81818151,4753.30302983,3020.84848455,3989.33333293,4117.09090868,4212.39393897,3643.15151479,4227.33333291,12.3636363624,4657.48484802,3095.03030272,4272.66666624,2963.15151486,42.0,42.0,?
2017-07-31 18:32:58.735377,4317.99999957,3597.81818146,4178.39393898,1005.57575748,3674.06060569,3911.03030264,3682.81818145,432.727272684,4123.27272686,255.51515149,5251.96969644,4117.09090868,4037.75757535,3486.5454542,4132.54545413,3053.81818151,4750.72727225,3020.84848455,3986.75757536,4117.09090868,4209.30302988,3643.15151479,4227.33333291,12.3636363624,4662.12121166,3095.03030272,4271.63636321,2963.15151486,42.0,42.0,?
2017-07-31 18:32:58.741979,4309.75757533,3597.81818146,4179.42424201,1005.57575748,3666.33333297,3911.03030264,3678.18181781,432.727272684,4115.54545413,255.51515149,5243.7272722,4117.09090868,4033.63636323,3486.5454542,4125.84848444,3053.81818151,4751.24242377,3020.84848455,3991.39393899,4117.09090868,4202.60606019,3643.15151479,4231.45454503,12.3636363624,4655.93939347,3095.03030272,4264.93939351,2963.15151486,42.0,42.0,?
2017-07-31 18:32:58.751779,4306.15151472,3597.81818146,4176.84848443,1005.57575748,3666.84848448,3911.03030264,3679.21212084,432.727272684,4115.54545413,255.51515149,5237.54545402,4117.09090868,4034.15151475,3486.5454542,4124.81818141,3053.81818151,4756.90909043,3020.84848455,3991.90909051,4117.09090868,4200.54545413,3643.15151479,4230.93939352,12.3636363624,4650.78787832,3095.03030272,4264.93939351,2963.15151486,42.0,42.0,?
2017-07-31 18:32:58.758392,4310.27272684,3597.81818146,4177.87878746,1005.57575748,3669.42424206,3911.03030264,3682.81818145,432.727272684,4119.15151474,255.51515149,5238.06060554,4117.09090868,4035.69696929,3486.5454542,4129.45454504,3053.81818151,4757.42424195,3020.84848455,3990.87878748,4117.09090868,4202.09090867,3643.15151479,4229.90909049,12.3636363624,4657.99999953,3095.03030272,4272.15151472,2963.15151486,42.0,42.0,?
2017-07-31 18:32:58.766161,4309.24242381,3597.81818146,4180.96969655,1005.57575748,3663.24242388,3911.03030264,3677.6666663,432.727272684,4117.09090868,255.51515149,5237.03030251,4117.09090868,4034.15151475,3486.5454542,4129.96969656,3053.81818151,4754.84848437,3020.84848455,3991.39393899,4117.09090868,4197.45454503,3643.15151479,4231.96969655,12.3636363624,4657.48484802,3095.03030272,4272.66666624,2963.15151486,42.0,42.0,?
2017-07-31 18:32:58.773816,4307.18181775,3597.81818146,4179.42424201,1005.57575748,3660.15151479,3911.03030264,3673.03030266,432.727272684,4117.60606019,255.51515149,5231.87878736,4117.09090868,4033.12121172,3486.5454542,4130.48484807,3053.81818151,4754.33333286,3020.84848455,3988.81818142,4117.09090868,4189.21212079,3643.15151479,4230.424242,12.3636363624,4645.63636317,3095.03030272,4271.63636321,2963.15151486,42.0,42.0,?
2017-07-31 18:32:58.782029,4301.51515109,3597.81818146,4175.30302989,1005.57575748,3659.63636327,3911.03030264,3675.60606024,432.727272684,4120.18181777,255.51515149,5228.27272675,4117.09090868,4030.54545414,3486.5454542,4130.48484807,3053.81818151,4744.54545407,3020.84848455,3979.54545415,4117.09090868,4183.03030261,3643.15151479,4227.84848443,12.3636363624,4638.42424196,3095.03030272,4270.60606018,2963.15151486,42.0,42.0,?
2017-07-31 18:32:58.788995,4292.75757533,3597.81818146,4172.72727231,1005.57575748,3652.93939357,3911.03030264,3676.63636327,432.727272684,4119.15151474,255.51515149,5225.18181766,4117.09090868,4024.87878748,3486.5454542,4125.84848444,3053.81818151,4734.75757528,3020.84848455,3967.18181779,4117.09090868,4178.90909049,3643.15151479,4227.84848443,12.3636363624,4633.78787832,3095.03030272,4263.39393897,2963.15151486,42.0,42.0,?
2017-07-31 18:32:58.797024,4301.51515109,3606.0606057,4175.30302989,1005.57575748,3655.51515115,3911.03030264,3673.54545418,432.727272684,4117.60606019,255.51515149,5223.1212116,4117.09090868,4020.75757536,3486.5454542,4121.2121208,3053.81818151,4738.8787874,3020.84848455,3971.30302991,4117.09090868,4181.48484807,3643.15151479,4228.36363594,12.3636363624,4641.51515105,3095.03030272,4262.87878745,2963.15151486,42.0,42.0,?
2017-07-31 18:32:58.812046,4320.06060563,3606.0606057,4177.87878746,1067.39393929,3669.93939357,3911.03030264,3673.03030266,432.727272684,4114.5151511,255.51515149,5223.1212116,4117.09090868,4020.24242384,3486.5454542,4123.78787838,3053.81818151,4741.9696965,3020.84848455,3989.33333293,4117.09090868,4193.33333291,3643.15151479,4229.39393897,12.3636363624,4662.12121166,3095.03030272,4274.7272723,2963.15151486,42.0,42.0,?
2017-07-31 18:32:58.815054,4318.51515108,3606.0606057,4178.90909049,1067.39393929,3673.03030266,3911.03030264,3675.60606024,432.727272684,4110.39393898,255.51515149,5214.36363584,4117.09090868,4020.75757536,3486.5454542,4122.75757535,3053.81818151,4741.45454498,3020.84848455,3992.42424203,4117.09090868,4197.96969655,3643.15151479,4230.93939352,12.3636363624,4666.75757529,3095.03030272,4278.33333291,2975.51515122,42.0,42.0,?
2017-07-31 18:32:58.820708,4310.27272684,3606.0606057,4179.93939352,1067.39393929,3671.48484812,3911.03030264,3680.24242387,432.727272684,4111.42424201,255.51515149,5203.54545403,4117.09090868,4026.42424202,3486.5454542,4122.75757535,3053.81818151,4748.15151468,3020.84848455,3983.15151475,4117.09090868,4192.8181814,3643.15151479,4229.39393897,12.3636363624,4659.54545408,3095.03030272,4277.81818139,2975.51515122,42.0,42.0,?
2017-07-31 18:32:58.828028,4315.42424199,3606.0606057,4176.84848443,1067.39393929,3672.51515115,3911.03030264,3679.21212084,407.999999959,4113.48484807,255.51515149,5204.57575706,4117.09090868,4031.06060566,3486.5454542,4129.96969656,3053.81818151,4751.24242377,3020.84848455,3981.60606021,4117.09090868,4189.21212079,3643.15151479,4227.84848443,12.3636363624,4664.69696923,3095.03030272,4282.45454503,2975.51515122,42.0,42.0,?
2017-07-31 18:32:58.839358,4315.93939351,3606.0606057,4176.33333292,1067.39393929,3667.87878751,3911.03030264,3671.99999963,407.999999959,4109.87878747,259.63636361,5206.63636312,4117.09090868,4028.9999996,3486.5454542,4133.57575716,3053.81818151,4747.63636316,3020.84848455,3984.18181778,4117.09090868,4185.09090867,3643.15151479,4228.36363594,12.3636363624,4666.24242378,3095.03030272,4278.84848442,2975.51515122,42.0,42.0,?
2017-07-31 18:32:58.844665,4306.15151472,3606.0606057,4177.87878746,1067.39393929,3664.78787842,3911.03030264,3670.45454509,407.999999959,4111.42424201,259.63636361,5208.69696918,4215.99999958,4030.03030263,3486.5454542,4131.5151511,3053.81818151,4746.60606013,3020.84848455,3984.18181778,4117.09090868,4179.93939352,3643.15151479,4229.90909049,12.3636363624,4653.87878741,3095.03030272,4270.09090866,2975.51515122,42.0,42.0,?
2017-07-31 18:32:58.853037,4300.99999957,3606.0606057,4173.24242383,1067.39393929,3665.81818145,3911.03030264,3675.09090872,407.999999959,4118.12121171,259.63636361,5216.4242419,4215.99999958,4029.51515111,3486.5454542,4125.33333292,3053.81818151,4738.36363589,3020.84848455,3974.90909051,4117.09090868,4174.78787837,3643.15151479,4227.33333291,12.3636363624,4647.69696923,3095.03030272,4265.45454503,2975.51515122,42.0,42.0,?
2017-07-31 18:32:58.859030,4302.54545412,3606.0606057,4172.21212079,1067.39393929,3663.24242388,3911.03030264,3675.09090872,407.999999959,4119.66666625,259.63636361,5214.36363584,4215.99999958,4016.63636323,3486.5454542,4111.42424201,3074.42424212,4722.39393892,3020.84848455,3965.12121172,4117.09090868,4174.27272686,3643.15151479,4227.33333291,12.3636363624,4654.39393893,3095.03030272,4266.48484806,2975.51515122,42.0,42.0,?
2017-07-31 18:32:58.868883,4307.18181775,3606.0606057,4175.30302989,1067.39393929,3664.78787842,3911.03030264,3674.57575721,407.999999959,4115.54545413,259.63636361,5201.48484796,4215.99999958,4007.87878748,3486.5454542,4108.33333292,3074.42424212,4724.45454498,3037.33333303,3974.393939,4117.09090868,4185.09090867,3643.15151479,4230.93939352,12.3636363624,4665.21212075,3095.03030272,4272.66666624,2975.51515122,42.0,42.0,?
2017-07-31 18:32:58.875073,4313.87878745,3606.0606057,4176.84848443,1067.39393929,3673.03030266,3911.03030264,3677.15151478,407.999999959,4118.12121171,259.63636361,5204.06060554,4215.99999958,4019.72727233,3486.5454542,4126.87878747,3074.42424212,4741.9696965,3037.33333303,3991.39393899,4112.96969656,4195.39393897,3643.15151479,4230.424242,12.3636363624,4673.9696965,3095.03030272,4275.24242381,2975.51515122,42.0,42.0,?
2017-07-31 18:32:58.883731,4317.48484805,3606.0606057,4177.87878746,1067.39393929,3679.72727236,3911.03030264,3678.69696933,407.999999959,4125.33333292,259.63636361,5214.87878736,4215.99999958,4032.6060602,3486.5454542,4140.27272686,3074.42424212,4744.03030256,3037.33333303,3992.42424203,4112.96969656,4202.60606019,3671.99999963,4228.87878746,12.3636363624,4680.6666662,3095.03030272,4275.75757533,2975.51515122,42.0,42.0,?
2017-07-31 18:32:58.892103,4312.84848442,3606.0606057,4174.78787837,1067.39393929,3678.18181781,3911.03030264,3681.78787842,407.999999959,4125.84848444,259.63636361,5210.24242372,4215.99999958,4030.54545414,3486.5454542,4135.63636322,3074.42424212,4735.78787831,3037.33333303,3985.72727233,4112.96969656,4204.66666625,3671.99999963,4226.30302988,8.2424242416,4678.09090862,3095.03030272,4274.21212078,2975.51515122,42.0,42.0,?
2017-07-31 18:32:58.899821,4304.09090866,3606.0606057,4171.18181776,1067.39393929,3670.9696966,3911.03030264,3682.81818145,407.999999959,4121.72727232,259.63636361,5205.09090857,4215.99999958,4022.81818142,3486.5454542,4128.93939353,3074.42424212,4738.36363589,3037.33333303,3984.18181778,4112.96969656,4197.45454503,3671.99999963,4225.27272685,8.2424242416,4666.24242378,3115.63636332,4269.57575715,2975.51515122,42.0,42.0,?
2017-07-31 18:32:58.906727,4304.09090866,3606.0606057,4170.66666625,1067.39393929,3674.06060569,3911.03030264,3681.78787842,407.999999959,4123.27272686,259.63636361,5211.78787827,4215.99999958,4018.6969693,3486.5454542,4128.42424201,3074.42424212,4740.93939347,3037.33333303,3983.66666627,4108.84848444,4193.33333291,3671.99999963,4227.33333291,8.2424242416,4662.12121166,3115.63636332,4272.66666624,2975.51515122,42.0,42.0,?
2017-07-31 18:32:58.913971,4308.21212078,3606.0606057,4172.72727231,1067.39393929,3681.78787842,3911.03030264,3682.81818145,407.999999959,4124.81818141,259.63636361,5216.93939342,4215.99999958,4019.21212081,3486.5454542,4128.42424201,3074.42424212,4732.18181771,3037.33333303,3982.12121172,4108.84848444,4194.36363594,3671.99999963,4227.33333291,8.2424242416,4667.27272681,3115.63636332,4276.27272685,2975.51515122,42.0,42.0,?
2017-07-31 18:32:58.922852,4308.7272723,3606.0606057,4172.21212079,1067.39393929,3679.21212084,3911.03030264,3681.78787842,407.999999959,4123.27272686,259.63636361,5213.84848433,4215.99999958,4021.78787839,3486.5454542,4126.87878747,3074.42424212,4731.66666619,3037.33333303,3988.3030299,4108.84848444,4204.15151473,3671.99999963,4228.36363594,8.2424242416,4674.99999953,3115.63636332,4276.78787836,2975.51515122,42.0,42.0,?
2017-07-31 18:32:58.932664,4310.27272684,3606.0606057,4170.15151473,1067.39393929,3676.12121175,3911.03030264,3681.78787842,407.999999959,4124.30302989,259.63636361,5210.24242372,4215.99999958,4025.39393899,3486.5454542,4130.48484807,3074.42424212,4740.93939347,3037.33333303,3994.48484809,4108.84848444,4217.03030261,3671.99999963,4231.45454503,8.2424242416,4677.06060559,3115.63636332,4279.87878745,2975.51515122,42.0,42.0,?
2017-07-31 18:32:58.939217,4307.18181775,3606.0606057,4171.69696928,1067.39393929,3676.63636327,3911.03030264,3681.78787842,407.999999959,4125.33333292,259.63636361,5202.51515099,4215.99999958,4022.3030299,3486.5454542,4132.54545413,3074.42424212,4747.12121165,3037.33333303,3986.75757536,4108.84848444,4217.03030261,3671.99999963,4227.84848443,8.2424242416,4666.24242378,3115.63636332,4277.30302988,2975.51515122,42.0,42.0,?
2017-07-31 18:32:58.945606,4304.60606018,3606.0606057,4171.69696928,1067.39393929,3675.60606024,3911.03030264,3679.72727236,407.999999959,4124.81818141,259.63636361,5197.87878736,4215.99999958,4018.18181778,3486.5454542,4130.48484807,3074.42424212,4750.21212074,3037.33333303,3976.96969657,4108.84848444,4215.48484806,3671.99999963,4225.27272685,8.2424242416,4660.57575711,3115.63636332,4266.48484806,2975.51515122,42.0,42.0,?
2017-07-31 18:32:58.953867,4307.69696927,3606.0606057,4171.18181776,1067.39393929,3678.18181781,3911.03030264,3675.60606024,407.999999959,4129.45454504,259.63636361,5207.15151463,4215.99999958,4020.24242384,3486.5454542,4134.09090868,3074.42424212,4747.12121165,3037.33333303,3980.57575718,4108.84848444,4224.24242382,3671.99999963,4228.87878746,8.2424242416,4667.27272681,3115.63636332,4253.09090867,2975.51515122,42.0,42.0,?
2017-07-31 18:32:58.963469,4311.30302987,3606.0606057,4171.69696928,1067.39393929,3681.78787842,3911.03030264,3676.12121175,407.999999959,4137.69696928,259.63636361,5219.51515099,4215.99999958,4025.39393899,3486.5454542,4140.78787837,3074.42424212,4738.8787874,3037.33333303,3989.33333293,4108.84848444,4235.06060564,3671.99999963,4231.96969655,8.2424242416,4671.90909044,3115.63636332,4258.75757533,2975.51515122,42.0,42.0,?
2017-07-31 18:32:58.969516,4313.87878745,3606.0606057,4170.66666625,1067.39393929,3684.363636,3911.03030264,3680.75757539,407.999999959,4142.84848443,259.63636361,5223.63636311,4215.99999958,4033.63636323,3486.5454542,4142.33333292,3074.42424212,4740.42424195,3037.33333303,3994.48484809,4108.84848444,4240.21212079,3671.99999963,4230.424242,8.2424242416,4673.45454499,3115.63636332,4248.96969654,2975.51515122,42.0,42.0,?
2017-07-31 18:32:58.978096,4313.36363593,3606.0606057,4170.15151473,1067.39393929,3687.45454509,3911.03030264,3678.69696933,407.999999959,4139.75757534,259.63636361,5214.87878736,4215.99999958,4038.27272687,3486.5454542,4142.33333292,3074.42424212,4747.12121165,3037.33333303,3990.36363596,4108.84848444,4235.06060564,3671.99999963,4227.84848443,8.2424242416,4669.33333287,3115.63636332,4169.1212117,2975.51515122,42.0,42.0,?
2017-07-31 18:32:58.986554,4312.3333329,3606.0606057,4169.63636322,1067.39393929,3684.363636,3911.03030264,3672.51515115,407.999999959,4130.48484807,259.63636361,5202.51515099,4215.99999958,4029.51515111,3486.5454542,4140.27272686,3074.42424212,4741.45454498,3037.33333303,3980.06060566,4108.84848444,4225.78787837,3671.99999963,4225.78787837,8.2424242416,4657.48484802,3115.63636332,4084.12121171,2975.51515122,42.0,42.0,?
2017-07-31 18:32:58.992671,4315.42424199,3606.0606057,4166.03030261,1067.39393929,3680.24242387,3911.03030264,3672.51515115,407.999999959,4128.42424201,259.63636361,5204.57575706,4215.99999958,4021.27272687,3486.5454542,4134.09090868,3074.42424212,4737.33333286,3037.33333303,3980.06060566,4108.84848444,4226.30302988,3671.99999963,4225.27272685,8.2424242416,4655.42424196,3115.63636332,4073.3030299,2975.51515122,42.0,42.0,?
2017-07-31 18:32:59.000746,4323.15151472,3606.0606057,4166.03030261,1067.39393929,3683.33333296,3911.03030264,3676.12121175,407.999999959,4136.66666625,259.63636361,5213.84848433,4215.99999958,4023.84848445,3486.5454542,4136.66666625,3074.42424212,4747.63636316,3037.33333303,3990.87878748,4108.84848444,4233.51515109,3671.99999963,4228.87878746,8.2424242416,4665.72727226,3115.63636332,4087.2121208,2975.51515122,42.0,42.0,?
2017-07-31 18:32:59.008336,4324.69696926,3606.0606057,4170.15151473,1067.39393929,3682.81818145,3911.03030264,3674.06060569,407.999999959,4140.78787837,259.63636361,5214.36363584,4215.99999958,4025.39393899,3486.5454542,4143.36363595,3074.42424212,4752.2727268,3037.33333303,3991.90909051,4108.84848444,4231.96969655,3671.99999963,4231.45454503,8.2424242416,4669.84848438,3115.63636332,4077.93939353,2975.51515122,42.0,42.0,?
2017-07-31 18:32:59.019786,4320.57575714,3606.0606057,4171.18181776,1067.39393929,3679.21212084,3911.03030264,3671.48484812,407.999999959,4139.24242383,259.63636361,5214.87878736,4215.99999958,4024.87878748,3486.5454542,4144.39393898,3074.42424212,4739.90909044,3037.33333303,3987.78787839,4108.84848444,4227.33333291,3671.99999963,4230.424242,8.2424242416,4668.30302984,3115.63636332,4077.42424202,2975.51515122,42.0,42.0,?
2017-07-31 18:32:59.024984,4326.75757532,3606.0606057,4170.15151473,1067.39393929,3687.9696966,3911.03030264,3677.6666663,407.999999959,4140.78787837,259.63636361,5223.1212116,4215.99999958,4034.66666626,3486.5454542,4148.5151511,3074.42424212,4742.48484801,3037.33333303,3998.09090869,4108.84848444,4235.57575715,3671.99999963,4230.424242,8.2424242416,4675.51515105,3115.63636332,4095.96969656,2975.51515122,42.0,42.0,?
2017-07-31 18:32:59.030985,4333.45454502,3606.0606057,4169.63636322,1067.39393929,3695.18181781,3911.03030264,3683.33333296,407.999999959,4142.84848443,259.63636361,5225.18181766,4215.99999958,4050.12121172,3486.5454542,4155.72727231,3074.42424212,4761.54545407,3037.33333303,4008.39393899,4108.84848444,4240.7272723,3671.99999963,4230.424242,8.2424242416,4679.63636317,3115.63636332,4101.12121171,2975.51515122,42.0,42.0,?
2017-07-31 18:32:59.039015,4327.78787836,3606.0606057,4168.60606019,1067.39393929,3686.93939357,3911.03030264,3683.33333296,407.999999959,4143.36363595,259.63636361,5221.06060554,4215.99999958,4050.63636323,3486.5454542,4153.66666625,3074.42424212,4759.99999952,3037.33333303,4000.66666627,4108.84848444,4232.48484806,3671.99999963,4230.93939352,8.2424242416,4675.51515105,3115.63636332,4091.33333292,2975.51515122,42.0,42.0,?
2017-07-31 18:32:59.050783,4322.6363632,3606.0606057,4167.57575716,1067.39393929,3679.21212084,3911.03030264,3682.81818145,407.999999959,4144.39393898,259.63636361,5220.54545402,4215.99999958,4038.78787838,3486.5454542,4149.03030262,3074.42424212,4747.12121165,3037.33333303,3990.87878748,4108.84848444,4228.87878746,3671.99999963,4231.45454503,8.2424242416,4672.42424196,3115.63636332,4088.24242383,2975.51515122,42.0,42.0,?
2017-07-31 18:32:59.055606,4326.24242381,3606.0606057,4167.06060564,1067.39393929,3683.33333296,3911.03030264,3685.39393903,407.999999959,4145.42424201,259.63636361,5220.03030251,4215.99999958,4033.12121172,3486.5454542,4151.09090868,3074.42424212,4746.09090862,3037.33333303,3994.48484809,4108.84848444,4230.424242,3671.99999963,4230.93939352,8.2424242416,4672.93939347,3115.63636332,4093.39393898,2975.51515122,42.0,42.0,?
2017-07-31 18:32:59.063536,4330.87878745,3606.0606057,4167.57575716,1067.39393929,3691.06060569,3911.03030264,3689.51515115,407.999999959,4150.57575716,259.63636361,5223.63636311,4215.99999958,4041.87878747,3486.5454542,4157.27272686,3074.42424212,4746.09090862,3037.33333303,4004.27272687,4108.84848444,4236.09090867,3671.99999963,4230.424242,8.2424242416,4681.18181771,3115.63636332,4102.15151474,2975.51515122,42.0,42.0,?
2017-07-31 18:32:59.071130,4329.3333329,3606.0606057,4170.66666625,1067.39393929,3688.48484812,3911.03030264,3685.39393903,407.999999959,4153.66666625,259.63636361,5226.21212069,4215.99999958,4045.9999996,3486.5454542,4158.30302989,3074.42424212,4738.8787874,3037.33333303,4000.66666627,4108.84848444,4237.63636321,3671.99999963,4226.8181814,8.2424242416,4683.24242377,3115.63636332,4105.75757535,2975.51515122,42.0,42.0,?
2017-07-31 18:32:59.079530,4325.21212078,3606.0606057,4171.18181776,1067.39393929,3683.84848448,3911.03030264,3679.21212084,407.999999959,4146.45454504,259.63636361,5215.90909039,4215.99999958,4036.21212081,3486.5454542,4153.15151474,3074.42424212,4742.48484801,3037.33333303,3987.78787839,4108.84848444,4224.24242382,3671.99999963,4222.69696927,8.2424242416,4669.33333287,3115.63636332,4098.54545414,2975.51515122,42.0,42.0,?
2017-07-31 18:32:59.085978,4324.18181775,3606.0606057,4170.15151473,1067.39393929,3685.90909054,3911.03030264,3681.2727269,407.999999959,4139.75757534,259.63636361,5204.57575706,4215.99999958,4033.63636323,3486.5454542,4151.09090868,3074.42424212,4754.33333286,3037.33333303,3989.33333293,4108.84848444,4215.48484806,3671.99999963,4225.78787837,8.2424242416,4663.15151469,3115.63636332,4098.03030262,2975.51515122,42.0,42.0,?
2017-07-31 18:32:59.097771,4331.39393896,3606.0606057,4172.21212079,1067.39393929,3692.60606024,3911.03030264,3685.90909054,407.999999959,4143.36363595,259.63636361,5199.93939342,4215.99999958,4045.9999996,3486.5454542,4157.27272686,3074.42424212,4754.84848437,3037.33333303,4000.66666627,4108.84848444,4225.27272685,3671.99999963,4229.39393897,8.2424242416,4671.39393893,3115.63636332,4108.84848444,2975.51515122,42.0,42.0,?
2017-07-31 18:32:59.107042,4336.0303026,3606.0606057,4168.60606019,1067.39393929,3696.21212084,3911.03030264,3687.45454509,407.999999959,4145.93939352,259.63636361,5194.27272675,4215.99999958,4050.63636323,3486.5454542,4160.87878746,3074.42424212,4748.15151468,3037.33333303,4003.75757536,4108.84848444,4234.54545412,3671.99999963,4227.84848443,8.2424242416,4678.09090862,3115.63636332,4113.48484807,2975.51515122,42.0,42.0,?
2017-07-31 18:32:59.112737,4328.81818139,3606.0606057,4160.87878746,1067.39393929,3696.21212084,3911.03030264,3692.09090872,407.999999959,4146.45454504,259.63636361,5189.63636312,4215.99999958,4038.27272687,3486.5454542,4157.27272686,3074.42424212,4744.03030256,3037.33333303,3999.63636324,4108.84848444,4229.90909049,3671.99999963,4228.36363594,8.2424242416,4677.57575711,3115.63636332,4107.30302989,2975.51515122,42.0,42.0,?
2017-07-31 18:32:59.120794,4324.69696926,3606.0606057,4161.39393898,1067.39393929,3697.75757539,3911.03030264,3696.21212084,407.999999959,4149.54545413,259.63636361,5184.48484797,4215.99999958,4031.57575717,3486.5454542,4154.69696928,3074.42424212,4746.09090862,3037.33333303,4000.15151475,4108.84848444,4224.75757534,3671.99999963,4229.90909049,8.2424242416,4671.39393893,3115.63636332,4105.24242383,2975.51515122,42.0,42.0,?
2017-07-31 18:32:59.125828,4329.84848442,3606.0606057,4165.5151511,1067.39393929,3700.33333296,3911.03030264,3698.78787842,407.999999959,4149.03030262,259.63636361,5180.36363585,4215.99999958,4039.3030299,3486.5454542,4155.72727231,3074.42424212,4748.15151468,3037.33333303,4003.75757536,4108.84848444,4225.27272685,3671.99999963,4228.87878746,8.2424242416,4669.33333287,3115.63636332,4111.42424201,2975.51515122,42.0,42.0,?
2017-07-31 18:32:59.133226,4333.96969654,3606.0606057,4169.1212117,1067.39393929,3700.84848448,3911.03030264,3695.18181781,407.999999959,4151.09090868,259.63636361,5187.57575706,4215.99999958,4044.45454505,3486.5454542,4154.18181777,3074.42424212,4745.5757571,3037.33333303,4002.72727233,4108.84848444,4223.7272723,3671.99999963,4226.30302988,8.2424242416,4672.42424196,3115.63636332,4115.54545413,2975.51515122,42.0,42.0,?
2017-07-31 18:32:59.143236,4334.48484805,3606.0606057,4170.66666625,1067.39393929,3702.90909054,3911.03030264,3683.84848448,407.999999959,4158.8181814,259.63636361,5195.30302978,4215.99999958,4042.39393899,3486.5454542,4151.09090868,3074.42424212,4744.03030256,3037.33333303,3997.57575718,4108.84848444,4223.7272723,3671.99999963,4224.24242382,8.2424242416,4677.06060559,3115.63636332,4118.63636322,2975.51515122,42.0,42.0,?
2017-07-31 18:32:59.151289,4333.45454502,3606.0606057,4167.57575716,1067.39393929,3703.93939357,3911.03030264,3684.87878751,407.999999959,4161.39393898,259.63636361,5193.75757524,4215.99999958,4042.39393899,3486.5454542,4156.24242383,3074.42424212,4751.75757528,3037.33333303,3996.54545415,4108.84848444,4224.24242382,3671.99999963,4226.8181814,8.2424242416,4680.15151468,3115.63636332,4122.75757535,2975.51515122,42.0,42.0,?
2017-07-31 18:32:59.158359,4333.45454502,3606.0606057,4167.06060564,1067.39393929,3703.42424205,3911.03030264,3696.72727236,407.999999959,4159.84848443,259.63636361,5194.27272675,4215.99999958,4047.03030263,3486.5454542,4162.42424201,3074.42424212,4759.48484801,3037.33333303,4003.75757536,4108.84848444,4222.18181776,3671.99999963,4228.87878746,8.2424242416,4682.21212074,3115.63636332,4126.87878747,2975.51515122,42.0,42.0,?
2017-07-31 18:32:59.163955,4338.09090866,3606.0606057,4169.1212117,1067.39393929,3705.99999963,3911.03030264,3696.72727236,407.999999959,4158.8181814,259.63636361,5194.78787827,4215.99999958,4045.9999996,3486.5454542,4159.84848443,3074.42424212,4752.78787831,3037.33333303,4002.72727233,4108.84848444,4222.69696927,3671.99999963,4227.33333291,8.2424242416,4681.69696923,3115.63636332,4132.03030262,2975.51515122,42.0,42.0,?
2017-07-31 18:32:59.174101,4342.72727229,3606.0606057,4167.57575716,1067.39393929,3710.12121175,3911.03030264,3695.18181781,407.999999959,4155.72727231,259.63636361,5189.1212116,4215.99999958,4039.3030299,3486.5454542,4159.33333292,3074.42424212,4749.18181771,3037.33333303,3997.57575718,4108.84848444,4227.33333291,3671.99999963,4227.33333291,8.2424242416,4678.09090862,3115.63636332,4137.18181777,2975.51515122,42.0,42.0,?
2017-07-31 18:32:59.180614,4347.36363593,3606.0606057,4166.54545413,1067.39393929,3715.78787842,3911.03030264,3703.93939357,407.999999959,4155.2121208,259.63636361,5190.15151463,4215.99999958,4040.33333293,3486.5454542,4167.06060564,3074.42424212,4755.8787874,3037.33333303,4005.3030299,4108.84848444,4232.99999958,3671.99999963,4230.93939352,8.2424242416,4685.81818135,3115.63636332,4143.87878746,2975.51515122,42.0,42.0,?
2017-07-31 18:32:59.191223,4349.42424199,3606.0606057,4171.18181776,1067.39393929,3718.36363599,3911.03030264,3702.39393902,407.999999959,4158.30302989,259.63636361,5192.21212069,4215.99999958,4036.21212081,3486.5454542,4159.33333292,3074.42424212,4750.72727225,3037.33333303,4010.45454505,4108.84848444,4231.96969655,3671.99999963,4229.90909049,8.2424242416,4691.48484802,3115.63636332,4148.5151511,2975.51515122,42.0,42.0,?
2017-07-31 18:32:59.196772,4338.09090866,3606.0606057,4172.21212079,1067.39393929,3711.6666663,3911.03030264,3692.09090872,407.999999959,4156.24242383,259.63636361,5187.57575706,4215.99999958,4020.75757536,3486.5454542,4139.75757534,3074.42424212,4732.69696922,3037.33333303,3993.45454506,4108.84848444,4218.06060564,3671.99999963,4223.7272723,8.2424242416,4679.63636317,3115.63636332,4136.66666625,2975.51515122,42.0,42.0,?
2017-07-31 18:32:59.204106,4327.27272684,3606.0606057,4164.99999958,1067.39393929,3704.45454508,3911.03030264,3693.12121175,407.999999959,4156.75757534,259.63636361,5189.1212116,4215.99999958,4022.81818142,3486.5454542,4141.30302989,3074.42424212,4727.03030256,3037.33333303,3985.21212081,4108.84848444,4213.93939352,3671.99999963,4224.75757534,8.2424242416,4671.39393893,3115.63636332,4127.39393898,2975.51515122,42.0,42.0,?
2017-07-31 18:32:59.213315,4328.81818139,3606.0606057,4160.87878746,1067.39393929,3700.84848448,3911.03030264,3692.60606024,407.999999959,4163.45454504,259.63636361,5198.39393887,4215.99999958,4037.75757535,3486.5454542,4154.18181777,3074.42424212,4735.78787831,3037.33333303,3994.9999996,4108.84848444,4219.60606018,3671.99999963,4227.84848443,8.2424242416,4672.42424196,3115.63636332,4128.42424201,2975.51515122,42.0,42.0,?
2017-07-31 18:32:59.219021,4331.90909048,3606.0606057,4163.45454504,1067.39393929,3702.39393902,3911.03030264,3691.06060569,407.999999959,4164.48484807,259.63636361,5199.4242419,4215.99999958,4040.33333293,3486.5454542,4157.78787837,3074.42424212,4746.60606013,3037.33333303,3995.51515112,4108.84848444,4215.48484806,3671.99999963,4227.33333291,8.2424242416,4670.3636359,3115.63636332,4127.39393898,2975.51515122,42.0,42.0,?
2017-07-31 18:32:59.227810,4343.24242381,3606.0606057,4166.54545413,1067.39393929,3716.81818145,3911.03030264,3703.42424205,407.999999959,4164.99999958,259.63636361,5199.93939342,4215.99999958,4044.96969657,3486.5454542,4167.06060564,3074.42424212,4755.8787874,3037.33333303,4000.15151475,4108.84848444,4223.7272723,3671.99999963,4227.84848443,8.2424242416,4679.12121165,3115.63636332,4136.66666625,2975.51515122,42.0,42.0,?
2017-07-31 18:32:59.236750,4353.54545411,3606.0606057,4168.60606019,1067.39393929,3728.15151478,3911.03030264,3706.51515114,407.999999959,4168.60606019,259.63636361,5205.09090857,4215.99999958,4050.63636323,3486.5454542,4176.84848443,3074.42424212,4754.33333286,3037.33333303,4013.03030263,4108.84848444,4238.66666624,3671.99999963,4228.36363594,8.2424242416,4687.87878741,3115.63636332,4150.06060565,2975.51515122,42.0,42.0,?
2017-07-31 18:32:59.244318,4351.99999956,3606.0606057,4166.03030261,1067.39393929,3726.09090872,3911.03030264,3701.36363599,407.999999959,4166.03030261,259.63636361,5202.51515099,4215.99999958,4033.63636323,3486.5454542,4168.60606019,3074.42424212,4748.66666619,3037.33333303,4010.96969657,4108.84848444,4235.57575715,3671.99999963,4227.84848443,8.2424242416,4680.15151468,3115.63636332,4154.69696928,2975.51515122,42.0,42.0,?
2017-07-31 18:32:59.251592,4355.60606017,3606.0606057,4163.96969655,1067.39393929,3726.60606023,3911.03030264,3709.60606024,407.999999959,4162.42424201,259.63636361,5194.78787827,4215.99999958,4012.51515111,3486.5454542,4154.69696928,3074.42424212,4750.72727225,3037.33333303,4009.42424202,4108.84848444,4232.48484806,3671.99999963,4225.78787837,8.2424242416,4680.6666662,3115.63636332,4158.8181814,2975.51515122,42.0,42.0,?
2017-07-31 18:32:59.258166,4361.27272684,3606.0606057,4168.09090867,1067.39393929,3731.24242387,3911.03030264,3715.2727269,407.999999959,4161.90909049,259.63636361,5191.69696918,4215.99999958,4007.87878748,3486.5454542,4147.99999959,3074.42424212,4747.63636316,3037.33333303,4011.9999996,4108.84848444,4239.69696927,3671.99999963,4224.75757534,8.2424242416,4689.42424196,3115.63636332,4159.33333292,2975.51515122,42.0,42.0,?
2017-07-31 18:32:59.267123,4350.96969653,3606.0606057,4167.57575716,1067.39393929,3721.9696966,3911.03030264,3703.42424205,407.999999959,4158.30302989,259.63636361,5194.27272675,4215.99999958,4011.9999996,3486.5454542,4139.24242383,3074.42424212,4734.24242377,3037.33333303,4003.75757536,4108.84848444,4235.06060564,3671.99999963,4225.27272685,8.2424242416,4681.18181771,3115.63636332,4153.66666625,2975.51515122,42.0,42.0,?
2017-07-31 18:32:59.274115,4337.57575714,3606.0606057,4162.42424201,1067.39393929,3707.54545417,3911.03030264,3693.12121175,407.999999959,4154.69696928,259.63636361,5201.99999948,4215.99999958,4023.84848445,3486.5454542,4135.63636322,3074.42424212,4728.5757571,3037.33333303,3990.87878748,4108.84848444,4217.54545412,3671.99999963,4224.75757534,8.2424242416,4665.72727226,3115.63636332,4147.99999959,2975.51515122,42.0,42.0,?
2017-07-31 18:32:59.283995,4342.72727229,3606.0606057,4161.39393898,1067.39393929,3707.54545417,3911.03030264,3693.12121175,407.999999959,4162.93939352,259.63636361,5213.84848433,4215.99999958,4044.45454505,3486.5454542,4146.96969656,3074.42424212,4736.30302983,3037.33333303,3995.51515112,4108.84848444,4215.99999958,3671.99999963,4224.24242382,8.2424242416,4665.72727226,3115.63636332,4151.09090868,2975.51515122,42.0,42.0,?
2017-07-31 18:32:59.289522,4350.45454502,3606.0606057,4166.54545413,1067.39393929,3714.75757539,3911.03030264,3695.69696933,407.999999959,4170.66666625,259.63636361,5217.45454493,4215.99999958,4056.81818141,3486.5454542,4159.84848443,3074.42424212,4746.60606013,3037.33333303,4001.6969693,4108.84848444,4221.66666624,3671.99999963,4224.75757534,8.2424242416,4667.27272681,3115.63636332,4156.24242383,2975.51515122,42.0,42.0,?
2017-07-31 18:32:59.299173,4347.87878744,3655.51515115,4171.69696928,1067.39393929,3719.90909054,3911.03030264,3700.84848448,407.999999959,4170.15151473,259.63636361,5210.75757524,4215.99999958,4051.66666626,3486.5454542,4165.5151511,3074.42424212,4748.15151468,3037.33333303,3997.06060566,4108.84848444,4215.99999958,3671.99999963,4225.27272685,8.2424242416,4660.57575711,3115.63636332,4156.75757534,2975.51515122,42.0,42.0,?
2017-07-31 18:32:59.305737,4356.6363632,3655.51515115,4172.21212079,1030.3030302,3731.24242387,3911.03030264,3710.63636327,407.999999959,4172.72727231,259.63636361,5210.24242372,4215.99999958,4050.12121172,3486.5454542,4176.84848443,3074.42424212,4753.81818134,3037.33333303,4004.78787839,4108.84848444,4224.24242382,3671.99999963,4225.78787837,8.2424242416,4671.39393893,3115.63636332,4165.5151511,2975.51515122,42.0,42.0,?
2017-07-31 18:32:59.312979,4377.75757532,3655.51515115,4171.69696928,1030.3030302,3743.60606023,3911.03030264,3719.90909054,407.999999959,4179.93939352,259.63636361,5212.30302978,4215.99999958,4056.81818141,3486.5454542,4190.24242382,3074.42424212,4772.8787874,3037.33333303,4028.9999996,4108.84848444,4248.96969654,3671.99999963,4226.30302988,8.2424242416,4693.54545408,3115.63636332,4182.5151511,2991.9999997,42.0,42.0,?
2017-07-31 18:32:59.323040,4378.27272683,3655.51515115,4174.27272686,1030.3030302,3743.60606023,3919.27272688,3725.5757572,407.999999959,4181.48484807,259.63636361,5198.39393887,4215.99999958,4049.09090869,3486.5454542,4187.66666625,3074.42424212,4779.5757571,3037.33333303,4037.24242384,4108.84848444,4255.66666624,3671.99999963,4224.75757534,8.2424242416,4696.63636317,3115.63636332,4185.09090867,2991.9999997,42.0,42.0,?
2017-07-31 18:32:59.329388,4356.12121169,3655.51515115,4175.30302989,1030.3030302,3733.30302993,3919.27272688,3722.48484811,407.999999959,4172.72727231,259.63636361,5175.72727221,4215.99999958,4028.48484808,3486.5454542,4169.1212117,3074.42424212,4758.96969649,3037.33333303,4022.81818142,4108.84848444,4243.81818139,3671.99999963,4225.78787837,8.2424242416,4688.90909044,3115.63636332,4171.69696928,2991.9999997,42.0,42.0,?
2017-07-31 18:32:59.337693,4350.45454502,3655.51515115,4175.8181814,1030.3030302,3724.54545417,3919.27272688,3712.69696933,407.999999959,4168.60606019,255.51515149,5171.09090857,4215.99999958,4018.18181778,3486.5454542,4153.15151474,3074.42424212,4740.93939347,3037.33333303,4012.51515111,4108.84848444,4238.15151473,3671.99999963,4228.87878746,8.2424242416,4689.42424196,3115.63636332,4166.54545413,2991.9999997,42.0,42.0,?
2017-07-31 18:32:59.344006,4362.30302987,3655.51515115,4176.33333292,1030.3030302,3723.51515114,3919.27272688,3712.18181781,407.999999959,4176.33333292,255.51515149,5179.84848433,12.3636363624,4030.03030263,3486.5454542,4154.69696928,3074.42424212,4741.9696965,3037.33333303,4014.57575717,4108.84848444,4240.21212079,3671.99999963,4228.36363594,8.2424242416,4688.39393893,3115.63636332,4176.84848443,2991.9999997,42.0,42.0,?
2017-07-31 18:32:59.352293,4358.69696926,3655.51515115,4178.39393898,1030.3030302,3722.48484811,3919.27272688,3716.81818145,407.999999959,4177.36363595,255.51515149,5176.24242372,12.3636363624,4045.9999996,3478.30302996,4161.39393898,3074.42424212,4740.93939347,3037.33333303,4010.96969657,4108.84848444,4231.96969655,3671.99999963,4226.30302988,8.2424242416,4677.06060559,3115.63636332,4177.36363595,2991.9999997,42.0,42.0,?
2017-07-31 18:32:59.361369,4347.36363593,3655.51515115,4175.8181814,1030.3030302,3717.84848448,3919.27272688,3711.6666663,407.999999959,4164.99999958,255.51515149,5164.90909039,12.3636363624,4052.18181778,3478.30302996,4163.45454504,3074.42424212,4735.78787831,3037.33333303,4003.24242384,4108.84848444,4220.1212117,3671.99999963,4224.24242382,8.2424242416,4671.39393893,3115.63636332,4168.09090867,2991.9999997,42.0,42.0,?
2017-07-31 18:32:59.368866,4354.06060563,3655.51515115,4172.72727231,1030.3030302,3720.93939357,3919.27272688,3705.48484811,407.999999959,4160.87878746,255.51515149,5163.36363585,12.3636363624,4055.78787838,3478.30302996,4169.1212117,3074.42424212,4740.93939347,3045.57575727,3999.63636324,4108.84848444,4227.33333291,3671.99999963,4224.24242382,8.2424242416,4684.2727268,3115.63636332,4176.33333292,2991.9999997,42.0,42.0,?
2017-07-31 18:32:59.377950,4355.60606017,3655.51515115,4174.27272686,1030.3030302,3724.54545417,3919.27272688,3705.48484811,407.999999959,4160.87878746,255.51515149,5163.36363585,12.3636363624,4054.24242384,3478.30302996,4172.72727231,3074.42424212,4746.09090862,3045.57575727,4002.21212081,4117.09090868,4236.09090867,3671.99999963,4225.27272685,8.2424242416,4692.51515105,3115.63636332,4183.54545413,2991.9999997,42.0,42.0,?
2017-07-31 18:32:59.384748,4345.81818138,3655.51515115,4171.69696928,1030.3030302,3717.33333296,3919.27272688,3701.36363599,407.999999959,4149.54545413,255.51515149,5149.96969645,12.3636363624,4045.48484808,3478.30302996,4168.60606019,3074.42424212,4740.93939347,3045.57575727,4006.33333293,4117.09090868,4230.93939352,3663.75757539,4225.78787837,8.2424242416,4683.75757529,3115.63636332,4176.84848443,2991.9999997,42.0,42.0,?
2017-07-31 18:32:59.391472,4349.42424199,3655.51515115,4169.1212117,1030.3030302,3712.69696933,3919.27272688,3695.18181781,407.999999959,4138.72727231,255.51515149,5134.515151,12.3636363624,4036.72727232,3478.30302996,4164.48484807,3074.42424212,4738.36363589,3045.57575727,4007.36363596,4117.09090868,4225.27272685,3663.75757539,4224.75757534,12.3636363624,4676.03030256,3115.63636332,4175.30302989,2991.9999997,42.0,42.0,?
2017-07-31 18:32:59.402981,4353.54545411,3655.51515115,4174.78787837,1030.3030302,3717.33333296,3919.27272688,3696.72727236,407.999999959,4143.87878746,255.51515149,5133.48484797,12.3636363624,4028.48484808,3478.30302996,4162.42424201,3074.42424212,4744.54545407,3045.57575727,4006.84848445,4117.09090868,4230.93939352,3663.75757539,4225.27272685,12.3636363624,4677.06060559,3103.27272696,4181.48484807,2991.9999997,42.0,42.0,?
2017-07-31 18:32:59.410025,4346.84848441,3655.51515115,4177.36363595,1030.3030302,3718.87878751,3919.27272688,3700.84848448,407.999999959,4154.18181777,255.51515149,5142.75757524,12.3636363624,4019.21212081,3478.30302996,4157.27272686,3074.42424212,4741.45454498,3045.57575727,4010.96969657,4117.09090868,4237.1212117,3663.75757539,4228.36363594,12.3636363624,4684.2727268,3103.27272696,4184.57575716,2991.9999997,42.0,42.0,?
2017-07-31 18:32:59.416259,4346.3333329,3655.51515115,4173.24242383,1030.3030302,3713.72727236,3919.27272688,3699.81818145,407.999999959,4158.30302989,255.51515149,5148.93939342,12.3636363624,4021.78787839,3478.30302996,4153.66666625,3074.42424212,4728.5757571,3045.57575727,4013.03030263,4117.09090868,4233.51515109,3671.99999963,4226.8181814,12.3636363624,4688.90909044,3103.27272696,4184.57575716,2991.9999997,42.0,42.0,?
2017-07-31 18:32:59.422364,4353.54545411,3655.51515115,4169.63636322,1030.3030302,3711.6666663,3919.27272688,3701.87878751,407.999999959,4160.36363595,255.51515149,5156.15151464,12.3636363624,4037.75757535,3478.30302996,4154.69696928,3074.42424212,4729.60606013,3045.57575727,4011.9999996,4117.09090868,4231.96969655,3671.99999963,4224.24242382,4.1212121208,4690.9696965,3103.27272696,4188.18181776,2991.9999997,42.0,42.0,?
2017-07-31 18:32:59.432097,4346.84848441,3655.51515115,4166.03030261,1030.3030302,3707.54545417,3919.27272688,3705.48484811,407.999999959,4159.84848443,255.51515149,5163.87878736,12.3636363624,4041.87878747,3478.30302996,4154.69696928,3074.42424212,4733.21212074,3045.57575727,4003.75757536,4117.09090868,4226.8181814,3671.99999963,4226.30302988,4.1212121208,4684.2727268,3103.27272696,4184.57575716,2991.9999997,42.0,42.0,?
2017-07-31 18:32:59.438601,4331.90909048,3655.51515115,4163.96969655,1030.3030302,3700.33333296,3919.27272688,3703.93939357,407.999999959,4157.27272686,255.51515149,5163.87878736,12.3636363624,4040.33333293,3478.30302996,4158.8181814,3074.42424212,4727.54545407,3045.57575727,3994.48484809,4117.09090868,4213.93939352,3671.99999963,4227.84848443,4.1212121208,4670.87878741,3103.27272696,4175.8181814,2991.9999997,42.0,42.0,?
2017-07-31 18:32:59.446092,4332.93939351,3655.51515115,4170.15151473,1030.3030302,3701.87878751,3919.27272688,3701.87878751,407.999999959,4159.84848443,255.51515149,5165.93939342,12.3636363624,4051.66666626,3478.30302996,4171.69696928,3074.42424212,4735.78787831,3045.57575727,3999.63636324,4117.09090868,4217.54545412,3671.99999963,4227.84848443,4.1212121208,4674.99999953,3103.27272696,4181.48484807,2991.9999997,42.0,42.0,?
2017-07-31 18:32:59.455767,4344.78787835,3655.51515115,4175.30302989,1030.3030302,3707.03030266,3919.27272688,3705.48484811,407.999999959,4165.5151511,255.51515149,5171.60606009,12.3636363624,4055.78787838,3478.30302996,4177.87878746,3074.42424212,4745.06060559,3045.57575727,4005.81818142,4117.09090868,4229.90909049,3671.99999963,4226.30302988,4.1212121208,4687.36363589,3103.27272696,4192.30302988,2991.9999997,42.0,42.0,?
2017-07-31 18:32:59.466242,4353.54545411,3655.51515115,4174.27272686,1030.3030302,3709.60606024,3919.27272688,3710.12121175,407.999999959,4170.15151473,255.51515149,5163.36363585,12.3636363624,4049.09090869,3478.30302996,4174.78787837,3074.42424212,4739.90909044,3045.57575727,4003.75757536,4117.09090868,4230.424242,3671.99999963,4224.24242382,4.1212121208,4691.48484802,3103.27272696,4195.39393897,2991.9999997,42.0,42.0,?
2017-07-31 18:32:59.472029,4358.69696926,3655.51515115,4173.24242383,1030.3030302,3714.75757539,3919.27272688,3711.15151478,407.999999959,4170.66666625,255.51515149,5144.30302979,12.3636363624,4049.09090869,3478.30302996,4176.84848443,3074.42424212,4746.60606013,3045.57575727,4009.42424202,4117.09090868,4232.48484806,3671.99999963,4225.27272685,4.1212121208,4691.99999953,3103.27272696,4200.03030261,2991.9999997,42.0,42.0,?
2017-07-31 18:32:59.480947,4365.39393896,3655.51515115,4172.21212079,1030.3030302,3719.90909054,3919.27272688,3711.6666663,407.999999959,4162.42424201,255.51515149,5125.24242373,12.3636363624,4048.57575717,3478.30302996,4179.42424201,3074.42424212,4756.39393892,3045.57575727,4023.84848445,4117.09090868,4243.30302988,3671.99999963,4227.33333291,4.1212121208,4696.63636317,3103.27272696,4207.24242382,2991.9999997,42.0,42.0,?
2017-07-31 18:32:59.485374,4379.81818138,3655.51515115,4171.18181776,1030.3030302,3727.63636326,3919.27272688,3717.33333296,407.999999959,4157.78787837,255.51515149,5108.24242373,12.3636363624,4045.48484808,3478.30302996,4172.72727231,3074.42424212,4753.30302983,3045.57575727,4037.75757535,4117.09090868,4257.7272723,3671.99999963,4227.84848443,4.1212121208,4712.09090862,3103.27272696,4219.60606018,2991.9999997,42.0,42.0,?
2017-07-31 18:32:59.493017,4391.15151471,3655.51515115,4175.30302989,1030.3030302,3736.39393902,3919.27272688,3727.12121175,407.999999959,4165.5151511,255.51515149,5094.84848434,12.3636363624,4052.18181778,3478.30302996,4169.1212117,3074.42424212,4753.30302983,3045.57575727,4048.57575717,4117.09090868,4268.54545412,3671.99999963,4227.33333291,4.1212121208,4724.45454498,3103.27272696,4230.424242,2991.9999997,42.0,42.0,?
2017-07-31 18:32:59.503120,4384.96969653,3655.51515115,4177.36363595,1030.3030302,3736.90909054,3919.27272688,3730.21212084,407.999999959,4175.30302989,255.51515149,5089.18181767,12.3636363624,4066.09090868,3478.30302996,4176.33333292,3074.42424212,4758.45454498,3045.57575727,4045.9999996,4117.09090868,4267.51515109,3671.99999963,4227.33333291,4.1212121208,4720.33333286,3103.27272696,4228.87878746,2991.9999997,42.0,42.0,?
2017-07-31 18:32:59.509500,4370.03030259,3655.51515115,4170.66666625,1030.3030302,3728.66666629,3919.27272688,3725.5757572,407.999999959,4176.84848443,255.51515149,5084.03030252,12.3636363624,4075.87878747,3478.30302996,4188.18181776,3074.42424212,4755.8787874,3045.57575727,4030.54545414,4117.09090868,4254.1212117,3671.99999963,4226.30302988,4.1212121208,4707.9696965,3103.27272696,4221.15151473,2991.9999997,42.0,42.0,?
2017-07-31 18:32:59.518069,4360.75757532,3655.51515115,4168.09090867,1030.3030302,3722.48484811,3919.27272688,3724.03030266,407.999999959,4175.30302989,255.51515149,5079.39393889,12.3636363624,4086.18181777,3478.30302996,4197.45454503,3074.42424212,4754.84848437,3045.57575727,4024.87878748,4117.09090868,4245.87878745,3671.99999963,4225.78787837,4.1212121208,4699.72727226,3103.27272696,4211.36363594,2991.9999997,42.0,42.0,?
2017-07-31 18:32:59.524515,4359.72727229,3655.51515115,4170.66666625,1030.3030302,3721.45454508,3919.27272688,3727.63636326,407.999999959,4177.87878746,255.51515149,5079.39393889,12.3636363624,4094.42424201,3478.30302996,4205.69696928,3074.42424212,4766.18181771,3045.57575727,4033.63636323,4117.09090868,4249.99999958,3671.99999963,4227.33333291,4.1212121208,4701.78787832,3103.27272696,4208.78787837,2991.9999997,42.0,42.0,?
2017-07-31 18:32:59.532221,4363.3333329,3655.51515115,4171.18181776,1030.3030302,3721.9696966,3919.27272688,3728.66666629,407.999999959,4178.90909049,255.51515149,5069.6060601,12.3636363624,4091.33333292,3478.30302996,4209.30302988,3074.42424212,4774.93939346,3045.57575727,4039.3030299,4117.09090868,4255.15151473,3671.99999963,4226.8181814,4.1212121208,4705.90909044,3103.27272696,4217.54545412,2991.9999997,42.0,42.0,?
2017-07-31 18:32:59.541517,4363.3333329,3655.51515115,4171.69696928,1030.3030302,3721.45454508,3919.27272688,3725.06060569,407.999999959,4174.27272686,255.51515149,5040.75757525,12.3636363624,4083.6060602,3478.30302996,4202.60606019,3074.42424212,4770.30302983,3045.57575727,4031.57575717,4117.09090868,4253.09090867,3671.99999963,4224.75757534,4.1212121208,4702.30302983,3103.27272696,4218.57575715,2991.9999997,42.0,42.0,?
2017-07-31 18:32:59.548279,4357.66666623,3655.51515115,4170.15151473,1030.3030302,3721.45454508,3919.27272688,3722.99999963,407.999999959,4167.57575716,255.51515149,5007.27272677,12.3636363624,4070.72727232,3478.30302996,4190.24242382,3074.42424212,4759.48484801,3045.57575727,4021.78787839,4117.09090868,4251.54545412,3671.99999963,4225.78787837,4.1212121208,4702.30302983,3103.27272696,4212.39393897,2991.9999997,42.0,42.0,?
2017-07-31 18:32:59.557264,4361.78787835,3655.51515115,4168.60606019,1030.3030302,3724.03030266,3919.27272688,3725.5757572,407.999999959,4161.90909049,255.51515149,4989.24242374,12.3636363624,4054.75757535,3478.30302996,4179.93939352,3074.42424212,4754.84848437,3045.57575727,4031.06060566,4117.09090868,4254.63636321,3671.99999963,4227.84848443,4.1212121208,4713.12121165,3103.27272696,4215.48484806,2991.9999997,42.0,42.0,?
2017-07-31 18:32:59.568212,4374.66666623,3655.51515115,4168.09090867,1030.3030302,3726.60606023,3919.27272688,3732.2727269,407.999999959,4163.96969655,255.51515149,4980.48484799,12.3636363624,4048.06060566,3478.30302996,4174.27272686,3074.42424212,4763.09090861,3045.57575727,4052.69696929,4117.09090868,4261.84848442,3671.99999963,4229.90909049,4.1212121208,4723.42424195,3103.27272696,4227.84848443,2991.9999997,42.0,42.0,?
2017-07-31 18:32:59.574369,4374.15151471,3655.51515115,4168.09090867,1030.3030302,3730.21212084,3919.27272688,3734.84848448,407.999999959,4170.66666625,255.51515149,4971.21212072,12.3636363624,4052.69696929,3478.30302996,4170.66666625,3074.42424212,4769.2727268,3045.57575727,4051.15151475,4117.09090868,4265.45454503,3671.99999963,4230.93939352,4.1212121208,4721.36363589,3103.27272696,4232.99999958,2991.9999997,42.0,42.0,?
2017-07-31 18:32:59.579510,4363.3333329,3655.51515115,4171.18181776,1030.3030302,3731.75757538,3919.27272688,3735.36363599,407.999999959,4175.8181814,255.51515149,4967.60606011,12.3636363624,4064.54545414,3478.30302996,4172.21212079,3074.42424212,4766.18181771,3045.57575727,4031.57575717,4117.09090868,4256.69696927,3671.99999963,4227.84848443,4.1212121208,4710.03030256,3103.27272696,4231.45454503,2991.9999997,42.0,42.0,?
2017-07-31 18:32:59.587137,4361.27272684,3655.51515115,4172.21212079,1030.3030302,3725.06060569,3919.27272688,3736.90909054,407.999999959,4181.99999958,255.51515149,4962.96969647,12.3636363624,4082.57575717,3478.30302996,4185.60606019,3074.42424212,4764.12121164,3045.57575727,4030.03030263,4117.09090868,4251.03030261,3671.99999963,4225.27272685,4.1212121208,4705.39393892,3103.27272696,4231.45454503,2991.9999997,42.0,42.0,?
2017-07-31 18:32:59.594589,4356.12121169,3655.51515115,4167.57575716,1030.3030302,3717.84848448,3919.27272688,3731.75757538,407.999999959,4183.54545413,255.51515149,4948.03030254,12.3636363624,4094.93939353,3478.30302996,4201.06060564,3074.42424212,4769.78787831,3045.57575727,4039.81818141,4117.09090868,4249.48484806,3671.99999963,4224.75757534,4.1212121208,4702.30302983,3103.27272696,4223.7272723,2991.9999997,42.0,42.0,?
2017-07-31 18:32:59.602771,4345.30302987,3655.51515115,4164.48484807,1030.3030302,3715.78787842,3919.27272688,3727.12121175,407.999999959,4179.42424201,255.51515149,4937.72727223,12.3636363624,4091.84848444,3478.30302996,4204.15151473,3074.42424212,4773.39393892,3045.57575727,4026.42424202,4117.09090868,4241.24242382,3671.99999963,4224.75757534,4.1212121208,4691.48484802,3103.27272696,4212.39393897,2991.9999997,42.0,42.0,?
2017-07-31 18:32:59.610830,4344.78787835,3655.51515115,4167.06060564,1030.3030302,3717.33333296,3919.27272688,3730.72727235,407.999999959,4177.87878746,255.51515149,4937.72727223,12.3636363624,4085.15151474,3478.30302996,4201.06060564,3074.42424212,4765.15151467,3045.57575727,4013.54545414,4117.09090868,4237.63636321,3671.99999963,4224.75757534,4.1212121208,4685.30302983,3103.27272696,4210.33333291,2991.9999997,42.0,42.0,?
2017-07-31 18:32:59.619270,4348.90909047,3655.51515115,4168.60606019,1030.3030302,3718.36363599,3919.27272688,3734.33333296,407.999999959,4183.03030261,255.51515149,4928.45454496,12.3636363624,4082.57575717,3478.30302996,4202.60606019,3074.42424212,4758.96969649,3045.57575727,4040.33333293,4117.09090868,4246.39393897,3671.99999963,4224.75757534,4.1212121208,4689.42424196,3103.27272696,4208.78787837,2991.9999997,42.0,42.0,?
2017-07-31 18:32:59.627088,4351.99999956,3655.51515115,4166.54545413,1030.3030302,3719.90909054,3919.27272688,3734.33333296,407.999999959,4186.1212117,255.51515149,4910.93939345,12.3636363624,4081.03030262,3478.30302996,4205.69696928,3074.42424212,4767.72727225,3045.57575727,4075.36363596,4117.09090868,4263.39393897,3671.99999963,4226.8181814,4.1212121208,4693.03030256,3103.27272696,4204.15151473,2991.9999997,42.0,42.0,?
2017-07-31 18:32:59.637195,4359.72727229,3655.51515115,4167.06060564,1030.3030302,3722.99999963,3919.27272688,3735.36363599,407.999999959,4181.48484807,255.51515149,4895.99999951,12.3636363624,4076.39393899,3478.30302996,4204.15151473,3074.42424212,4778.54545407,3045.57575727,4085.15151474,4117.09090868,4277.81818139,3671.99999963,4229.90909049,4.1212121208,4697.6666662,3103.27272696,4202.09090867,2991.9999997,42.0,42.0,?
2017-07-31 18:32:59.643665,4368.99999956,3655.51515115,4169.63636322,1030.3030302,3730.21212084,3919.27272688,3735.87878751,407.999999959,4176.84848443,255.51515149,4888.27272678,12.3636363624,4068.66666626,3478.30302996,4194.87878746,3074.42424212,4774.42424195,3045.57575727,4087.72727232,4117.09090868,4287.60606018,3671.99999963,4231.45454503,4.1212121208,4707.45454498,3103.27272696,4204.66666625,2991.9999997,42.0,42.0,?
2017-07-31 18:32:59.651959,4379.30302987,3655.51515115,4168.09090867,1030.3030302,3734.84848448,3919.27272688,3733.81818144,407.999999959,4178.90909049,255.51515149,4884.66666618,12.3636363624,4061.45454505,3478.30302996,4187.15151473,3074.42424212,4764.63636316,3045.57575727,4088.75757535,4117.09090868,4292.75757533,3671.99999963,4229.90909049,4.1212121208,4713.12121165,3103.27272696,4205.18181776,2991.9999997,42.0,42.0,?
2017-07-31 18:32:59.658456,4385.99999956,3655.51515115,4167.57575716,1030.3030302,3734.84848448,3919.27272688,3735.36363599,407.999999959,4181.48484807,255.51515149,4879.51515103,12.3636363624,4063.51515111,3478.30302996,4185.60606019,3074.42424212,4767.21212074,3045.57575727,4085.15151474,4117.09090868,4292.24242381,3671.99999963,4228.36363594,4.1212121208,4714.15151468,3103.27272696,4201.57575716,2991.9999997,42.0,42.0,?
2017-07-31 18:32:59.667356,4387.54545411,3655.51515115,4168.60606019,1030.3030302,3739.48484811,3919.27272688,3737.93939357,407.999999959,4180.96969655,255.51515149,4881.06060557,12.3636363624,4079.48484808,3478.30302996,4191.27272685,3074.42424212,4774.93939346,3045.57575727,4092.36363595,4117.09090868,4292.24242381,3671.99999963,4229.39393897,4.1212121208,4717.75757529,3103.27272696,4202.60606019,2991.9999997,42.0,42.0,?
2017-07-31 18:32:59.673186,4386.51515108,3655.51515115,4171.18181776,1030.3030302,3740.51515114,3919.27272688,3739.48484811,407.999999959,4184.57575716,255.51515149,4891.87878739,12.3636363624,4089.27272686,3478.30302996,4200.03030261,3074.42424212,4775.45454498,3045.57575727,4096.99999959,4117.09090868,4289.15151472,3671.99999963,4227.84848443,4.1212121208,4716.21212074,3103.27272696,4201.57575716,2991.9999997,42.0,42.0,?
2017-07-31 18:32:59.681913,4389.09090865,3655.51515115,4171.69696928,1030.3030302,3734.84848448,3919.27272688,3737.42424205,407.999999959,4190.75757534,255.51515149,4891.87878739,12.3636363624,4088.24242383,3478.30302996,4201.06060564,3074.42424212,4771.84848437,3045.57575727,4083.6060602,4117.09090868,4280.39393897,3671.99999963,4223.7272723,4.1212121208,4710.03030256,3103.27272696,4194.36363594,2991.9999997,42.0,42.0,?
2017-07-31 18:32:59.689199,4389.09090865,3655.51515115,4167.06060564,1030.3030302,3733.30302993,3919.27272688,3734.84848448,407.999999959,4185.60606019,255.51515149,4878.99999951,12.3636363624,4090.81818141,3478.30302996,4195.90909049,3074.42424212,4771.84848437,3045.57575727,4072.78787838,4117.09090868,4276.27272685,3671.99999963,4224.75757534,4.1212121208,4708.99999953,3103.27272696,4193.33333291,2991.9999997,42.0,42.0,?
2017-07-31 18:32:59.696686,4382.39393896,3655.51515115,4163.45454504,1030.3030302,3737.93939357,3919.27272688,3738.9696966,407.999999959,4179.42424201,255.51515149,4869.72727224,12.3636363624,4089.27272686,3478.30302996,4194.36363594,3074.42424212,4773.90909043,3045.57575727,4074.84848444,4117.09090868,4274.7272723,3671.99999963,4226.30302988,4.1212121208,4705.90909044,3103.27272696,4197.96969655,2991.9999997,42.0,42.0,?
2017-07-31 18:32:59.704013,4381.87878744,3655.51515115,4164.48484807,1030.3030302,3741.54545417,3919.27272688,3743.60606023,407.999999959,4183.54545413,255.51515149,4865.60606012,12.3636363624,4076.9090905,3478.30302996,4195.90909049,3074.42424212,4775.45454498,3045.57575727,4081.03030262,4117.09090868,4275.24242381,3671.99999963,4225.27272685,4.1212121208,4704.36363589,3103.27272696,4202.60606019,2991.9999997,42.0,42.0,?
2017-07-31 18:32:59.714017,4389.09090865,3655.51515115,4168.60606019,1030.3030302,3742.5757572,3919.27272688,3742.5757572,407.999999959,4181.99999958,255.51515149,4856.33333285,12.3636363624,4065.57575717,3478.30302996,4191.27272685,3074.42424212,4768.75757528,3045.57575727,4080.51515111,4117.09090868,4277.30302988,3671.99999963,4226.8181814,4.1212121208,4709.51515104,3103.27272696,4203.63636322,2991.9999997,42.0,42.0,?
2017-07-31 18:32:59.720660,4389.60606017,3655.51515115,4172.72727231,1030.3030302,3745.15151478,3919.27272688,3737.42424205,407.999999959,4172.21212079,255.51515149,4843.45454497,12.3636363624,4055.78787838,3478.30302996,4179.93939352,3074.42424212,4756.39393892,3045.57575727,4078.45454505,4117.09090868,4275.75757533,3671.99999963,4228.36363594,4.1212121208,4710.54545407,3103.27272696,4204.15151473,2991.9999997,42.0,42.0,?
2017-07-31 18:32:59.727008,4390.6363632,3655.51515115,4170.66666625,1030.3030302,3751.33333296,3919.27272688,3740.51515114,407.999999959,4173.75757534,255.51515149,4837.7878783,12.3636363624,4049.6060602,3478.30302996,4173.75757534,3074.42424212,4752.2727268,3045.57575727,4081.54545414,4117.09090868,4274.7272723,3671.99999963,4224.75757534,4.1212121208,4710.03030256,3103.27272696,4208.78787837,2991.9999997,42.0,42.0,?
2017-07-31 18:32:59.738249,4393.21212077,3655.51515115,4168.09090867,1030.3030302,3751.84848447,3919.27272688,3747.21212084,407.999999959,4179.42424201,255.51515149,4843.45454497,12.3636363624,4056.81818141,3478.30302996,4174.78787837,3074.42424212,4755.8787874,3045.57575727,4077.93939353,4117.09090868,4272.66666624,3671.99999963,4222.18181776,4.1212121208,4708.48484801,3103.27272696,4209.30302988,2991.9999997,42.0,42.0,?
2017-07-31 18:32:59.743329,4393.21212077,3655.51515115,4170.15151473,1030.3030302,3746.18181781,3919.27272688,3744.12121175,407.999999959,4175.8181814,255.51515149,4847.06060558,12.3636363624,4067.63636323,3478.30302996,4178.90909049,3074.42424212,4759.99999952,3045.57575727,4070.21212081,4117.09090868,4272.15151472,3671.99999963,4224.75757534,4.1212121208,4703.33333286,3103.27272696,4207.75757534,2991.9999997,42.0,42.0,?
2017-07-31 18:32:59.752718,4390.6363632,3655.51515115,4171.18181776,1030.3030302,3743.60606023,3919.27272688,3739.99999963,407.999999959,4175.8181814,255.51515149,4844.99999952,12.3636363624,4071.75757535,3478.30302996,4184.06060564,3074.42424212,4767.21212074,3045.57575727,4073.81818141,4117.09090868,4275.75757533,3671.99999963,4228.36363594,4.1212121208,4701.78787832,3103.27272696,4207.24242382,2991.9999997,42.0,42.0,?
2017-07-31 18:32:59.760163,4391.15151471,3655.51515115,4167.57575716,1030.3030302,3746.18181781,3919.27272688,3742.06060569,407.999999959,4181.48484807,255.51515149,4847.06060558,12.3636363624,4079.48484808,3478.30302996,4188.18181776,3074.42424212,4774.42424195,3045.57575727,4081.54545414,4117.09090868,4278.84848442,3671.99999963,4227.84848443,4.1212121208,4703.84848438,3103.27272696,4208.78787837,2991.9999997,42.0,42.0,?
2017-07-31 18:32:59.771245,4394.2424238,3655.51515115,4163.45454504,1030.3030302,3751.84848447,3919.27272688,3745.15151478,407.999999959,4181.48484807,255.51515149,4851.1818177,12.3636363624,4087.2121208,3478.30302996,4190.24242382,3074.42424212,4776.48484801,3045.57575727,4083.6060602,4117.09090868,4282.45454503,3671.99999963,4226.8181814,4.1212121208,4704.36363589,3103.27272696,4214.96969655,2991.9999997,42.0,42.0,?
2017-07-31 18:32:59.777413,4397.84848441,3655.51515115,4166.54545413,1030.3030302,3754.93939356,3919.27272688,3747.21212084,407.999999959,4182.5151511,255.51515149,4849.63636315,12.3636363624,4088.75757535,3478.30302996,4192.30302988,3074.42424212,4776.99999952,3045.57575727,4088.75757535,4117.09090868,4285.0303026,3671.99999963,4224.24242382,4.1212121208,4703.84848438,3103.27272696,4221.66666624,2991.9999997,42.0,42.0,?
2017-07-31 18:32:59.783172,4400.42424198,3655.51515115,4168.60606019,1030.3030302,3755.45454508,3919.27272688,3752.36363599,407.999999959,4188.69696928,255.51515149,4848.09090861,12.3636363624,4089.27272686,3478.30302996,4198.48484806,3074.42424212,4781.12121164,3045.57575727,4094.93939353,4117.09090868,4284.51515109,3671.99999963,4225.78787837,4.1212121208,4708.48484801,3103.27272696,4221.66666624,2991.9999997,42.0,42.0,?
2017-07-31 18:32:59.790295,4395.78787835,3655.51515115,4164.99999958,1030.3030302,3749.2727269,3919.27272688,3748.75757538,407.999999959,4186.1212117,255.51515149,4845.51515103,12.3636363624,4077.93939353,3478.30302996,4194.87878746,3074.42424212,4778.54545407,3045.57575727,4086.18181777,4117.09090868,4279.87878745,3671.99999963,4226.8181814,4.1212121208,4707.9696965,3103.27272696,4215.99999958,2991.9999997,42.0,42.0,?
2017-07-31 18:32:59.801302,4389.09090865,3655.51515115,4164.48484807,1030.3030302,3743.60606023,3919.27272688,3741.54545417,407.999999959,4180.96969655,255.51515149,4839.33333285,12.3636363624,4062.99999959,3478.30302996,4186.1212117,3074.42424212,4772.8787874,3045.57575727,4077.93939353,4117.09090868,4273.18181775,3671.99999963,4223.21212079,4.1212121208,4701.78787832,3103.27272696,4211.87878746,2991.9999997,42.0,42.0,?
2017-07-31 18:32:59.806527,4392.18181774,3643.15151479,4166.03030261,1030.3030302,3748.75757538,3919.27272688,3745.66666629,407.999999959,4184.06060564,255.51515149,4834.1818177,12.3636363624,4069.18181777,3478.30302996,4191.78787837,3074.42424212,4780.09090861,3045.57575727,4085.15151474,4117.09090868,4272.66666624,3671.99999963,4224.24242382,4.1212121208,4704.87878741,3103.27272696,4217.54545412,2991.9999997,42.0,42.0,?
2017-07-31 18:32:59.815529,4380.3333329,3643.15151479,4161.90909049,1083.87878777,3735.87878751,3919.27272688,3726.60606023,407.999999959,4166.54545413,255.51515149,4810.99999952,12.3636363624,4062.99999959,3478.30302996,4183.03030261,3074.42424212,4765.66666619,3045.57575727,4069.18181777,4117.09090868,4252.57575715,3671.99999963,4223.7272723,4.1212121208,4690.45454499,3103.27272696,4206.72727231,2991.9999997,42.0,42.0,?
2017-07-31 18:32:59.821609,4340.66666623,3643.15151479,4154.69696928,1083.87878777,3691.06060569,3919.27272688,3677.6666663,407.999999959,4119.15151474,255.51515149,4767.72727225,12.3636363624,4022.81818142,3478.30302996,4141.30302989,3074.42424212,4716.21212074,3045.57575727,4020.75757536,4117.09090868,4205.18181776,3671.99999963,4219.09090867,4.1212121208,4648.21212075,3103.27272696,4168.60606019,2996.12121182,42.0,42.0,?
2017-07-31 18:32:59.828997,4294.81818139,3643.15151479,4146.45454504,1083.87878777,3660.15151479,3894.54545416,3639.54545418,399.757575718,4072.78787838,255.51515149,4727.54545407,12.3636363624,3977.48484809,3478.30302996,4092.87878747,3074.42424212,4681.18181771,3045.57575727,3983.66666627,4117.09090868,4166.03030261,3671.99999963,4223.7272723,4.1212121208,4617.81818136,3103.27272696,4146.45454504,2996.12121182,42.0,42.0,?
2017-07-31 18:32:59.841561,4294.81818139,3643.15151479,4146.45454504,1083.87878777,3660.15151479,3894.54545416,3639.54545418,399.757575718,4072.78787838,255.51515149,4727.54545407,12.3636363624,3977.48484809,3478.30302996,4092.87878747,3074.42424212,4681.18181771,3045.57575727,3983.66666627,4117.09090868,4166.03030261,3671.99999963,4223.7272723,4.1212121208,4617.81818136,3103.27272696,4146.45454504,2996.12121182,42.0,42.0,?
2017-07-31 18:32:59.845507,4294.81818139,3643.15151479,4146.45454504,1083.87878777,3659.63636327,3894.54545416,3639.54545418,399.757575718,4074.33333293,255.51515149,4719.81818135,12.3636363624,3972.84848445,3478.30302996,4089.78787838,3074.42424212,4677.06060559,3045.57575727,3976.45454506,4117.09090868,4163.96969655,3671.99999963,4222.18181776,4.1212121208,4613.69696924,3103.27272696,4144.90909049,2996.12121182,42.0,42.0,?
2017-07-31 18:32:59.853203,4285.0303026,3643.15151479,4147.99999959,1083.87878777,3643.6666663,3894.54545416,3627.69696933,399.757575718,4070.72727232,255.51515149,4710.03030256,127.757575745,3966.66666627,3478.30302996,4082.57575717,3074.42424212,4663.15151469,3045.57575727,3967.6969693,4117.09090868,4155.2121208,3671.99999963,4218.06060564,4.1212121208,4598.7575753,3103.27272696,4133.06060565,2996.12121182,42.0,42.0,?
2017-07-31 18:32:59.860845,4269.06060563,3643.15151479,4147.99999959,1083.87878777,3635.93939358,3894.54545416,3614.81818146,399.757575718,4062.48484808,255.51515149,4699.72727226,127.757575745,3953.27272688,3490.66666632,4069.69696929,3074.42424212,4652.33333287,3045.57575727,3958.93939354,4117.09090868,4140.27272686,3671.99999963,4218.06060564,4.1212121208,4583.81818136,3103.27272696,4122.24242383,2996.12121182,42.0,42.0,?
2017-07-31 18:32:59.868199,4266.99999957,3643.15151479,4145.93939352,1083.87878777,3640.57575721,3894.54545416,3614.81818146,399.757575718,4056.81818141,255.51515149,4691.99999953,127.757575745,3941.93939355,3490.66666632,4059.9090905,3082.66666636,4649.75757529,3045.57575727,3953.78787839,4117.09090868,4135.12121171,3671.99999963,4221.15151473,4.1212121208,4582.78787833,3103.27272696,4121.72727232,2996.12121182,42.0,42.0,?
2017-07-31 18:32:59.878449,4273.69696927,3643.15151479,4145.42424201,1083.87878777,3639.03030267,3894.54545416,3619.96969661,399.757575718,4056.3030299,255.51515149,4693.54545408,127.757575745,3947.60606021,3490.66666632,4061.96969656,3082.66666636,4651.81818135,3045.57575727,3955.33333294,4117.09090868,4141.8181814,3671.99999963,4222.18181776,4.1212121208,4589.48484803,3103.27272696,4122.75757535,2996.12121182,42.0,42.0,?
2017-07-31 18:32:59.884756,4270.60606018,3643.15151479,4144.39393898,1083.87878777,3634.39393903,3894.54545416,3615.84848449,399.757575718,4056.3030299,255.51515149,4701.2727268,127.757575745,3954.30302991,3490.66666632,4066.09090868,3082.66666636,4648.21212075,3045.57575727,3958.42424203,4079.99999959,4144.39393898,3671.99999963,4220.63636321,4.1212121208,4592.0606056,3103.27272696,4120.18181777,2996.12121182,42.0,42.0,?
2017-07-31 18:32:59.893891,4263.39393897,3643.15151479,4143.36363595,1083.87878777,3631.30302994,3894.54545416,3606.0606057,399.757575718,4054.24242384,255.51515149,4701.2727268,127.757575745,3950.18181779,3490.66666632,4066.09090868,3082.66666636,4639.45454499,3045.57575727,3955.33333294,4079.99999959,4137.18181777,3634.90909055,4218.57575715,4.1212121208,4588.454545,3103.27272696,4118.12121171,2996.12121182,42.0,42.0,?
2017-07-31 18:32:59.901325,4265.96969654,3643.15151479,4145.93939352,1083.87878777,3625.63636327,3894.54545416,3600.90909055,399.757575718,4049.6060602,255.51515149,4692.51515105,127.757575745,3947.0909087,3490.66666632,4064.54545414,3082.66666636,4637.39393893,3045.57575727,3949.15151476,4079.99999959,4133.06060565,3634.90909055,4218.06060564,4.1212121208,4583.81818136,3103.27272696,4116.57575716,2996.12121182,42.0,42.0,?
2017-07-31 18:32:59.908331,4269.06060563,3643.15151479,4144.90909049,1083.87878777,3626.6666663,3894.54545416,3602.45454509,399.757575718,4048.06060566,255.51515149,4687.87878741,127.757575745,3950.18181779,3490.66666632,4064.03030262,3082.66666636,4644.09090863,3045.57575727,3946.57575718,4079.99999959,4134.60606019,3634.90909055,4217.54545412,4.1212121208,4587.42424197,3099.15151484,4115.54545413,2996.12121182,42.0,42.0,?
2017-07-31 18:32:59.916341,4263.90909048,3643.15151479,4141.8181814,1083.87878777,3635.93939358,3894.54545416,3608.63636328,399.757575718,4050.12121172,255.51515149,4689.93939347,127.757575745,3954.30302991,3490.66666632,4065.06060565,3082.66666636,4652.33333287,3045.57575727,3952.24242385,4071.75757535,4134.60606019,3634.90909055,4217.03030261,4.1212121208,4590.51515106,3099.15151484,4116.06060565,2996.12121182,42.0,42.0,?
2017-07-31 18:32:59.922988,4263.39393897,3643.15151479,4145.42424201,1083.87878777,3636.96969661,3894.54545416,3613.27272691,399.757575718,4053.72727232,255.51515149,4695.60606014,127.757575745,3957.393939,3490.66666632,4067.63636323,3082.66666636,4652.84848438,3045.57575727,3957.393939,4071.75757535,4133.57575716,3639.03030267,4217.03030261,4.1212121208,4588.96969651,3099.15151484,4120.18181777,2996.12121182,42.0,42.0,?
2017-07-31 18:32:59.935517,4269.57575715,3643.15151479,4147.48484807,1083.87878777,3632.33333297,3894.54545416,3613.27272691,399.757575718,4056.81818141,255.51515149,4699.72727226,127.757575745,3960.48484809,3490.66666632,4068.15151474,3082.66666636,4648.21212075,3045.57575727,3954.81818142,4071.75757535,4138.2121208,3639.03030267,4217.03030261,4.1212121208,4593.09090863,3099.15151484,4126.87878747,2996.12121182,42.0,42.0,?
2017-07-31 18:32:59.940100,4272.66666624,3643.15151479,4144.90909049,1083.87878777,3634.39393903,3894.54545416,3610.18181782,399.757575718,4051.66666626,255.51515149,4695.09090862,127.757575745,3955.33333294,3490.66666632,4062.48484808,3082.66666636,4644.60606014,3045.57575727,3947.60606021,4071.75757535,4137.69696928,3639.03030267,4217.54545412,4.1212121208,4597.21212075,3099.15151484,4124.81818141,2996.12121182,42.0,42.0,?
2017-07-31 18:32:59.946052,4271.63636321,3643.15151479,4143.87878746,1083.87878777,3633.87878752,3894.54545416,3604.51515115,399.757575718,4045.48484808,255.51515149,4687.36363589,127.757575745,3946.57575718,3490.66666632,4056.81818141,3082.66666636,4640.99999954,3045.57575727,3942.45454506,4071.75757535,4132.54545413,3639.03030267,4219.60606018,4.1212121208,4594.63636318,3099.15151484,4120.69696928,2996.12121182,42.0,42.0,?
2017-07-31 18:32:59.955417,4266.99999957,3643.15151479,4145.42424201,1083.87878777,3625.12121176,3894.54545416,3602.45454509,399.757575718,4046.51515111,255.51515149,4689.42424196,127.757575745,3947.0909087,3490.66666632,4054.75757535,3082.66666636,4636.3636359,3045.57575727,3942.96969658,4071.75757535,4131.5151511,3639.03030267,4220.1212117,4.1212121208,4590.51515106,3099.15151484,4121.2121208,2996.12121182,42.0,42.0,?
2017-07-31 18:32:59.962986,4261.84848442,3643.15151479,4143.87878746,1083.87878777,3622.03030267,3894.54545416,3606.0606057,399.757575718,4049.6060602,255.51515149,4693.03030256,127.757575745,3951.72727233,3490.66666632,4055.78787838,3082.66666636,4642.03030257,3045.57575727,3945.54545415,4071.75757535,4132.54545413,3639.03030267,4218.06060564,4.1212121208,4589.99999954,3099.15151484,4122.75757535,2996.12121182,42.0,42.0,?
2017-07-31 18:32:59.972594,4269.06060563,3643.15151479,4143.87878746,1083.87878777,3632.33333297,3894.54545416,3614.30302994,399.757575718,4050.63636323,255.51515149,4690.45454499,127.757575745,3954.81818142,3490.66666632,4060.93939353,3082.66666636,4656.45454499,3045.57575727,3951.21212082,4071.75757535,4137.69696928,3639.03030267,4220.63636321,4.1212121208,4594.63636318,3099.15151484,4128.93939353,2996.12121182,42.0,42.0,?
2017-07-31 18:32:59.978380,4276.78787836,3643.15151479,4148.5151511,1083.87878777,3642.12121176,3894.54545416,3620.99999964,399.757575718,4056.3030299,255.51515149,4691.99999953,127.757575745,3961.51515112,3490.66666632,4068.66666626,3082.66666636,4656.9696965,3045.57575727,3957.393939,4071.75757535,4142.84848443,3639.03030267,4221.15151473,4.1212121208,4598.7575753,3099.15151484,4134.60606019,2996.12121182,42.0,42.0,?
2017-07-31 18:32:59.986013,4269.57575715,3643.15151479,4147.99999959,1083.87878777,3641.09090873,3894.54545416,3619.45454509,399.757575718,4059.39393899,255.51515149,4693.03030256,127.757575745,3967.6969693,3490.66666632,4072.27272687,3082.66666636,4645.63636317,3045.57575727,3956.87878748,4071.75757535,4139.75757534,3639.03030267,4219.09090867,4.1212121208,4596.69696924,3099.15151484,4130.99999959,2996.12121182,42.0,42.0,?
2017-07-31 18:32:59.994418,4263.39393897,3643.15151479,4143.87878746,1083.87878777,3637.48484812,3894.54545416,3615.33333297,399.757575718,4054.75757535,255.51515149,4688.90909044,127.757575745,3962.03030263,3490.66666632,4068.15151474,3082.66666636,4647.18181772,3045.57575727,3949.15151476,4071.75757535,4134.09090868,3639.03030267,4221.15151473,4.1212121208,4593.09090863,3099.15151484,4123.27272686,2996.12121182,42.0,42.0,?
2017-07-31 18:33:00.001094,4270.60606018,3643.15151479,4145.42424201,1083.87878777,3641.60606024,3894.54545416,3618.93939358,399.757575718,4058.87878747,255.51515149,4691.48484802,127.757575745,3952.75757536,3490.66666632,4065.06060565,3082.66666636,4653.3636359,3045.57575727,3949.15151476,4071.75757535,4139.75757534,3639.03030267,4222.69696927,4.1212121208,4597.72727227,3099.15151484,4129.45454504,2996.12121182,42.0,42.0,?
2017-07-31 18:33:00.008984,4277.81818139,3643.15151479,4146.96969656,1083.87878777,3648.30302994,3894.54545416,3622.54545418,399.757575718,4065.57575717,255.51515149,4699.21212074,127.757575745,3949.66666627,3490.66666632,4062.99999959,3082.66666636,4648.72727226,3045.57575727,3954.81818142,4071.75757535,4146.96969656,3639.03030267,4221.15151473,4.1212121208,4604.42424196,3099.15151484,4142.84848443,2996.12121182,42.0,42.0,?
2017-07-31 18:33:00.017661,4276.27272685,3643.15151479,4145.42424201,1083.87878777,3650.363636,3894.54545416,3623.57575721,399.757575718,4066.09090868,255.51515149,4700.24242377,127.757575745,3952.24242385,3490.66666632,4061.96969656,3082.66666636,4647.18181772,3045.57575727,3949.15151476,4071.75757535,4139.75757534,3639.03030267,4218.57575715,4.1212121208,4598.7575753,3099.15151484,4140.78787837,2996.12121182,42.0,42.0,?
2017-07-31 18:33:00.025850,4278.84848442,3643.15151479,4143.87878746,1083.87878777,3653.9696966,3894.54545416,3632.33333297,399.757575718,4074.84848444,255.51515149,4701.2727268,127.757575745,3959.96969657,3490.66666632,4070.21212081,3082.66666636,4659.54545408,3045.57575727,3951.72727233,4071.75757535,4141.8181814,3639.03030267,4220.63636321,4.1212121208,4598.24242378,3099.15151484,4140.27272686,2996.12121182,42.0,42.0,?
2017-07-31 18:33:00.032115,4283.48484806,3643.15151479,4144.90909049,1083.87878777,3653.9696966,3894.54545416,3634.90909055,399.757575718,4078.45454505,255.51515149,4704.36363589,127.757575745,3964.09090869,3490.66666632,4075.36363596,3082.66666636,4661.09090862,3045.57575727,3961.51515112,4071.75757535,4152.63636322,3639.03030267,4221.66666624,4.1212121208,4606.99999954,3099.15151484,4147.99999959,2996.12121182,42.0,42.0,?
2017-07-31 18:33:00.041889,4283.48484806,3643.15151479,4144.90909049,1083.87878777,3646.24242388,3894.54545416,3628.72727236,399.757575718,4071.24242384,255.51515149,4706.42424195,127.757575745,3964.09090869,3490.66666632,4070.72727232,3082.66666636,4652.33333287,3045.57575727,3954.30302991,4071.75757535,4146.96969656,3639.03030267,4217.03030261,4.1212121208,4605.96969651,3099.15151484,4144.90909049,2996.12121182,42.0,42.0,?
2017-07-31 18:33:00.048811,4283.48484806,3643.15151479,4143.87878746,1083.87878777,3645.72727236,3894.54545416,3632.84848449,399.757575718,4073.3030299,255.51515149,4708.99999953,127.757575745,3965.12121172,3490.66666632,4070.21212081,3082.66666636,4653.3636359,3045.57575727,3946.06060567,4071.75757535,4142.33333292,3639.03030267,4215.48484806,4.1212121208,4602.3636359,3099.15151484,4143.87878746,2996.12121182,42.0,42.0,?
2017-07-31 18:33:00.057410,4282.96969654,3643.15151479,4144.90909049,1083.87878777,3652.93939357,3894.54545416,3638.51515115,399.757575718,4081.54545414,255.51515149,4706.42424195,127.757575745,3966.66666627,3490.66666632,4071.24242384,3082.66666636,4659.54545408,3045.57575727,3957.90909051,4071.75757535,4150.06060565,3639.03030267,4220.63636321,4.1212121208,4604.93939348,3099.15151484,4151.09090868,2996.12121182,42.0,42.0,?
2017-07-31 18:33:00.064995,4289.15151472,3643.15151479,4144.39393898,1083.87878777,3654.99999963,3894.54545416,3635.93939358,399.757575718,4079.99999959,255.51515149,4705.90909044,127.757575745,3970.78787839,3490.66666632,4071.75757535,3082.66666636,4661.60606014,3045.57575727,3971.30302991,4071.75757535,4158.8181814,3639.03030267,4222.18181776,4.1212121208,4612.66666621,3099.15151484,4157.78787837,2996.12121182,42.0,42.0,?
2017-07-31 18:33:00.073156,4295.3333329,3643.15151479,4143.87878746,1083.87878777,3654.99999963,3894.54545416,3634.90909055,399.757575718,4078.45454505,255.51515149,4711.06060559,127.757575745,3974.90909051,3490.66666632,4073.81818141,3082.66666636,4659.54545408,3045.57575727,3970.27272688,4071.75757535,4161.90909049,3639.03030267,4219.09090867,4.1212121208,4619.3636359,3099.15151484,4161.90909049,2996.12121182,42.0,42.0,?
2017-07-31 18:33:00.079531,4290.69696927,3643.15151479,4145.42424201,1083.87878777,3656.03030266,3894.54545416,3637.99999964,399.757575718,4080.51515111,255.51515149,4709.51515104,127.757575745,3972.84848445,3490.66666632,4075.36363596,3082.66666636,4659.54545408,3045.57575727,3965.12121172,4071.75757535,4157.78787837,3639.03030267,4218.57575715,4.1212121208,4618.84848439,3099.15151484,4161.39393898,2996.12121182,42.0,42.0,?
2017-07-31 18:33:00.087037,4288.12121169,3643.15151479,4144.90909049,1083.87878777,3654.48484812,3894.54545416,3639.54545418,399.757575718,4081.03030262,255.51515149,4702.81818135,127.757575745,3971.81818142,3490.66666632,4077.93939353,3082.66666636,4665.72727226,3045.57575727,3965.12121172,4071.75757535,4153.66666625,3639.03030267,4219.60606018,4.1212121208,4617.30302984,3099.15151484,4160.87878746,2996.12121182,42.0,42.0,?
2017-07-31 18:33:00.099686,4294.81818139,3643.15151479,4144.39393898,1083.87878777,3652.42424206,3894.54545416,3642.12121176,399.757575718,4081.54545414,255.51515149,4704.87878741,127.757575745,3972.84848445,3490.66666632,4081.54545414,3082.66666636,4666.24242378,3045.57575727,3968.21212082,4071.75757535,4157.78787837,3639.03030267,4217.54545412,4.1212121208,4618.84848439,3099.15151484,4162.42424201,2996.12121182,42.0,42.0,?
2017-07-31 18:33:00.103060,4296.36363593,3643.15151479,4146.45454504,1083.87878777,3656.03030266,3894.54545416,3648.30302994,399.757575718,4089.27272686,255.51515149,4712.60606013,127.757575745,3975.93939354,3490.66666632,4083.09090868,3082.66666636,4669.84848438,3045.57575727,3977.48484809,4071.75757535,4165.5151511,3639.03030267,4219.60606018,4.1212121208,4622.45454499,3099.15151484,4166.03030261,2996.12121182,42.0,42.0,?
2017-07-31 18:33:00.111112,4295.3333329,3643.15151479,4146.96969656,1083.87878777,3660.6666663,3894.54545416,3651.39393903,399.757575718,4098.54545414,255.51515149,4715.69696923,127.757575745,3980.06060566,3490.66666632,4085.66666626,3082.66666636,4685.30302983,3045.57575727,3983.66666627,4071.75757535,4166.54545413,3639.03030267,4224.24242382,4.1212121208,4627.60606014,3099.15151484,4171.69696928,2996.12121182,42.0,42.0,?
2017-07-31 18:33:00.119420,4297.39393896,3643.15151479,4146.45454504,1083.87878777,3660.15151479,3894.54545416,3652.93939357,399.757575718,4102.66666626,255.51515149,4711.5757571,127.757575745,3981.60606021,3490.66666632,4092.36363595,3082.66666636,4691.48484802,3045.57575727,3980.06060566,4071.75757535,4161.90909049,3639.03030267,4220.1212117,4.1212121208,4627.09090863,3099.15151484,4171.18181776,2996.12121182,42.0,42.0,?
2017-07-31 18:33:00.128632,4299.45454502,3643.15151479,4144.90909049,1083.87878777,3660.6666663,3894.54545416,3656.03030266,399.757575718,4102.66666626,255.51515149,4704.36363589,127.757575745,3983.66666627,3490.66666632,4096.99999959,3082.66666636,4679.63636317,3045.57575727,3977.9999996,4071.75757535,4164.48484807,3639.03030267,4216.51515109,4.1212121208,4623.48484802,3099.15151484,4170.15151473,2996.12121182,42.0,42.0,?
2017-07-31 18:33:00.137750,4298.93939351,3643.15151479,4144.39393898,1083.87878777,3664.27272691,3894.54545416,3658.60606024,399.757575718,4101.63636323,255.51515149,4698.18181771,127.757575745,3985.72727233,3490.66666632,4093.39393898,3082.66666636,4678.09090862,3045.57575727,3980.57575718,4071.75757535,4168.09090867,3639.03030267,4221.15151473,4.1212121208,4625.03030257,3099.15151484,4175.30302989,2996.12121182,42.0,42.0,?
2017-07-31 18:33:00.142728,4298.93939351,3643.15151479,4145.93939352,1083.87878777,3667.363636,3894.54545416,3659.12121176,399.757575718,4099.57575717,255.51515149,4697.6666662,127.757575745,3987.27272687,3490.66666632,4092.87878747,3082.66666636,4692.51515105,3045.57575727,3983.15151475,4071.75757535,4168.09090867,3639.03030267,4222.69696927,4.1212121208,4633.78787832,3099.15151484,4177.87878746,2996.12121182,42.0,42.0,?
2017-07-31 18:33:00.150442,4310.27272684,3643.15151479,4150.06060565,1083.87878777,3673.03030266,3894.54545416,3661.18181782,399.757575718,4101.12121171,255.51515149,4699.21212074,127.757575745,3997.06060566,3490.66666632,4105.75757535,3082.66666636,4704.87878741,3045.57575727,3990.87878748,4071.75757535,4178.39393898,3639.03030267,4220.63636321,4.1212121208,4646.6666662,3099.15151484,4181.99999958,2996.12121182,42.0,42.0,?
2017-07-31 18:33:00.158235,4319.54545411,3643.15151479,4152.12121171,1083.87878777,3678.69696933,3894.54545416,3667.87878751,399.757575718,4104.72727232,255.51515149,4692.51515105,127.757575745,4005.81818142,3490.66666632,4116.57575716,3082.66666636,4707.9696965,3045.57575727,4002.72727233,4071.75757535,4187.66666625,3639.03030267,4221.66666624,4.1212121208,4649.75757529,3099.15151484,4188.18181776,2996.12121182,42.0,42.0,?
2017-07-31 18:33:00.166161,4312.84848442,3643.15151479,4145.42424201,1083.87878777,3677.15151478,3894.54545416,3671.99999963,399.757575718,4107.30302989,255.51515149,4684.2727268,127.757575745,3997.57575718,3490.66666632,4110.9090905,3082.66666636,4703.33333286,3045.57575727,4002.72727233,4071.75757535,4185.60606019,3639.03030267,4223.7272723,4.1212121208,4643.57575711,3099.15151484,4188.18181776,2996.12121182,42.0,42.0,?
