Timestamp,F3 Value,F3 Quality,FC5 Value,FC5 Quality,F7 Value,F7 Quality,T7 Value,T7 Quality,P7 Value,P7 Quality,O1 Value,O1 Quality,O2 Value,O2 Quality,P8 Value,P8 Quality,T8 Value,T8 Quality,F8 Value,F8 Quality,AF4 Value,AF4 Quality,FC6 Value,FC6 Quality,F4 Value,F4 Quality,AF3 Value,AF3 Quality,X Value,Y Value,Z Value
2017-07-31 19:11:08.101099,4559.60606015,0,4100.6060602,0,3879.0909087,0,3927.51515112,0,4289.15151472,0,5981.93939334,0,5692.42424186,0,4400.9393935,0,5012.93939344,0,4167.06060564,0,4432.87878744,0,4167.06060564,0,4888.7878783,0,5820.69696911,0,42.0,42.0,?
2017-07-31 19:11:08.101865,4569.39393894,0,4110.39393898,0,3879.0909087,0,3961.51515112,0,4298.93939351,0,4654.90909044,0,4261.33333291,0,4389.09090865,0,5004.6969692,0,4153.15151474,0,4435.45454501,0,4173.24242383,0,4900.63636315,0,4463.78787834,0,42.0,42.0,?
2017-07-31 19:11:08.102025,4569.39393894,0,4110.39393898,0,3879.0909087,0,3961.51515112,0,4298.93939351,0,4667.78787832,0,4261.33333291,0,4389.09090865,0,5004.6969692,0,4153.15151474,0,4435.45454501,0,4173.24242383,0,4900.63636315,0,4463.78787834,0,42.0,42.0,?
2017-07-31 19:11:08.102761,4567.33333288,0,4100.09090868,0,3880.12121173,0,3972.33333294,0,4328.30302987,0,4678.60606014,0,4266.99999957,0,4388.57575714,0,5005.21212071,0,4177.36363595,0,4439.57575713,0,4177.87878746,0,4899.60606012,0,4472.5454541,0,42.0,42.0,?
2017-07-31 19:11:08.105268,4570.93939348,0,4109.36363595,0,3881.66666628,0,3927.51515112,0,4328.30302987,0,4672.42424196,0,4274.7272723,0,4388.57575714,0,4997.9999995,0,4184.57575716,0,4437.51515107,0,4171.18181776,0,4891.36363587,0,4473.06060561,0,42.0,42.0,?
2017-07-31 19:11:08.108352,4564.24242379,0,4110.9090905,0,3884.24242385,0,3933.6969693,0,4308.7272723,0,4674.48484802,0,4273.18181775,0,4388.06060562,0,4992.84848435,0,4169.1212117,0,4430.81818138,0,4167.57575716,0,4889.81818133,0,4463.78787834,0,42.0,42.0,?
2017-07-31 19:11:08.111572,4551.87878742,0,4101.63636323,0,3879.60606022,0,3966.15151475,0,4324.69696926,0,4671.90909044,0,4261.84848442,0,4388.57575714,0,5005.21212071,0,4168.09090867,0,4425.15151471,0,4170.15151473,0,4882.60606012,0,4455.03030258,0,42.0,42.0,?
2017-07-31 19:11:08.115801,4563.21212076,0,4104.2121208,0,3880.63636325,0,3966.15151475,0,4325.21212078,0,4655.93939347,0,4268.0303026,0,4396.30302986,0,5021.69696919,0,4181.99999958,0,4431.33333289,0,4175.8181814,0,4885.18181769,0,4460.18181774,0,42.0,42.0,?
2017-07-31 19:11:08.118649,4563.21212076,0,4104.2121208,0,3890.42424204,0,3963.06060566,0,4325.21212078,0,4657.48484802,0,4286.06060563,0,4409.69696926,0,5025.3030298,0,4190.75757534,0,4441.12121168,0,4175.8181814,0,4897.03030254,0,4473.06060561,0,42.0,42.0,?
2017-07-31 19:11:08.120888,4565.27272682,0,4110.39393898,0,3883.21212082,0,3956.36363597,0,4320.57575714,0,4664.69696923,0,4267.51515109,0,4402.48484804,0,5013.45454495,0,4187.66666625,0,4443.18181774,0,4170.66666625,0,4901.15151466,0,4473.06060561,0,42.0,42.0,?
2017-07-31 19:11:08.123959,4566.30302985,0,4107.30302989,0,3877.03030264,0,3936.78787839,0,4296.87878745,0,4650.78787832,0,4238.66666624,0,4384.45454502,0,5007.27272677,0,4177.36363595,0,4442.15151471,0,4167.06060564,0,4904.75757527,0,4468.42424198,0,42.0,42.0,?
2017-07-31 19:11:08.127365,4566.30302985,0,4104.72727232,0,3885.27272688,0,3933.18181779,0,4292.24242381,0,4642.03030257,0,4244.33333291,0,4383.9393935,0,5005.72727223,0,4177.87878746,0,4441.63636319,0,4173.75757534,0,4902.18181769,0,4470.48484804,0,42.0,42.0,?
2017-07-31 19:11:08.130507,4573.51515106,0,4117.60606019,0,3887.84848446,0,3959.45454506,0,4324.69696926,0,4662.63636317,0,4265.45454503,0,4392.18181774,0,5004.6969692,0,4190.75757534,0,4441.63636319,0,4177.36363595,0,4893.42424193,0,4470.99999955,0,42.0,42.0,?
2017-07-31 19:11:08.135079,4568.87878742,0,4109.36363595,0,3884.24242385,0,3965.63636324,0,4333.45454502,0,4681.18181771,0,4281.93939351,0,4404.03030259,0,5018.6060601,0,4195.39393897,0,4443.69696925,0,4171.69696928,0,4895.99999951,0,4469.96969652,0,42.0,42.0,?
2017-07-31 19:11:08.137920,4572.48484803,0,4112.45454504,0,3876.51515113,0,3938.84848445,0,4311.81818139,0,4674.99999953,0,4283.99999957,0,4411.2424238,0,5023.24242374,0,4184.06060564,0,4445.75757531,0,4169.63636322,0,4905.27272678,0,4469.96969652,0,42.0,42.0,?
2017-07-31 19:11:08.140888,4575.0606056,0,4112.45454504,0,3880.63636325,0,3949.15151476,0,4321.60606017,0,4668.81818135,0,4274.7272723,0,4405.06060562,0,5014.9999995,0,4187.66666625,0,4440.60606016,0,4175.8181814,0,4900.12121163,0,4469.45454501,0,42.0,42.0,?
2017-07-31 19:11:08.147439,4566.30302985,0,4100.6060602,0,3889.393939,0,3978.51515112,0,4339.6363632,0,4672.93939347,0,4260.81818139,0,4388.57575714,0,5000.57575708,0,4197.96969655,0,4435.45454501,0,4176.33333292,0,4892.3939389,0,4467.39393895,0,42.0,42.0,?
2017-07-31 19:11:08.155054,4571.96969651,0,4108.84848444,0,3880.12121173,0,3965.12121172,0,4329.84848442,0,4678.09090862,0,4261.84848442,0,4391.66666623,0,4996.45454495,0,4191.78787837,0,4444.72727228,0,4173.24242383,0,4903.21212072,0,4468.42424198,0,42.0,42.0,?
2017-07-31 19:11:08.164850,4573.51515106,0,4105.75757535,0,3880.63636325,0,3944.51515112,0,4317.48484805,0,4676.54545408,0,4289.66666624,0,4421.5454541,0,5031.9999995,0,4196.424242,0,4453.48484804,0,4173.75757534,0,4905.27272678,0,4479.75757531,0,42.0,42.0,?
2017-07-31 19:11:08.169991,4572.99999954,0,4110.39393898,0,3887.84848446,0,3935.24242385,0,4305.12121169,0,4660.57575711,0,4286.57575715,0,4416.39393895,0,5045.39393889,0,4202.09090867,0,4442.66666622,0,4171.18181776,0,4893.42424193,0,4480.78787834,0,42.0,42.0,?
2017-07-31 19:11:08.177957,4574.03030257,0,4113.48484807,0,3887.84848446,0,3934.21212082,0,4305.12121169,0,4651.30302984,0,4253.60606018,0,4389.09090865,0,5017.06060556,0,4200.03030261,0,4437.51515107,0,4171.18181776,0,4893.93939345,0,4472.5454541,0,42.0,42.0,?
2017-07-31 19:11:08.187727,4562.18181773,0,4101.12121171,0,3879.60606022,0,3939.87878748,0,4316.96969654,0,4654.39393893,0,4239.69696927,0,4377.75757532,0,4994.39393889,0,4189.72727231,0,4441.63636319,0,4169.1212117,0,4895.484848,0,4466.87878743,0,42.0,42.0,?
2017-07-31 19:11:08.194382,4562.18181773,0,4110.39393898,0,3869.30302992,0,3940.393939,0,4319.0303026,0,4651.81818135,0,4239.18181776,0,4364.36363593,0,4978.93939344,0,4173.24242383,0,4434.9393935,0,4167.57575716,0,4890.33333284,0,4461.21212077,0,42.0,42.0,?
2017-07-31 19:11:08.202207,4562.18181773,0,4106.78787838,0,3876.51515113,0,3952.24242385,0,4328.81818139,0,4656.45454499,0,4254.1212117,0,4375.69696926,0,4993.36363586,0,4188.69696928,0,4432.36363592,0,4174.78787837,0,4885.69696921,0,4461.72727228,0,42.0,42.0,?
2017-07-31 19:11:08.212418,4558.0606056,0,4105.75757535,0,3878.57575719,0,3958.93939354,0,4332.93939351,0,4664.69696923,0,4265.45454503,0,4399.39393895,0,5021.69696919,0,4209.8181814,0,4434.9393935,0,4177.87878746,0,4883.63636315,0,4460.18181774,0,42.0,42.0,?
2017-07-31 19:11:08.222489,4557.03030257,0,4112.45454504,0,3872.39393901,0,3939.36363597,0,4315.93939351,0,4659.03030256,0,4257.21212079,0,4394.2424238,0,5010.87878738,0,4193.84848443,0,4429.78787834,0,4171.69696928,0,4884.66666618,0,4452.45454501,0,42.0,42.0,?
2017-07-31 19:11:08.227247,4555.48484803,0,4101.63636323,0,3877.03030264,0,3928.54545415,0,4312.84848442,0,4657.48484802,0,4262.36363594,0,4388.06060562,0,4992.84848435,0,4173.75757534,0,4425.15151471,0,4171.18181776,0,4887.24242375,0,4453.48484804,0,42.0,42.0,?
2017-07-31 19:11:08.234127,4567.84848439,0,4110.39393898,0,3882.18181779,0,3931.63636324,0,4322.12121169,0,4662.63636317,0,4277.30302988,0,4401.45454501,0,5015.51515101,0,4186.1212117,0,4432.36363592,0,4176.33333292,0,4889.81818133,0,4461.72727228,0,42.0,42.0,?
2017-07-31 19:11:08.241447,4569.39393894,0,4111.42424201,0,3887.33333294,0,3939.36363597,0,4320.57575714,0,4662.63636317,0,4273.69696927,0,4411.75757532,0,5037.66666616,0,4208.27272685,0,4440.60606016,0,4173.75757534,0,4894.45454497,0,4464.30302986,0,42.0,42.0,?
2017-07-31 19:11:08.249089,4563.21212076,0,4108.33333292,0,3886.81818143,0,3966.66666627,0,4325.21212078,0,4663.15151469,0,4258.75757533,0,4397.84848441,0,5009.33333283,0,4192.8181814,0,4437.51515107,0,4167.06060564,0,4898.06060557,0,4458.63636319,0,42.0,42.0,?
2017-07-31 19:11:08.257653,4567.33333288,0,4112.96969656,0,3877.54545416,0,3986.75757536,0,4332.93939351,0,4660.57575711,0,4255.66666624,0,4384.96969653,0,4989.75757526,0,4169.63636322,0,4431.84848441,0,4169.1212117,0,4890.33333284,0,4455.03030258,0,42.0,42.0,?
2017-07-31 19:11:08.264365,4561.1515147,0,4100.09090868,0,3873.93939355,0,3945.03030264,0,4322.12121169,0,4653.3636359,0,4263.39393897,0,4391.15151471,0,5005.21212071,0,4186.1212117,0,4428.2424238,0,4175.8181814,0,4877.45454497,0,4456.06060561,0,42.0,42.0,?
2017-07-31 19:11:08.273712,4562.18181773,0,4108.33333292,0,3871.87878749,0,3897.12121173,0,4315.93939351,0,4654.39393893,0,4256.18181776,0,4382.39393896,0,4998.51515102,0,4193.33333291,0,4423.60606016,0,4172.72727231,0,4876.93939345,0,4450.39393895,0,42.0,42.0,?
2017-07-31 19:11:08.284026,4551.36363591,0,4106.78787838,0,3861.06060567,0,3908.96969658,0,4334.48484805,0,4647.69696923,0,4228.87878746,0,4353.54545411,0,4972.24242375,0,4161.90909049,0,4408.66666623,0,4161.39393898,0,4868.69696921,0,4436.99999956,0,42.0,42.0,?
2017-07-31 19:11:08.288571,4528.69696924,0,4091.33333292,0,3843.54545416,0,3929.57575718,0,4333.45454502,0,4617.30302984,0,4202.09090867,0,4334.99999957,0,4959.87878738,0,4135.12121171,0,4393.21212077,0,4157.78787837,0,4850.66666618,0,4422.57575713,0,42.0,42.0,?
2017-07-31 19:11:08.296018,4548.78787833,0,4104.72727232,0,3854.87878749,0,3942.45454506,0,4317.48484805,0,4623.48484802,0,4230.424242,0,4362.81818138,0,4980.9999995,0,4166.54545413,0,4410.72727229,0,4173.75757534,0,4867.15151466,0,4434.42424198,0,42.0,42.0,?
2017-07-31 19:11:08.304506,4586.39393894,0,4117.09090868,0,3901.24242385,0,3962.54545415,0,4316.45454502,0,4681.18181771,0,4312.3333329,0,4426.69696925,0,5034.57575707,0,4231.45454503,0,4458.12121168,0,4189.21212079,0,4908.36363587,0,4477.69696925,0,42.0,42.0,?
2017-07-31 19:11:08.312051,4608.03030257,0,4130.48484807,0,3922.87878749,0,3963.06060566,0,4320.06060563,0,4710.03030256,0,4343.24242381,0,4464.81818137,0,5068.57575707,0,4252.57575715,0,4484.90909046,0,4186.63636322,0,4933.0909086,0,4506.03030258,0,42.0,42.0,?
2017-07-31 19:11:08.325852,4606.99999954,0,4125.84848444,0,3914.63636324,0,3967.18181779,0,4340.66666623,0,4704.36363589,0,4306.66666624,0,4463.78787834,0,5073.72727222,0,4242.27272685,0,4482.33333289,0,4180.45454504,0,4936.18181769,0,4504.48484803,0,42.0,42.0,?
2017-07-31 19:11:08.328501,4594.12121166,0,4110.9090905,0,3904.84848446,0,3972.84848445,0,4357.66666623,0,4695.60606014,0,4275.75757533,0,4431.33333289,0,5054.66666616,0,4231.45454503,0,4472.03030258,0,4175.8181814,0,4926.90909042,0,4492.63636319,0,42.0,42.0,?
2017-07-31 19:11:08.337141,4591.54545409,0,4121.2121208,0,3894.54545416,0,3962.03030263,0,4344.78787835,0,4690.45454499,0,4274.21212078,0,4395.78787835,0,5019.63636313,0,4213.93939352,0,4466.36363592,0,4173.75757534,0,4924.84848436,0,4482.33333289,0,42.0,42.0,?
2017-07-31 19:11:08.343747,4585.36363591,0,4117.60606019,0,3892.4848481,0,3962.54545415,0,4344.27272684,0,4700.24242377,0,4291.7272723,0,4407.12121168,0,5021.69696919,0,4218.57575715,0,4465.33333289,0,4180.96969655,0,4920.72727224,0,4479.24242379,0,42.0,42.0,?
2017-07-31 19:11:08.351254,4583.30302984,0,4118.12121171,0,3889.393939,0,3967.6969693,0,4346.3333329,0,4696.12121165,0,4292.24242381,0,4419.99999956,0,5033.03030253,0,4228.87878746,0,4456.57575713,0,4184.06060564,0,4901.66666618,0,4472.5454541,0,42.0,42.0,?
2017-07-31 19:11:08.358826,4582.27272681,0,4118.12121171,0,3882.18181779,0,3973.87878748,0,4328.30302987,0,4668.81818135,0,4269.06060563,0,4402.99999956,0,5017.57575707,0,4220.1212117,0,4446.78787834,0,4177.87878746,0,4894.96969648,0,4464.81818137,0,42.0,42.0,?
2017-07-31 19:11:08.366286,4578.66666621,0,4109.36363595,0,3878.06060567,0,3956.87878748,0,4314.90909048,0,4652.33333287,0,4259.78787836,0,4406.09090865,0,5022.72727222,0,4212.90909049,0,4449.87878743,0,4176.84848443,0,4906.81818133,0,4469.45454501,0,42.0,42.0,?
2017-07-31 19:11:08.374991,4590.51515106,0,4121.2121208,0,3875.4848481,0,3923.393939,0,4320.57575714,0,4662.12121166,0,4272.66666624,0,4420.51515107,0,5043.84848434,0,4214.45454503,0,4461.72727228,0,4178.39393898,0,4919.18181769,0,4476.1515147,0,42.0,42.0,?
2017-07-31 19:11:08.382760,4583.30302984,0,4116.06060565,0,3880.12121173,0,3944.51515112,0,4331.90909048,0,4678.60606014,0,4285.0303026,0,4409.18181774,0,5033.54545404,0,4215.48484806,0,4460.18181774,0,4176.84848443,0,4914.54545405,0,4472.03030258,0,42.0,42.0,?
2017-07-31 19:11:08.389276,4573.51515106,0,4109.36363595,0,3874.45454507,0,3967.6969693,0,4328.30302987,0,4671.90909044,0,4269.06060563,0,4388.06060562,0,5003.15151465,0,4206.72727231,0,4441.12121168,0,4178.90909049,0,4894.96969648,0,4458.63636319,0,42.0,42.0,?
2017-07-31 19:11:08.399196,4578.15151469,3074.42424212,4110.9090905,0,3864.15151477,0,3943.99999961,0,4313.87878745,0,4657.99999953,0,4256.69696927,0,4390.6363632,0,4999.03030253,0,4207.24242382,0,4434.42424198,0,4181.48484807,0,4882.0909086,0,4455.5454541,0,42.0,42.0,?
2017-07-31 19:11:08.406973,4568.87878742,3074.42424212,4104.72727232,2633.45454519,3866.21212083,0,3942.45454506,0,4305.12121169,0,4650.27272681,0,4260.81818139,0,4400.42424198,0,5011.90909041,0,4214.45454503,0,4440.60606016,0,4173.75757534,0,4885.18181769,0,4461.21212077,0,42.0,42.0,?
2017-07-31 19:11:08.413595,4564.24242379,3074.42424212,4117.09090868,2633.45454519,3864.15151477,0,3945.03030264,0,4303.06060563,0,4638.42424196,0,4243.81818139,0,4383.42424199,0,5005.72727223,0,4200.03030261,0,4441.12121168,0,4172.72727231,0,4889.30302981,0,4453.99999955,4005.81818142,42.0,42.0,?
2017-07-31 19:11:08.422641,4566.81818136,3074.42424212,4110.39393898,2633.45454519,3863.12121173,251.393939369,3917.72727234,0,4321.60606017,0,4645.12121166,0,4234.54545412,0,4372.60606017,0,5001.60606011,0,4196.424242,0,4441.12121168,0,4177.87878746,0,4886.21212072,0,4450.39393895,4005.81818142,42.0,42.0,?
2017-07-31 19:11:08.429752,4571.96969651,3074.42424212,4105.75757535,2633.45454519,3861.57575719,251.393939369,3922.36363597,416.242424201,4334.99999957,0,4659.54545408,0,4247.93939351,0,4378.27272683,0,5006.75757526,0,4198.99999958,0,4446.27272683,0,4172.21212079,0,4894.96969648,0,4456.57575713,4005.81818142,42.0,42.0,?
2017-07-31 19:11:08.436789,4574.03030257,3074.42424212,4117.60606019,2633.45454519,3863.63636325,251.393939369,3945.03030264,416.242424201,4312.84848442,185.454545436,4649.24242378,0,4259.78787836,0,4384.96969653,0,5005.72727223,0,4196.93939352,0,4445.75757531,0,4171.18181776,0,4900.12121163,0,4457.60606016,4005.81818142,42.0,42.0,?
2017-07-31 19:11:08.444171,4565.78787833,3074.42424212,4109.87878747,2633.45454519,3873.42424204,251.393939369,3936.78787839,416.242424201,4302.0303026,185.454545436,4642.03030257,259.63636361,4273.69696927,0,4401.96969653,0,5013.45454495,0,4214.96969655,0,4444.72727228,0,4180.96969655,0,4885.69696921,0,4459.15151471,4005.81818142,42.0,42.0,?
2017-07-31 19:11:08.454046,4574.03030257,3074.42424212,4115.54545413,2633.45454519,3867.75757537,251.393939369,3941.93939355,416.242424201,4317.48484805,185.454545436,4655.93939347,259.63636361,4278.84848442,3601.93939358,4416.39393895,0,5024.78787829,0,4234.54545412,0,4451.42424198,0,4180.96969655,0,4887.24242375,0,4465.33333289,4005.81818142,42.0,42.0,?
2017-07-31 19:11:08.461664,4578.15151469,3074.42424212,4115.03030262,2633.45454519,3861.06060567,251.393939369,3958.93939354,416.242424201,4325.21212078,185.454545436,4661.60606014,259.63636361,4274.7272723,3601.93939358,4425.66666622,3070.30303,5036.63636313,0,4235.57575715,0,4456.57575713,0,4174.78787837,0,4902.69696921,0,4468.93939349,4005.81818142,42.0,42.0,?
2017-07-31 19:11:08.467991,4572.48484803,3074.42424212,4109.87878747,2633.45454519,3863.12121173,251.393939369,3938.84848445,416.242424201,4317.48484805,185.454545436,4652.84848438,259.63636361,4271.12121169,3601.93939358,4422.57575713,3070.30303,5034.57575707,3099.15151484,4221.66666624,0,4448.8484844,0,4176.33333292,0,4897.03030254,0,4465.8484844,4005.81818142,42.0,42.0,?
2017-07-31 19:11:08.475424,4578.15151469,3074.42424212,4119.66666625,2633.45454519,3865.1818178,251.393939369,3928.54545415,416.242424201,4318.51515108,185.454545436,4657.99999953,259.63636361,4265.96969654,3601.93939358,4400.42424198,3070.30303,5010.36363586,3099.15151484,4212.90909049,173.090909074,4441.63636319,0,4180.96969655,0,4886.72727224,0,4463.78787834,4005.81818142,42.0,42.0,?
2017-07-31 19:11:08.484543,4575.0606056,3074.42424212,4115.03030262,2633.45454519,3872.90909052,251.393939369,3951.72727233,416.242424201,4331.39393896,185.454545436,4673.9696965,259.63636361,4266.99999957,3601.93939358,4389.60606017,3070.30303,5005.72727223,3099.15151484,4222.69696927,173.090909074,4449.36363592,3729.69696932,4180.96969655,0,4894.96969648,0,4474.60606016,4005.81818142,42.0,42.0,?
2017-07-31 19:11:08.490896,4584.33333287,3074.42424212,4122.24242383,2633.45454519,3879.0909087,251.393939369,3959.96969657,416.242424201,4341.69696926,185.454545436,4673.45454499,259.63636361,4260.30302988,3601.93939358,4394.75757532,3070.30303,5028.39393889,3099.15151484,4225.78787837,173.090909074,4461.21212077,3729.69696932,4178.90909049,2802.42424214,4906.30302981,0,4487.99999955,4005.81818142,42.0,42.0,?
2017-07-31 19:11:08.501471,4594.63636318,3074.42424212,4123.78787838,2633.45454519,3888.36363597,251.393939369,3971.81818142,416.242424201,4350.45454502,185.454545436,4667.27272681,259.63636361,4262.36363594,3601.93939358,4409.18181774,3070.30303,5047.45454495,3099.15151484,4228.36363594,173.090909074,4461.72727228,3729.69696932,4179.93939352,2802.42424214,4901.66666618,3198.06060574,4495.21212076,4005.81818142,42.0,42.0,?
2017-07-31 19:11:08.507540,4586.90909045,3074.42424212,4118.12121171,2633.45454519,3888.36363597,251.393939369,3967.18181779,416.242424201,4334.99999957,185.454545436,4670.87878741,259.63636361,4275.24242381,3601.93939358,4410.21212077,3070.30303,5037.66666616,3099.15151484,4233.51515109,177.212121194,4453.48484804,3729.69696932,4173.75757534,2802.42424214,4895.99999951,3198.06060574,4494.69696925,4005.81818142,42.0,42.0,?
2017-07-31 19:11:08.516939,4590.51515106,3074.42424212,4127.9090905,2633.45454519,3874.96969658,251.393939369,3932.66666627,416.242424201,4317.48484805,185.454545436,4678.09090862,259.63636361,4276.27272685,3601.93939358,4399.39393895,3070.30303,5019.63636313,3099.15151484,4222.69696927,177.212121194,4456.06060561,3729.69696932,4171.18181776,2802.42424214,4916.0909086,3198.06060574,4492.63636319,4005.81818142,42.0,42.0,?
2017-07-31 19:11:08.522773,4589.99999954,3074.42424212,4120.18181777,2633.45454519,3879.0909087,251.393939369,3951.21212082,416.242424201,4338.09090866,185.454545436,4682.72727226,259.63636361,4282.96969654,3601.93939358,4408.15151471,3070.30303,5023.24242374,3099.15151484,4221.66666624,177.212121194,4466.36363592,3729.69696932,4183.03030261,2810.66666639,4924.84848436,3198.06060574,4496.24242379,4005.81818142,42.0,42.0,?
2017-07-31 19:11:08.532439,4584.84848439,3074.42424212,4122.24242383,2633.45454519,3884.75757537,251.393939369,3988.3030299,416.242424201,4343.75757532,185.454545436,4673.9696965,259.63636361,4289.15151472,3601.93939358,4417.9393935,3070.30303,5027.87878738,3099.15151484,4238.15151473,177.212121194,4460.69696925,3729.69696932,4186.63636322,2810.66666639,4900.12121163,3198.06060574,4494.18181773,4005.81818142,42.0,42.0,?
2017-07-31 19:11:08.537967,4585.36363591,3074.42424212,4124.30302989,2633.45454519,3878.06060567,251.393939369,3979.54545415,416.242424201,4339.12121169,185.454545436,4672.42424196,259.63636361,4294.30302987,3601.93939358,4419.99999956,3070.30303,5031.48484798,3099.15151484,4251.54545412,177.212121194,4451.93939349,3729.69696932,4178.39393898,2810.66666639,4890.84848436,3198.06060574,4492.12121167,4005.81818142,42.0,42.0,?
2017-07-31 19:11:08.545853,4580.21212075,3074.42424212,4113.99999959,2633.45454519,3871.87878749,251.393939369,3955.33333294,416.242424201,4353.54545411,185.454545436,4672.42424196,259.63636361,4291.21212078,3601.93939358,4418.96969653,3070.30303,5043.84848434,3099.15151484,4244.84848442,177.212121194,4448.33333289,3729.69696932,4174.27272686,2810.66666639,4898.57575709,3198.06060574,4491.60606016,4005.81818142,42.0,42.0,?
2017-07-31 19:11:08.555312,4585.36363591,3074.42424212,4126.36363595,2633.45454519,3871.36363598,251.393939369,3938.33333294,416.242424201,4343.24242381,185.454545436,4654.90909044,259.63636361,4274.21212078,3601.93939358,4407.6363632,3070.30303,5047.45454495,3099.15151484,4227.84848443,177.212121194,4447.30302986,3729.69696932,4175.8181814,2810.66666639,4900.12121163,3198.06060574,4488.51515107,4005.81818142,42.0,42.0,?
2017-07-31 19:11:08.562843,4591.03030257,3074.42424212,4125.84848444,2633.45454519,3884.24242385,251.393939369,3949.66666627,416.242424201,4331.39393896,185.454545436,4663.6666662,259.63636361,4279.87878745,3601.93939358,4413.81818138,3070.30303,5045.9090904,3099.15151484,4234.54545412,177.212121194,4458.63636319,3729.69696932,4177.87878746,2810.66666639,4910.93939345,3198.06060574,4497.78787834,4005.81818142,42.0,42.0,?
2017-07-31 19:11:08.569213,4596.69696924,3074.42424212,4122.75757535,2633.45454519,3893.51515113,251.393939369,3982.12121172,416.242424201,4350.45454502,185.454545436,4695.60606014,259.63636361,4290.69696927,3601.93939358,4424.63636319,3070.30303,5034.57575707,3099.15151484,4246.39393897,177.212121194,4470.99999955,3729.69696932,4182.5151511,2810.66666639,4926.90909042,3198.06060574,4507.06060561,4005.81818142,42.0,42.0,?
2017-07-31 19:11:08.578302,4600.81818136,3074.42424212,4128.93939353,2633.45454519,3893.51515113,251.393939369,3989.84848445,416.242424201,4362.30302987,185.454545436,4705.90909044,259.63636361,4293.78787836,3601.93939358,4424.63636319,3070.30303,5040.24242374,3099.15151484,4246.39393897,177.212121194,4472.5454541,3729.69696932,4186.1212117,2810.66666639,4924.33333284,3198.06060574,4508.60606016,4005.81818142,42.0,42.0,?
2017-07-31 19:11:08.585604,4591.03030257,3074.42424212,4121.72727232,2633.45454519,3888.36363597,251.393939369,3968.21212082,416.242424201,4338.60606017,185.454545436,4686.33333286,259.63636361,4296.36363593,3601.93939358,4428.2424238,3070.30303,5059.81818131,3099.15151484,4242.78787836,177.212121194,4463.78787834,3729.69696932,4177.87878746,2810.66666639,4909.3939389,3198.06060574,4506.54545409,4005.81818142,42.0,42.0,?
2017-07-31 19:11:08.595100,4589.48484803,3074.42424212,4125.33333292,2633.45454519,3876.51515113,251.393939369,3945.54545415,416.242424201,4317.48484805,185.454545436,4666.75757529,259.63636361,4279.87878745,3601.93939358,4423.09090865,3070.30303,5042.81818131,3099.15151484,4238.66666624,177.212121194,4453.48484804,3729.69696932,4174.78787837,2810.66666639,4901.15151466,3198.06060574,4495.21212076,4005.81818142,42.0,42.0,?
2017-07-31 19:11:08.602112,4588.454545,3074.42424212,4119.66666625,2633.45454519,3879.0909087,251.393939369,3956.87878748,416.242424201,4342.72727229,185.454545436,4670.3636359,259.63636361,4272.66666624,3601.93939358,4415.36363592,3070.30303,5032.51515101,3099.15151484,4246.39393897,177.212121194,4455.5454541,3729.69696932,4184.06060564,2810.66666639,4901.66666618,3198.06060574,4490.06060561,4005.81818142,42.0,42.0,?
2017-07-31 19:11:08.613067,4588.454545,3074.42424212,4118.12121171,2633.45454519,3882.18181779,251.393939369,3970.27272688,416.242424201,4356.6363632,185.454545436,4671.90909044,259.63636361,4283.48484806,3601.93939358,4410.72727229,3070.30303,5045.9090904,3099.15151484,4240.7272723,177.212121194,4460.18181774,3729.69696932,4181.99999958,2810.66666639,4904.24242375,3198.06060574,4493.66666622,4005.81818142,42.0,42.0,?
2017-07-31 19:11:08.621086,4591.03030257,3074.42424212,4125.84848444,2633.45454519,3874.96969658,251.393939369,3952.24242385,416.242424201,4334.99999957,185.454545436,4659.03030256,259.63636361,4285.0303026,3601.93939358,4411.2424238,3070.30303,5035.09090859,3099.15151484,4225.27272685,177.212121194,4455.03030258,3729.69696932,4175.30302989,2810.66666639,4900.12121163,3198.06060574,4491.09090864,4005.81818142,42.0,42.0,?
2017-07-31 19:11:08.626570,4584.84848439,3074.42424212,4119.15151474,2633.45454519,3879.60606022,251.393939369,3950.18181779,416.242424201,4329.3333329,185.454545436,4659.54545408,259.63636361,4286.06060563,3601.93939358,4422.06060562,3070.30303,5032.51515101,3099.15151484,4232.99999958,177.212121194,4453.48484804,3729.69696932,4178.39393898,2810.66666639,4897.03030254,3198.06060574,4491.60606016,4005.81818142,42.0,42.0,?
2017-07-31 19:11:08.633057,4592.57575712,3074.42424212,4127.9090905,2633.45454519,3884.75757537,251.393939369,3961.51515112,416.242424201,4344.78787835,185.454545436,4673.9696965,259.63636361,4287.09090866,3601.93939358,4417.9393935,3070.30303,5041.78787828,3099.15151484,4232.48484806,177.212121194,4463.27272683,3729.69696932,4179.93939352,2810.66666639,4912.48484799,3198.06060574,4499.8484844,4005.81818142,42.0,42.0,?
2017-07-31 19:11:08.640174,4591.03030257,3074.42424212,4125.33333292,2633.45454519,3879.0909087,251.393939369,3956.87878748,416.242424201,4346.3333329,185.454545436,4673.9696965,259.63636361,4276.27272685,3601.93939358,4398.87878744,3070.30303,5027.87878738,3099.15151484,4220.63636321,177.212121194,4466.36363592,3729.69696932,4179.93939352,2810.66666639,4921.75757527,3198.06060574,4499.8484844,4005.81818142,42.0,42.0,?
2017-07-31 19:11:08.648796,4582.78787833,3074.42424212,4117.09090868,2633.45454519,3871.87878749,251.393939369,3962.03030263,416.242424201,4334.99999957,185.454545436,4665.21212075,259.63636361,4269.57575715,3601.93939358,4388.06060562,3070.30303,5011.39393889,3099.15151484,4225.78787837,177.212121194,4458.63636319,3729.69696932,4183.54545413,2810.66666639,4908.36363587,3198.06060574,4493.1515147,4005.81818142,42.0,42.0,?
2017-07-31 19:11:08.654888,4590.51515106,3074.42424212,4123.78787838,2633.45454519,3874.96969658,251.393939369,3992.42424203,416.242424201,4342.72727229,185.454545436,4672.42424196,259.63636361,4279.36363594,3601.93939358,4392.18181774,3070.30303,5024.78787829,3099.15151484,4229.39393897,177.212121194,4452.45454501,3729.69696932,4182.5151511,2810.66666639,4899.0909086,3198.06060574,4492.63636319,4005.81818142,42.0,42.0,?
2017-07-31 19:11:08.662820,4583.81818136,3074.42424212,4115.03030262,2633.45454519,3881.66666628,251.393939369,3992.93939354,416.242424201,4353.03030259,185.454545436,4672.93939347,259.63636361,4276.27272685,3601.93939358,4394.75757532,3070.30303,5034.06060556,3099.15151484,4228.36363594,177.212121194,4451.42424198,3729.69696932,4179.93939352,2810.66666639,4898.06060557,3198.06060574,4494.18181773,4005.81818142,42.0,42.0,?
2017-07-31 19:11:08.671435,4584.33333287,3074.42424212,4121.2121208,2633.45454519,3871.36363598,251.393939369,3945.03030264,416.242424201,4331.39393896,185.454545436,4654.39393893,259.63636361,4256.18181776,3601.93939358,4392.18181774,3070.30303,5019.12121162,3099.15151484,4229.90909049,177.212121194,4454.51515107,3729.69696932,4181.99999958,2810.66666639,4903.21212072,3198.06060574,4491.60606016,4005.81818142,42.0,42.0,?
2017-07-31 19:11:08.678869,4595.15151469,3074.42424212,4123.78787838,2633.45454519,3870.33333295,251.393939369,3932.15151476,416.242424201,4317.48484805,185.454545436,4651.30302984,259.63636361,4268.0303026,3601.93939358,4410.72727229,3070.30303,5037.66666616,3099.15151484,4233.51515109,177.212121194,4457.09090865,3729.69696932,4182.5151511,2810.66666639,4908.87878739,3198.06060574,4493.1515147,4005.81818142,42.0,42.0,?
2017-07-31 19:11:08.688929,4597.21212075,3074.42424212,4120.18181777,2633.45454519,3885.27272688,251.393939369,3965.12121172,416.242424201,4332.93939351,185.454545436,4663.6666662,259.63636361,4295.84848442,3601.93939358,4431.84848441,3070.30303,5062.9090904,3099.15151484,4236.60606018,177.212121194,4460.18181774,3729.69696932,4184.06060564,2810.66666639,4909.3939389,3198.06060574,4500.36363591,4005.81818142,42.0,42.0,?
2017-07-31 19:11:08.693983,4601.84848439,3074.42424212,4133.06060565,2633.45454519,3889.90909052,251.393939369,3987.27272687,416.242424201,4343.75757532,185.454545436,4672.42424196,259.63636361,4295.84848442,3601.93939358,4424.63636319,3070.30303,5045.9090904,3099.15151484,4241.24242382,177.212121194,4469.96969652,3729.69696932,4186.63636322,2810.66666639,4916.60606011,3198.06060574,4505.51515106,4005.81818142,42.0,42.0,?
2017-07-31 19:11:08.701887,4600.81818136,3074.42424212,4126.36363595,2633.45454519,3889.90909052,251.393939369,3962.03030263,416.242424201,4345.30302987,185.454545436,4681.69696923,259.63636361,4292.75757533,3601.93939358,4424.63636319,3070.30303,5048.9999995,3099.15151484,4244.33333291,177.212121194,4478.72727228,3729.69696932,4183.54545413,2810.66666639,4921.24242375,3198.06060574,4509.12121167,4005.81818142,42.0,42.0,?
2017-07-31 19:11:08.710592,4604.93939348,3074.42424212,4128.42424201,2633.45454519,3887.33333294,251.393939369,3929.06060567,416.242424201,4340.15151472,185.454545436,4681.69696923,259.63636361,4298.93939351,3601.93939358,4431.84848441,3070.30303,5069.09090858,3099.15151484,4230.424242,177.212121194,4474.09090864,3729.69696932,4179.42424201,2810.66666639,4916.0909086,3198.06060574,4505.51515106,4005.81818142,42.0,42.0,?
2017-07-31 19:11:08.719145,4607.51515105,3074.42424212,4132.03030262,2633.45454519,3890.93939355,251.393939369,3960.48484809,416.242424201,4337.57575714,185.454545436,4678.09090862,259.63636361,4299.45454502,3601.93939358,4428.75757531,3070.30303,5053.63636313,3099.15151484,4231.45454503,177.212121194,4467.39393895,3729.69696932,4181.48484807,2810.66666639,4914.54545405,3198.06060574,4505.51515106,4005.81818142,42.0,42.0,?
2017-07-31 19:11:08.730909,4603.39393893,3074.42424212,4123.27272686,2633.45454519,3898.66666628,251.393939369,3998.60606021,416.242424201,4343.75757532,185.454545436,4672.93939347,259.63636361,4296.36363593,3601.93939358,4429.27272683,3070.30303,5033.54545404,3099.15151484,4243.81818139,177.212121194,4471.51515107,3729.69696932,4184.57575716,2810.66666639,4917.12121163,3198.06060574,4512.72727228,4005.81818142,42.0,42.0,?
2017-07-31 19:11:08.734928,4610.60606014,3074.42424212,4131.5151511,2633.45454519,3892.4848481,251.393939369,3990.87878748,416.242424201,4353.54545411,185.454545436,4673.45454499,259.63636361,4300.48484805,3601.93939358,4429.27272683,3070.30303,5046.42424192,3099.15151484,4232.99999958,177.212121194,4481.30302985,3729.69696932,4184.06060564,2810.66666639,4922.27272678,3198.06060574,4514.27272682,4005.81818142,42.0,42.0,?
2017-07-31 19:11:08.741507,4604.42424196,3074.42424212,4130.48484807,2633.45454519,3898.66666628,251.393939369,3943.99999961,416.242424201,4364.36363593,185.454545436,4692.51515105,259.63636361,4310.78787836,3601.93939358,4428.75757531,3070.30303,5043.84848434,3099.15151484,4234.54545412,177.212121194,4486.45454501,3729.69696932,4184.57575716,2810.66666639,4927.42424193,3198.06060574,4512.21212076,4005.81818142,42.0,42.0,?
2017-07-31 19:11:08.749373,4604.42424196,3074.42424212,4130.48484807,2633.45454519,3898.66666628,251.393939369,3943.99999961,416.242424201,4364.36363593,185.454545436,4697.6666662,259.63636361,4299.96969654,3601.93939358,4425.66666622,3070.30303,5043.84848434,3099.15151484,4234.54545412,177.212121194,4485.93939349,3729.69696932,4184.57575716,2810.66666639,4925.87878739,3198.06060574,4509.63636319,4005.81818142,42.0,42.0,?
2017-07-31 19:11:08.759017,4611.12121166,3074.42424212,4133.57575716,2633.45454519,3900.21212082,251.393939369,3946.57575718,416.242424201,4344.27272684,185.454545436,4676.54545408,259.63636361,4282.96969654,3601.93939358,4423.60606016,3070.30303,5056.21212071,3099.15151484,4239.69696927,177.212121194,4485.42424198,3729.69696932,4184.57575716,2810.66666639,4919.18181769,3198.06060574,4509.12121167,4005.81818142,42.0,42.0,?
2017-07-31 19:11:08.767844,4601.84848439,3074.42424212,4122.24242383,2633.45454519,3890.93939355,251.393939369,3988.81818142,416.242424201,4328.81818139,185.454545436,4660.06060559,259.63636361,4285.0303026,3601.93939358,4419.99999956,3070.30303,5061.36363586,3099.15151484,4237.1212117,177.212121194,4484.39393895,3729.69696932,4180.96969655,2810.66666639,4915.57575708,3198.06060574,4507.57575713,4005.81818142,42.0,42.0,?
2017-07-31 19:11:08.773777,4602.87878742,3074.42424212,4131.5151511,2633.45454519,3878.06060567,251.393939369,3998.60606021,416.242424201,4335.51515108,185.454545436,4656.9696965,259.63636361,4285.54545412,3601.93939358,4408.66666623,3070.30303,5029.93939344,3099.15151484,4228.87878746,177.212121194,4486.45454501,3729.69696932,4182.5151511,2810.66666639,4919.6969692,3198.06060574,4501.90909046,4005.81818142,42.0,42.0,?
2017-07-31 19:11:08.780389,4605.45454499,3074.42424212,4129.96969656,2633.45454519,3882.69696931,251.393939369,3973.36363597,416.242424201,4353.03030259,185.454545436,4662.63636317,259.63636361,4281.93939351,3601.93939358,4415.87878744,3070.30303,5028.90909041,3099.15151484,4231.45454503,177.212121194,4489.5454541,3729.69696932,4185.09090867,2810.66666639,4923.30302981,3198.06060574,4503.454545,4005.81818142,42.0,42.0,?
2017-07-31 19:11:08.787973,4602.3636359,3074.42424212,4126.36363595,2633.45454519,3884.24242385,251.393939369,3945.54545415,416.242424201,4342.21212078,185.454545436,4667.27272681,259.63636361,4277.81818139,3601.93939358,4425.15151471,3070.30303,5053.12121162,3099.15151484,4228.36363594,177.212121194,4487.48484804,3729.69696932,4183.03030261,2810.66666639,4924.33333284,3198.06060574,4503.454545,4005.81818142,42.0,42.0,?
2017-07-31 19:11:08.797990,4599.78787833,3074.42424212,4129.96969656,2633.45454519,3873.42424204,251.393939369,3923.393939,416.242424201,4318.51515108,185.454545436,4660.57575711,259.63636361,4274.21212078,3601.93939358,4410.21212077,3070.30303,5048.48484798,3099.15151484,4215.48484806,177.212121194,4480.78787834,3729.69696932,4183.03030261,2810.66666639,4922.7878783,3198.06060574,4494.18181773,4005.81818142,42.0,42.0,?
2017-07-31 19:11:08.804469,4586.90909045,3074.42424212,4117.09090868,2633.45454519,3873.42424204,251.393939369,3927.51515112,416.242424201,4321.09090866,185.454545436,4655.93939347,259.63636361,4274.21212078,3601.93939358,4394.2424238,3070.30303,5026.84848435,3099.15151484,4208.78787837,177.212121194,4471.51515107,3729.69696932,4180.96969655,2810.66666639,4914.54545405,3198.06060574,4488.51515107,4005.81818142,42.0,42.0,?
2017-07-31 19:11:08.811900,4594.63636318,3074.42424212,4126.36363595,2633.45454519,3872.39393901,251.393939369,3949.66666627,416.242424201,4337.57575714,185.454545436,4668.30302984,259.63636361,4273.18181775,3601.93939358,4402.48484804,3070.30303,5021.69696919,3099.15151484,4210.84848443,177.212121194,4473.06060561,3729.69696932,4184.06060564,2810.66666639,4915.57575708,3198.06060574,4495.21212076,4005.81818142,42.0,42.0,?
2017-07-31 19:11:08.821454,4605.96969651,3074.42424212,4127.9090905,2633.45454519,3875.4848481,251.393939369,3963.57575718,416.242424201,4345.81818138,185.454545436,4675.51515105,259.63636361,4280.90909048,3601.93939358,4427.21212077,3070.30303,5048.48484798,3099.15151484,4224.24242382,177.212121194,4484.90909046,3729.69696932,4191.78787837,2810.66666639,4922.27272678,3198.06060574,4508.09090864,4005.81818142,42.0,42.0,?
2017-07-31 19:11:08.828018,4601.33333287,3074.42424212,4122.24242383,2633.45454519,3880.12121173,251.393939369,3955.33333294,416.242424201,4334.48484805,185.454545436,4661.09090862,259.63636361,4287.60606018,3601.93939358,4423.09090865,3070.30303,5054.15151465,3099.15151484,4224.75757534,177.212121194,4483.36363592,3729.69696932,4186.63636322,2810.66666639,4918.66666617,3198.06060574,4506.54545409,4005.81818142,42.0,42.0,?
2017-07-31 19:11:08.836927,4602.87878742,3074.42424212,4131.5151511,2633.45454519,3877.54545416,251.393939369,3941.93939355,416.242424201,4325.72727229,185.454545436,4659.03030256,259.63636361,4287.60606018,3601.93939358,4407.12121168,3070.30303,5032.51515101,3099.15151484,4221.15151473,177.212121194,4481.81818137,3729.69696932,4184.06060564,2810.66666639,4922.27272678,3198.06060574,4500.87878743,4005.81818142,42.0,42.0,?
2017-07-31 19:11:08.842968,4601.33333287,3074.42424212,4127.9090905,2633.45454519,3880.12121173,251.393939369,3946.06060567,416.242424201,4336.0303026,185.454545436,4669.84848438,259.63636361,4289.66666624,3601.93939358,4418.96969653,3070.30303,5048.9999995,3099.15151484,4236.09090867,177.212121194,4491.60606016,3729.69696932,4188.69696928,2810.66666639,4932.57575708,3198.06060574,4510.1515147,4005.81818142,42.0,42.0,?
2017-07-31 19:11:08.853134,4604.42424196,3074.42424212,4133.06060565,2633.45454519,3880.12121173,251.393939369,3946.57575718,416.242424201,4333.96969654,185.454545436,4657.48484802,259.63636361,4271.12121169,3601.93939358,4409.69696926,3070.30303,5052.09090859,3099.15151484,4224.24242382,177.212121194,4488.51515107,3729.69696932,4183.03030261,2810.66666639,4928.96969648,3198.06060574,4508.60606016,4005.81818142,42.0,42.0,?
2017-07-31 19:11:08.863216,4600.81818136,3074.42424212,4127.39393898,2633.45454519,3875.4848481,251.393939369,3950.18181779,416.242424201,4321.09090866,185.454545436,4647.18181772,259.63636361,4258.24242382,3601.93939358,4387.03030259,3070.30303,5014.48484798,3099.15151484,4197.96969655,177.212121194,4477.18181773,3729.69696932,4178.90909049,2810.66666639,4921.24242375,3198.06060574,4496.24242379,4005.81818142,42.0,42.0,?
2017-07-31 19:11:08.867872,4595.66666621,3074.42424212,4117.60606019,2633.45454519,3870.84848446,251.393939369,3966.15151475,416.242424201,4311.81818139,185.454545436,4655.42424196,259.63636361,4270.60606018,3601.93939358,4393.72727229,3070.30303,5023.24242374,3099.15151484,4202.60606019,177.212121194,4475.12121167,3729.69696932,4185.09090867,2810.66666639,4915.06060557,3198.06060574,4496.24242379,4005.81818142,42.0,42.0,?
2017-07-31 19:11:08.874328,4604.93939348,3074.42424212,4131.5151511,2633.45454519,3872.39393901,251.393939369,3966.15151475,416.242424201,4315.93939351,185.454545436,4653.87878741,259.63636361,4278.84848442,3601.93939358,4401.96969653,3070.30303,5050.54545404,3099.15151484,4211.36363594,177.212121194,4474.09090864,3729.69696932,4184.57575716,2810.66666639,4910.93939345,3198.06060574,4500.87878743,4005.81818142,42.0,42.0,?
2017-07-31 19:11:08.884404,4602.87878742,3074.42424212,4127.39393898,2633.45454519,3879.60606022,251.393939369,3952.24242385,416.242424201,4330.36363593,185.454545436,4652.33333287,259.63636361,4277.30302988,3601.93939358,4398.87878744,3070.30303,5022.72727222,3099.15151484,4204.66666625,177.212121194,4471.51515107,3729.69696932,4181.99999958,2810.66666639,4913.51515102,3198.06060574,4500.87878743,4005.81818142,42.0,42.0,?
2017-07-31 19:11:08.890861,4605.45454499,3074.42424212,4126.87878747,2633.45454519,3873.42424204,251.393939369,3952.75757536,416.242424201,4331.90909048,185.454545436,4663.6666662,259.63636361,4270.09090866,3601.93939358,4398.87878744,3070.30303,5002.63636314,3099.15151484,4201.06060564,177.212121194,4472.5454541,3729.69696932,4185.09090867,2810.66666639,4917.12121163,3198.06060574,4498.30302985,4005.81818142,42.0,42.0,?
2017-07-31 19:11:08.898503,4605.96969651,3074.42424212,4126.36363595,2633.45454519,3868.7878784,251.393939369,3973.36363597,416.242424201,4325.21212078,185.454545436,4667.78787832,259.63636361,4271.63636321,3601.93939358,4409.18181774,3070.30303,5034.57575707,3099.15151484,4207.75757534,177.212121194,4473.06060561,3729.69696932,4183.54545413,2810.66666639,4915.57575708,3198.06060574,4496.24242379,4005.81818142,42.0,42.0,?
2017-07-31 19:11:08.906776,4590.51515106,3090.9090906,4120.18181777,2633.45454519,3866.21212083,251.393939369,3960.9999996,416.242424201,4316.45454502,185.454545436,4649.75757529,259.63636361,4270.60606018,3601.93939358,4403.51515107,3070.30303,5042.81818131,3099.15151484,4196.93939352,177.212121194,4466.87878743,3729.69696932,4180.45454504,2810.66666639,4908.36363587,3198.06060574,4487.99999955,4005.81818142,42.0,42.0,?
2017-07-31 19:11:08.913406,4592.0606056,3090.9090906,4127.9090905,2724.12121185,3857.45454507,251.393939369,3933.6969693,416.242424201,4302.0303026,185.454545436,4640.99999954,259.63636361,4256.18181776,3601.93939358,4380.84848441,3070.30303,5013.45454495,3099.15151484,4180.96969655,177.212121194,4462.2424238,3729.69696932,4184.06060564,2810.66666639,4902.18181769,3198.06060574,4481.30302985,4005.81818142,42.0,42.0,?
2017-07-31 19:11:08.920921,4592.57575712,3090.9090906,4122.75757535,2724.12121185,3865.1818178,251.393939369,3968.72727233,416.242424201,4327.78787836,185.454545436,4653.87878741,259.63636361,4254.63636321,3601.93939358,4383.42424199,3070.30303,5010.87878738,3099.15151484,4196.424242,177.212121194,4464.81818137,3729.69696932,4186.63636322,2810.66666639,4895.484848,3198.06060574,4486.45454501,4047.03030263,42.0,42.0,?
2017-07-31 19:11:08.929311,4589.48484803,3090.9090906,4127.39393898,2724.12121185,3872.90909052,288.484848456,3992.93939354,416.242424201,4355.09090866,185.454545436,4645.63636317,259.63636361,4249.48484806,3601.93939358,4394.2424238,3070.30303,5014.48484798,3099.15151484,4201.57575716,177.212121194,4463.27272683,3729.69696932,4181.48484807,2810.66666639,4895.484848,3198.06060574,4485.93939349,4047.03030263,42.0,42.0,?
2017-07-31 19:11:08.938011,4601.33333287,3090.9090906,4133.06060565,2724.12121185,3874.96969658,288.484848456,3964.60606021,515.1515151,4339.12121169,185.454545436,4643.0606056,259.63636361,4256.69696927,3601.93939358,4402.48484804,3070.30303,5024.27272677,3099.15151484,4198.48484806,177.212121194,4469.96969652,3729.69696932,4181.99999958,2810.66666639,4911.96969648,3198.06060574,4490.57575713,4047.03030263,42.0,42.0,?
2017-07-31 19:11:08.946495,4604.42424196,3090.9090906,4122.24242383,2724.12121185,3874.96969658,288.484848456,3969.75757536,515.1515151,4337.57575714,259.63636361,4666.75757529,259.63636361,4284.51515109,3601.93939358,4410.72727229,3070.30303,5044.36363586,3099.15151484,4201.57575716,177.212121194,4479.24242379,3729.69696932,4182.5151511,2810.66666639,4919.18181769,3198.06060574,4500.87878743,4047.03030263,42.0,42.0,?
2017-07-31 19:11:08.952953,4592.57575712,3090.9090906,4128.93939353,2724.12121185,3858.4848481,288.484848456,3989.84848445,515.1515151,4351.99999956,259.63636361,4655.42424196,284.363636335,4265.45454503,3601.93939358,4391.66666623,3070.30303,5026.84848435,3099.15151484,4184.57575716,177.212121194,4464.81818137,3729.69696932,4180.45454504,2810.66666639,4900.12121163,3198.06060574,4487.48484804,4047.03030263,42.0,42.0,?
2017-07-31 19:11:08.961845,4585.36363591,3090.9090906,4125.33333292,2724.12121185,3860.03030264,288.484848456,3973.87878748,515.1515151,4304.60606018,259.63636361,4636.87878742,284.363636335,4244.33333291,3581.33333298,4385.99999956,3070.30303,5024.27272677,3099.15151484,4186.1212117,177.212121194,4458.12121168,3729.69696932,4185.09090867,2810.66666639,4888.7878783,3198.06060574,4481.30302985,4047.03030263,42.0,42.0,?
2017-07-31 19:11:08.975938,4602.87878742,3090.9090906,4126.87878747,2724.12121185,3884.24242385,288.484848456,3951.72727233,515.1515151,4304.60606018,259.63636361,4661.60606014,284.363636335,4275.75757533,3581.33333298,4406.60606017,3037.33333303,5039.72727222,3099.15151484,4212.39393897,177.212121194,4477.69696925,3729.69696932,4189.72727231,2810.66666639,4908.36363587,3198.06060574,4501.39393894,4047.03030263,42.0,42.0,?
2017-07-31 19:11:08.981859,4614.21212075,3090.9090906,4135.63636322,2724.12121185,3889.90909052,288.484848456,3957.393939,515.1515151,4300.99999957,259.63636361,4676.54545408,284.363636335,4295.84848442,3581.33333298,4407.6363632,3037.33333303,5020.15151465,3074.42424212,4212.90909049,177.212121194,4485.93939349,3729.69696932,4186.63636322,2810.66666639,4921.24242375,3198.06060574,4508.60606016,4047.03030263,42.0,42.0,?
2017-07-31 19:11:08.989882,4603.90909045,3090.9090906,4124.81818141,2724.12121185,3881.66666628,288.484848456,3978.51515112,515.1515151,4334.99999957,259.63636361,4667.27272681,284.363636335,4288.63636321,3581.33333298,4406.09090865,3037.33333303,5021.69696919,3074.42424212,4206.72727231,131.878787866,4479.75757531,3729.69696932,4184.06060564,2810.66666639,4916.0909086,3198.06060574,4501.90909046,4047.03030263,42.0,42.0,?
2017-07-31 19:11:08.994009,4617.81818136,3090.9090906,4136.15151474,2724.12121185,3889.393939,288.484848456,3998.60606021,515.1515151,4361.27272684,259.63636361,4676.54545408,284.363636335,4294.81818139,3581.33333298,4424.63636319,3037.33333303,5056.21212071,3074.42424212,4213.93939352,131.878787866,4490.57575713,3700.84848448,4187.66666625,2810.66666639,4929.48484799,3198.06060574,4512.21212076,4047.03030263,42.0,42.0,?
2017-07-31 19:11:09.007029,4626.57575711,3090.9090906,4140.78787837,2724.12121185,3906.393939,288.484848456,3997.57575718,515.1515151,4347.87878744,259.63636361,4686.33333286,284.363636335,4309.75757533,3581.33333298,4438.5454541,3037.33333303,5069.6060601,3074.42424212,4213.93939352,131.878787866,4499.8484844,3700.84848448,4190.24242382,2806.54545426,4939.27272678,3198.06060574,4523.03030258,4047.03030263,42.0,42.0,?
2017-07-31 19:11:09.009245,4615.24242378,3090.9090906,4132.03030262,2724.12121185,3900.72727234,288.484848456,3968.21212082,515.1515151,4314.90909048,259.63636361,4671.90909044,284.363636335,4302.0303026,3581.33333298,4430.30302986,3037.33333303,5058.27272677,3074.42424212,4203.1212117,131.878787866,4488.51515107,3700.84848448,4188.18181776,2806.54545426,4928.96969648,3235.15151483,4509.63636319,4047.03030263,42.0,42.0,?
2017-07-31 19:11:09.015746,4618.33333287,3090.9090906,4136.15151474,2724.12121185,3889.90909052,288.484848456,3970.78787839,515.1515151,4330.36363593,259.63636361,4670.3636359,284.363636335,4290.18181775,3581.33333298,4429.27272683,3037.33333303,5057.24242374,3074.42424212,4211.87878746,140.121212107,4486.45454501,3700.84848448,4189.21212079,2806.54545426,4933.0909086,3235.15151483,4501.39393894,4047.03030263,42.0,42.0,?
2017-07-31 19:11:09.024945,4613.18181772,3090.9090906,4128.93939353,2724.12121185,3891.96969658,288.484848456,3999.12121172,515.1515151,4367.45454502,259.63636361,4685.81818135,284.363636335,4291.7272723,3581.33333298,4432.87878744,3037.33333303,5058.78787828,3074.42424212,4228.87878746,140.121212107,4494.69696925,3692.60606024,4186.63636322,2806.54545426,4939.27272678,3235.15151483,4508.60606016,4047.03030263,42.0,42.0,?
2017-07-31 19:11:09.031561,4603.90909045,3090.9090906,4132.03030262,2724.12121185,3882.69696931,288.484848456,3979.54545415,515.1515151,4355.60606017,259.63636361,4675.51515105,284.363636335,4283.99999957,3581.33333298,4405.06060562,3037.33333303,5035.6060601,3074.42424212,4214.96969655,140.121212107,4482.8484844,3692.60606024,4180.45454504,2806.54545426,4918.15151466,3235.15151483,4498.81818137,4047.03030263,42.0,42.0,?
2017-07-31 19:11:09.038948,4599.27272681,3090.9090906,4127.9090905,2724.12121185,3878.57575719,288.484848456,3959.96969657,515.1515151,4337.06060563,259.63636361,4662.12121166,284.363636335,4283.48484806,3581.33333298,4390.12121168,3037.33333303,5024.27272677,3074.42424212,4201.06060564,140.121212107,4466.87878743,3692.60606024,4183.03030261,2806.54545426,4895.99999951,3235.15151483,4484.39393895,4047.03030263,42.0,42.0,?
2017-07-31 19:11:09.046345,4597.21212075,3090.9090906,4122.75757535,2724.12121185,3882.69696931,288.484848456,3987.27272687,515.1515151,4346.84848441,259.63636361,4678.09090862,284.363636335,4290.69696927,3581.33333298,4402.48484804,3037.33333303,5035.09090859,3074.42424212,4192.30302988,140.121212107,4467.90909046,3692.60606024,4183.54545413,2806.54545426,4904.75757527,3235.15151483,4485.42424198,4047.03030263,42.0,42.0,?
2017-07-31 19:11:09.057448,4601.84848439,3090.9090906,4134.09090868,2724.12121185,3871.87878749,288.484848456,3991.39393899,515.1515151,4340.66666623,259.63636361,4681.69696923,284.363636335,4278.84848442,3581.33333298,4393.21212077,3037.33333303,5027.36363586,3074.42424212,4174.27272686,140.121212107,4471.51515107,3692.60606024,4184.06060564,2806.54545426,4920.21212072,3235.15151483,4486.45454501,4047.03030263,42.0,42.0,?
2017-07-31 19:11:09.063946,4589.48484803,3090.9090906,4126.87878747,2724.12121185,3867.24242386,288.484848456,3950.18181779,515.1515151,4325.21212078,259.63636361,4647.18181772,284.363636335,4255.15151473,3581.33333298,4376.72727229,3037.33333303,5001.60606011,3074.42424212,4173.75757534,140.121212107,4462.75757531,3692.60606024,4188.69696928,2806.54545426,4901.15151466,3235.15151483,4480.78787834,4047.03030263,42.0,42.0,?
2017-07-31 19:11:09.070612,4586.90909045,3090.9090906,4128.93939353,2724.12121185,3868.7878784,288.484848456,3947.0909087,515.1515151,4325.72727229,259.63636361,4626.57575711,284.363636335,4248.96969654,3581.33333298,4383.9393935,3037.33333303,4998.51515102,3074.42424212,4177.36363595,140.121212107,4454.51515107,3692.60606024,4187.66666625,2806.54545426,4881.06060557,3235.15151483,4474.09090864,4047.03030263,42.0,42.0,?
2017-07-31 19:11:09.078663,4600.81818136,3090.9090906,4131.5151511,2724.12121185,3870.33333295,288.484848456,3999.12121172,515.1515151,4336.0303026,259.63636361,4649.75757529,284.363636335,4279.87878745,3581.33333298,4408.66666623,3037.33333303,5038.69696919,3074.42424212,4188.18181776,140.121212107,4464.81818137,3692.60606024,4186.1212117,2806.54545426,4897.54545406,3235.15151483,4480.27272682,4047.03030263,42.0,42.0,?
2017-07-31 19:11:09.086081,4606.99999954,3090.9090906,4127.9090905,2724.12121185,3874.45454507,288.484848456,4010.45454505,515.1515151,4338.09090866,259.63636361,4666.75757529,284.363636335,4305.63636321,3581.33333298,4426.69696925,3037.33333303,5063.42424192,3074.42424212,4201.06060564,140.121212107,4478.21212076,3692.60606024,4186.63636322,2806.54545426,4920.21212072,3235.15151483,4496.75757531,4047.03030263,42.0,42.0,?
2017-07-31 19:11:09.094769,4610.60606014,3090.9090906,4140.78787837,2724.12121185,3878.06060567,288.484848456,3979.54545415,515.1515151,4338.09090866,259.63636361,4659.54545408,284.363636335,4284.51515109,3581.33333298,4417.9393935,3037.33333303,5037.66666616,3074.42424212,4188.69696928,140.121212107,4479.75757531,3692.60606024,4183.54545413,2806.54545426,4929.48484799,3235.15151483,4501.90909046,4047.03030263,42.0,42.0,?
2017-07-31 19:11:09.101083,4601.84848439,3090.9090906,4132.54545413,2724.12121185,3882.18181779,288.484848456,3985.21212081,515.1515151,4355.60606017,259.63636361,4663.15151469,284.363636335,4263.90909048,3581.33333298,4412.27272683,3037.33333303,5027.87878738,3074.42424212,4181.99999958,140.121212107,4473.06060561,3692.60606024,4185.60606019,2806.54545426,4920.72727224,3235.15151483,4495.21212076,4047.03030263,42.0,42.0,?
2017-07-31 19:11:09.109201,4602.87878742,3090.9090906,4133.06060565,2724.12121185,3878.57575719,288.484848456,3989.33333293,515.1515151,4358.69696926,259.63636361,4670.87878741,284.363636335,4277.30302988,3581.33333298,4419.48484804,3037.33333303,5052.6060601,3074.42424212,4196.424242,140.121212107,4466.87878743,3692.60606024,4189.72727231,2806.54545426,4905.7878783,3235.15151483,4488.51515107,4047.03030263,42.0,42.0,?
2017-07-31 19:11:09.119047,4613.69696924,3090.9090906,4143.36363595,2724.12121185,3883.21212082,288.484848456,3972.33333294,515.1515151,4349.42424199,259.63636361,4676.03030256,284.363636335,4289.15151472,3581.33333298,4418.96969653,3037.33333303,5054.15151465,3074.42424212,4204.66666625,140.121212107,4472.5454541,3692.60606024,4190.75757534,2806.54545426,4910.93939345,3235.15151483,4494.69696925,4047.03030263,42.0,42.0,?
2017-07-31 19:11:09.125676,4611.12121166,3090.9090906,4137.18181777,2724.12121185,3891.45454507,288.484848456,3984.18181778,515.1515151,4357.15151472,259.63636361,4680.15151468,284.363636335,4286.06060563,3581.33333298,4413.30302986,3037.33333303,5036.12121162,3074.42424212,4200.54545413,140.121212107,4481.30302985,3692.60606024,4186.63636322,2806.54545426,4921.24242375,3235.15151483,4506.03030258,4047.03030263,42.0,42.0,?
2017-07-31 19:11:09.132408,4611.12121166,3090.9090906,4141.8181814,2724.12121185,3877.54545416,288.484848456,3993.96969657,515.1515151,4354.57575714,259.63636361,4678.09090862,284.363636335,4289.15151472,3581.33333298,4417.9393935,3037.33333303,5044.87878737,3074.42424212,4194.87878746,140.121212107,4477.18181773,3692.60606024,4183.54545413,2806.54545426,4923.30302981,3235.15151483,4501.39393894,4047.03030263,42.0,42.0,?
2017-07-31 19:11:09.140605,4603.39393893,3090.9090906,4133.57575716,2724.12121185,3872.90909052,288.484848456,3966.15151475,515.1515151,4336.54545411,259.63636361,4681.18181771,284.363636335,4306.15151472,3581.33333298,4423.09090865,3037.33333303,5065.48484798,3074.42424212,4192.8181814,140.121212107,4466.36363592,3692.60606024,4183.54545413,2806.54545426,4918.15151466,3235.15151483,4491.60606016,4047.03030263,42.0,42.0,?
2017-07-31 19:11:09.149611,4604.93939348,3090.9090906,4133.57575716,2724.12121185,3886.81818143,288.484848456,3971.81818142,515.1515151,4335.51515108,259.63636361,4679.63636317,284.363636335,4302.0303026,3581.33333298,4413.81818138,3037.33333303,5048.48484798,3074.42424212,4188.69696928,140.121212107,4464.81818137,3692.60606024,4186.63636322,2806.54545426,4915.06060557,3235.15151483,4492.12121167,4047.03030263,42.0,42.0,?
2017-07-31 19:11:09.155991,4614.21212075,3090.9090906,4140.78787837,2724.12121185,3889.90909052,288.484848456,4022.3030299,515.1515151,4355.09090866,259.63636361,4664.69696923,284.363636335,4274.7272723,3581.33333298,4410.21212077,3037.33333303,5022.72727222,3074.42424212,4190.24242382,140.121212107,4472.5454541,3692.60606024,4188.18181776,2806.54545426,4919.18181769,3235.15151483,4497.27272682,4047.03030263,42.0,42.0,?
2017-07-31 19:11:09.163926,4598.7575753,3090.9090906,4129.45454504,2724.12121185,3879.0909087,288.484848456,4019.72727233,515.1515151,4357.66666623,259.63636361,4647.18181772,284.363636335,4262.36363594,3581.33333298,4410.72727229,3037.33333303,5028.90909041,3074.42424212,4194.87878746,140.121212107,4465.33333289,3692.60606024,4183.03030261,2806.54545426,4909.90909042,3235.15151483,4491.09090864,4047.03030263,42.0,42.0,?
2017-07-31 19:11:09.172013,4603.39393893,3090.9090906,4134.09090868,2724.12121185,3875.99999961,288.484848456,3947.60606021,515.1515151,4315.42424199,259.63636361,4637.90909045,284.363636335,4273.69696927,3581.33333298,4401.96969653,3037.33333303,5036.12121162,3074.42424212,4186.1212117,140.121212107,4462.75757531,3692.60606024,4185.09090867,2806.54545426,4907.84848436,3235.15151483,4479.24242379,4047.03030263,42.0,42.0,?
2017-07-31 19:11:09.181360,4603.39393893,3090.9090906,4134.09090868,2724.12121185,3875.99999961,288.484848456,3947.60606021,515.1515151,4315.42424199,259.63636361,4650.78787832,284.363636335,4273.69696927,3581.33333298,4401.96969653,3037.33333303,5036.12121162,3074.42424212,4186.1212117,140.121212107,4462.75757531,3692.60606024,4185.09090867,2806.54545426,4907.84848436,3235.15151483,4483.87878743,4047.03030263,42.0,42.0,?
2017-07-31 19:11:09.187812,4606.48484802,3090.9090906,4127.9090905,2724.12121185,3881.15151476,288.484848456,3967.6969693,515.1515151,4342.72727229,259.63636361,4664.69696923,284.363636335,4283.99999957,3581.33333298,4422.57575713,3037.33333303,5058.27272677,3074.42424212,4207.75757534,140.121212107,4473.06060561,3692.60606024,4190.24242382,2806.54545426,4919.18181769,3235.15151483,4489.03030258,4047.03030263,42.0,42.0,?
2017-07-31 19:11:09.195511,4606.99999954,3090.9090906,4138.72727231,2724.12121185,3884.24242385,288.484848456,3989.84848445,515.1515151,4361.78787835,259.63636361,4660.06060559,284.363636335,4282.45454503,3581.33333298,4414.33333289,3037.33333303,5058.27272677,3074.42424212,4209.30302988,140.121212107,4469.45454501,3692.60606024,4187.15151473,2806.54545426,4917.63636314,3235.15151483,4488.51515107,4047.03030263,42.0,42.0,?
2017-07-31 19:11:09.202970,4595.15151469,3090.9090906,4134.60606019,2724.12121185,3888.87878749,288.484848456,3997.06060566,515.1515151,4354.57575714,259.63636361,4662.63636317,284.363636335,4285.54545412,3581.33333298,4405.06060562,3037.33333303,5045.39393889,3074.42424212,4191.78787837,140.121212107,4467.39393895,3692.60606024,4186.63636322,2806.54545426,4915.06060557,3235.15151483,4488.51515107,4047.03030263,42.0,42.0,?
2017-07-31 19:11:09.212587,4592.0606056,3090.9090906,4139.75757534,2724.12121185,3874.96969658,288.484848456,3986.24242384,515.1515151,4347.36363593,259.63636361,4671.90909044,284.363636335,4280.90909048,3581.33333298,4404.54545411,3037.33333303,5025.81818132,3074.42424212,4178.90909049,140.121212107,4463.78787834,3692.60606024,4190.75757534,2806.54545426,4912.48484799,3235.15151483,4479.75757531,4047.03030263,42.0,42.0,?
2017-07-31 19:11:09.219085,4596.18181772,3090.9090906,4138.2121208,2724.12121185,3869.30302992,288.484848456,3971.30302991,515.1515151,4353.03030259,259.63636361,4671.90909044,284.363636335,4280.39393897,3581.33333298,4409.18181774,3037.33333303,5019.63636313,3074.42424212,4191.78787837,140.121212107,4464.30302986,3692.60606024,4187.15151473,2806.54545426,4913.51515102,3235.15151483,4475.63636319,4047.03030263,42.0,42.0,?
2017-07-31 19:11:09.227926,4595.66666621,3090.9090906,4131.5151511,2724.12121185,3882.18181779,288.484848456,3965.12121172,515.1515151,4349.9393935,259.63636361,4665.21212075,284.363636335,4282.96969654,3581.33333298,4412.78787835,3037.33333303,5036.12121162,3074.42424212,4200.54545413,140.121212107,4474.09090864,3692.60606024,4181.99999958,2806.54545426,4923.81818133,3235.15151483,4482.33333289,4047.03030263,42.0,42.0,?
2017-07-31 19:11:09.235780,4595.66666621,3090.9090906,4137.18181777,2724.12121185,3880.12121173,288.484848456,3975.93939354,515.1515151,4341.69696926,259.63636361,4652.33333287,284.363636335,4275.75757533,3581.33333298,4406.09090865,3037.33333303,5046.93939343,3074.42424212,4197.96969655,140.121212107,4474.09090864,3692.60606024,4189.21212079,2806.54545426,4918.15151466,3235.15151483,4483.36363592,4047.03030263,42.0,42.0,?
2017-07-31 19:11:09.242963,4587.93939348,3090.9090906,4128.93939353,2724.12121185,3876.51515113,288.484848456,3991.90909051,515.1515151,4339.6363632,259.63636361,4644.09090863,284.363636335,4271.63636321,3581.33333298,4404.54545411,3037.33333303,5049.51515101,3074.42424212,4215.99999958,140.121212107,4464.81818137,3692.60606024,4193.33333291,2806.54545426,4897.03030254,3235.15151483,4480.27272682,4047.03030263,42.0,42.0,?
2017-07-31 19:11:09.251931,4596.69696924,3090.9090906,4135.63636322,2724.12121185,3884.24242385,288.484848456,3988.3030299,515.1515151,4340.66666623,259.63636361,4647.18181772,284.363636335,4269.06060563,3581.33333298,4407.12121168,3037.33333303,5046.42424192,3074.42424212,4227.84848443,140.121212107,4470.48484804,3692.60606024,4187.15151473,2806.54545426,4904.75757527,3235.15151483,4481.30302985,4047.03030263,42.0,42.0,?
2017-07-31 19:11:09.257473,4603.90909045,3090.9090906,4137.18181777,2724.12121185,3887.84848446,288.484848456,3980.57575718,515.1515151,4352.51515108,259.63636361,4654.90909044,284.363636335,4277.30302988,3581.33333298,4407.6363632,3037.33333303,5043.84848434,3074.42424212,4219.09090867,140.121212107,4479.75757531,3692.60606024,4189.21212079,2806.54545426,4925.36363587,3235.15151483,4483.87878743,4047.03030263,42.0,42.0,?
2017-07-31 19:11:09.267732,4594.63636318,3090.9090906,4125.84848444,2724.12121185,3877.03030264,288.484848456,3970.78787839,515.1515151,4348.90909047,259.63636361,4646.15151469,284.363636335,4287.60606018,3581.33333298,4406.60606017,3037.33333303,5042.81818131,3074.42424212,4212.39393897,140.121212107,4471.51515107,3692.60606024,4191.78787837,2806.54545426,4916.60606011,3235.15151483,4483.36363592,4047.03030263,42.0,42.0,?
2017-07-31 19:11:09.273417,4597.21212075,3090.9090906,4138.72727231,2724.12121185,3872.39393901,288.484848456,3968.72727233,515.1515151,4338.09090866,259.63636361,4638.42424196,284.363636335,4278.33333291,3581.33333298,4412.78787835,3037.33333303,5053.12121162,3074.42424212,4211.87878746,140.121212107,4463.78787834,3692.60606024,4187.15151473,2806.54545426,4905.27272678,3235.15151483,4481.30302985,4047.03030263,42.0,42.0,?
2017-07-31 19:11:09.284128,4591.03030257,3090.9090906,4137.69696928,2724.12121185,3887.33333294,288.484848456,3986.75757536,515.1515151,4344.27272684,259.63636361,4651.81818135,284.363636335,4268.54545412,3581.33333298,4420.51515107,3037.33333303,5060.84848434,3074.42424212,4212.90909049,140.121212107,4463.78787834,3692.60606024,4187.15151473,2806.54545426,4910.93939345,3235.15151483,4479.75757531,4047.03030263,42.0,42.0,?
2017-07-31 19:11:09.288960,4584.33333287,3090.9090906,4138.72727231,2724.12121185,3885.27272688,288.484848456,3957.90909051,515.1515151,4329.84848442,259.63636361,4646.15151469,284.363636335,4262.87878745,3581.33333298,4400.9393935,3037.33333303,5035.6060601,3074.42424212,4203.1212117,140.121212107,4456.57575713,3692.60606024,4188.18181776,2806.54545426,4906.81818133,3235.15151483,4474.09090864,4047.03030263,42.0,42.0,?
2017-07-31 19:11:09.296941,4589.99999954,3090.9090906,4142.33333292,2724.12121185,3876.51515113,288.484848456,3937.30302991,515.1515151,4324.18181775,259.63636361,4633.78787832,284.363636335,4267.51515109,3581.33333298,4387.03030259,3037.33333303,5024.27272677,3074.42424212,4199.5151511,140.121212107,4454.51515107,3692.60606024,4187.15151473,2806.54545426,4897.03030254,3235.15151483,4476.66666622,4047.03030263,42.0,42.0,?
2017-07-31 19:11:09.304259,4588.454545,3090.9090906,4133.06060565,2724.12121185,3879.60606022,288.484848456,3992.42424203,515.1515151,4357.66666623,259.63636361,4647.18181772,284.363636335,4278.84848442,3581.33333298,4398.36363592,3037.33333303,5042.3030298,3074.42424212,4210.33333291,140.121212107,4461.21212077,3692.60606024,4189.21212079,2806.54545426,4901.66666618,3235.15151483,4486.96969652,4047.03030263,42.0,42.0,?
2017-07-31 19:11:09.313936,4589.99999954,3090.9090906,4139.24242383,2724.12121185,3878.06060567,288.484848456,4014.06060566,515.1515151,4361.78787835,259.63636361,4652.33333287,284.363636335,4272.15151472,3581.33333298,4396.30302986,3037.33333303,5045.9090904,3074.42424212,4215.99999958,140.121212107,4461.21212077,3692.60606024,4190.24242382,2806.54545426,4907.84848436,3235.15151483,4484.90909046,4047.03030263,42.0,42.0,?
2017-07-31 19:11:09.320364,4590.51515106,3090.9090906,4136.66666625,2724.12121185,3883.21212082,288.484848456,3981.60606021,515.1515151,4342.72727229,259.63636361,4645.12121166,284.363636335,4270.60606018,3581.33333298,4401.45454501,3037.33333303,5042.81818131,3074.42424212,4224.24242382,140.121212107,4465.8484844,3692.60606024,4189.21212079,2806.54545426,4910.42424193,3235.15151483,4487.99999955,4047.03030263,42.0,42.0,?
2017-07-31 19:11:09.327933,4601.33333287,3090.9090906,4139.24242383,2724.12121185,3892.4848481,288.484848456,3961.51515112,515.1515151,4354.06060563,259.63636361,4656.9696965,284.363636335,4289.66666624,3581.33333298,4422.57575713,3037.33333303,5044.36363586,3074.42424212,4230.93939352,140.121212107,4481.81818137,3692.60606024,4189.72727231,2806.54545426,4923.30302981,3235.15151483,4499.8484844,4047.03030263,42.0,42.0,?
2017-07-31 19:11:09.338711,4612.15151469,3090.9090906,4144.90909049,2724.12121185,3894.03030264,288.484848456,3965.12121172,515.1515151,4373.6363632,259.63636361,4673.9696965,284.363636335,4306.66666624,3581.33333298,4431.84848441,3037.33333303,5057.75757525,3074.42424212,4233.51515109,140.121212107,4486.96969652,3692.60606024,4194.87878746,2806.54545426,4931.54545405,3235.15151483,4506.54545409,4047.03030263,42.0,42.0,?
2017-07-31 19:11:09.343603,4602.3636359,3090.9090906,4134.60606019,2724.12121185,3891.45454507,288.484848456,3973.87878748,515.1515151,4364.87878744,259.63636361,4664.18181772,284.363636335,4300.99999957,3581.33333298,4429.78787834,3037.33333303,5077.84848434,3074.42424212,4239.69696927,140.121212107,4477.18181773,3692.60606024,4194.87878746,2806.54545426,4918.66666617,3235.15151483,4506.54545409,4047.03030263,42.0,42.0,?
2017-07-31 19:11:09.351999,4602.87878742,3090.9090906,4143.36363595,2724.12121185,3888.87878749,288.484848456,3969.75757536,515.1515151,4348.90909047,259.63636361,4650.27272681,284.363636335,4280.39393897,3581.33333298,4423.60606016,3037.33333303,5070.12121161,3074.42424212,4239.18181776,140.121212107,4474.09090864,3692.60606024,4190.24242382,2806.54545426,4914.03030254,3235.15151483,4504.48484803,4047.03030263,42.0,42.0,?
2017-07-31 19:11:09.360503,4599.27272681,3090.9090906,4140.27272686,2724.12121185,3888.87878749,288.484848456,3972.84848445,515.1515151,4354.57575714,259.63636361,4653.87878741,284.363636335,4275.75757533,3581.33333298,4423.09090865,3037.33333303,5054.66666616,3074.42424212,4231.96969655,140.121212107,4475.12121167,3692.60606024,4189.21212079,2806.54545426,4919.6969692,3235.15151483,4500.36363591,4047.03030263,42.0,42.0,?
2017-07-31 19:11:09.368141,4594.63636318,3090.9090906,4133.06060565,2724.12121185,3882.18181779,288.484848456,3984.18181778,515.1515151,4364.36363593,259.63636361,4656.9696965,284.363636335,4285.54545412,3581.33333298,4418.45454501,3037.33333303,5058.27272677,3074.42424212,4224.24242382,140.121212107,4472.5454541,3692.60606024,4191.27272685,2806.54545426,4918.66666617,3235.15151483,4493.66666622,4047.03030263,42.0,42.0,?
2017-07-31 19:11:09.375575,4606.48484802,3090.9090906,4142.33333292,2724.12121185,3876.51515113,288.484848456,3993.45454506,515.1515151,4367.96969653,259.63636361,4657.48484802,284.363636335,4289.66666624,3581.33333298,4407.12121168,3037.33333303,5053.63636313,3074.42424212,4228.87878746,140.121212107,4476.1515147,3692.60606024,4193.33333291,2806.54545426,4921.75757527,3235.15151483,4496.24242379,4047.03030263,42.0,42.0,?
2017-07-31 19:11:09.385334,4601.84848439,3090.9090906,4138.72727231,2724.12121185,3883.72727234,288.484848456,3991.90909051,515.1515151,4358.18181775,259.63636361,4655.93939347,284.363636335,4284.51515109,3581.33333298,4407.12121168,3037.33333303,5038.69696919,3074.42424212,4233.51515109,140.121212107,4477.18181773,3692.60606024,4191.78787837,2806.54545426,4920.21212072,3235.15151483,4504.48484803,4047.03030263,42.0,42.0,?
2017-07-31 19:11:09.390603,4600.81818136,3090.9090906,4146.96969656,2724.12121185,3884.75757537,288.484848456,3964.60606021,515.1515151,4339.12121169,259.63636361,4650.78787832,284.363636335,4278.84848442,3581.33333298,4409.69696926,3037.33333303,5037.66666616,3074.42424212,4223.21212079,140.121212107,4474.09090864,3692.60606024,4191.27272685,2806.54545426,4914.54545405,3235.15151483,4505.51515106,4047.03030263,42.0,42.0,?
2017-07-31 19:11:09.399841,4609.0606056,3090.9090906,4147.48484807,2724.12121185,3892.99999961,288.484848456,3957.90909051,515.1515151,4357.66666623,259.63636361,4660.57575711,284.363636335,4291.21212078,3581.33333298,4418.45454501,3037.33333303,5061.87878737,3074.42424212,4241.24242382,140.121212107,4484.90909046,3692.60606024,4195.90909049,2806.54545426,4923.30302981,3235.15151483,4508.09090864,4047.03030263,42.0,42.0,?
2017-07-31 19:11:09.406540,4606.48484802,3103.27272696,4140.27272686,2724.12121185,3899.69696931,288.484848456,3983.66666627,515.1515151,4377.2424238,259.63636361,4663.6666662,284.363636335,4302.0303026,3581.33333298,4423.09090865,3037.33333303,5071.66666616,3074.42424212,4256.18181776,140.121212107,4489.03030258,3692.60606024,4193.84848443,2806.54545426,4928.96969648,3235.15151483,4511.69696925,4047.03030263,42.0,42.0,?
2017-07-31 19:11:09.415823,4603.90909045,3103.27272696,4143.36363595,2641.69696943,3889.90909052,288.484848456,3980.06060566,515.1515151,4348.39393896,259.63636361,4649.75757529,284.363636335,4292.75757533,3581.33333298,4423.09090865,3037.33333303,5069.6060601,3074.42424212,4241.75757533,140.121212107,4493.1515147,3692.60606024,4193.84848443,2806.54545426,4931.03030254,3235.15151483,4513.24242379,4047.03030263,42.0,42.0,?
2017-07-31 19:11:09.428342,4603.90909045,3103.27272696,4143.36363595,2641.69696943,3889.90909052,288.484848456,3980.06060566,515.1515151,4348.39393896,259.63636361,4649.75757529,284.363636335,4292.75757533,3581.33333298,4423.09090865,3037.33333303,5069.6060601,3074.42424212,4241.75757533,140.121212107,4493.1515147,3692.60606024,4193.84848443,2806.54545426,4931.03030254,3235.15151483,4513.24242379,4047.03030263,42.0,42.0,?
2017-07-31 19:11:09.433930,4615.7575753,3103.27272696,4147.48484807,2641.69696943,3891.45454507,271.999999973,3954.81818142,515.1515151,4356.12121169,259.63636361,4664.18181772,284.363636335,4309.24242381,3581.33333298,4440.09090865,3037.33333303,5086.6060601,3074.42424212,4274.21212078,140.121212107,4503.96969652,3692.60606024,4198.99999958,2806.54545426,4944.42424193,3235.15151483,4517.87878743,4047.03030263,42.0,42.0,?
2017-07-31 19:11:09.437891,4616.78787833,3103.27272696,4149.03030262,2641.69696943,3898.66666628,271.999999973,3959.96969657,515.1515151,4357.66666623,259.63636361,4671.90909044,284.363636335,4314.90909048,3581.33333298,4443.69696925,3037.33333303,5086.6060601,3074.42424212,4268.54545412,140.121212107,4494.69696925,3692.60606024,4194.87878746,2806.54545426,4935.66666617,3235.15151483,4517.36363591,4047.03030263,42.0,42.0,?
2017-07-31 19:11:09.444889,4603.90909045,3103.27272696,4141.8181814,2641.69696943,3901.75757537,271.999999973,3983.66666627,515.1515151,4364.87878744,239.030303006,4666.24242378,284.363636335,4304.09090866,3581.33333298,4435.45454501,3037.33333303,5073.2121207,3074.42424212,4249.48484806,140.121212107,4484.90909046,3692.60606024,4189.72727231,2806.54545426,4917.12121163,3235.15151483,4516.8484844,4047.03030263,42.0,42.0,?
2017-07-31 19:11:09.455835,4610.09090863,3103.27272696,4151.09090868,2641.69696943,3890.93939355,271.999999973,3987.27272687,515.1515151,4371.57575714,239.030303006,4664.69696923,309.09090906,4289.66666624,3581.33333298,4421.03030259,3037.33333303,5058.27272677,3074.42424212,4245.36363594,140.121212107,4486.45454501,3692.60606024,4188.69696928,2806.54545426,4925.87878739,3235.15151483,4515.30302985,4047.03030263,42.0,42.0,?
2017-07-31 19:11:09.467509,4608.03030257,3103.27272696,4144.90909049,2641.69696943,3890.93939355,271.999999973,3966.66666627,515.1515151,4358.69696926,239.030303006,4676.54545408,309.09090906,4298.93939351,3618.42424206,4422.57575713,3037.33333303,5071.66666616,3074.42424212,4246.39393897,140.121212107,4487.48484804,3692.60606024,4193.33333291,2806.54545426,4937.21212072,3235.15151483,4514.27272682,4047.03030263,42.0,42.0,?
2017-07-31 19:11:09.471108,4608.03030257,3103.27272696,4146.96969656,2641.69696943,3894.54545416,271.999999973,3956.36363597,515.1515151,4358.69696926,239.030303006,4667.78787832,309.09090906,4297.90909048,3618.42424206,4422.57575713,3053.81818151,5075.78787828,3074.42424212,4239.69696927,140.121212107,4483.87878743,3692.60606024,4196.93939352,2806.54545426,4928.45454496,3235.15151483,4510.66666622,4047.03030263,42.0,42.0,?
2017-07-31 19:11:09.477441,4610.60606014,3103.27272696,4151.60606019,2641.69696943,3894.03030264,271.999999973,3972.33333294,515.1515151,4354.06060563,239.030303006,4647.69696923,309.09090906,4286.06060563,3618.42424206,4418.96969653,3053.81818151,5057.24242374,3057.93939363,4243.81818139,140.121212107,4484.39393895,3692.60606024,4195.39393897,2806.54545426,4922.7878783,3235.15151483,4511.69696925,4047.03030263,42.0,42.0,?
2017-07-31 19:11:09.486632,4612.15151469,3103.27272696,4144.90909049,2641.69696943,3894.54545416,271.999999973,3987.27272687,515.1515151,4368.48484805,239.030303006,4660.06060559,309.09090906,4296.36363593,3618.42424206,4424.63636319,3053.81818151,5054.66666616,3057.93939363,4252.57575715,140.121212107,4487.99999955,3692.60606024,4189.21212079,2806.54545426,4930.51515102,3235.15151483,4523.54545409,4047.03030263,42.0,42.0,?
2017-07-31 19:11:09.493290,4621.42424196,3103.27272696,4152.63636322,2641.69696943,3890.42424204,271.999999973,3980.57575718,515.1515151,4363.84848441,239.030303006,4672.93939347,309.09090906,4296.87878745,3618.42424206,4422.57575713,3053.81818151,5069.6060601,3057.93939363,4242.78787836,140.121212107,4491.60606016,3721.45454508,4188.69696928,2806.54545426,4935.15151466,3235.15151483,4527.1515147,4047.03030263,42.0,42.0,?
2017-07-31 19:11:09.502245,4610.09090863,3103.27272696,4143.36363595,2641.69696943,3888.36363597,271.999999973,3955.84848445,515.1515151,4329.84848442,239.030303006,4650.27272681,309.09090906,4277.30302988,3618.42424206,4410.21212077,3053.81818151,5074.75757525,3057.93939363,4232.99999958,140.121212107,4484.90909046,3721.45454508,4190.75757534,2814.78787851,4920.72727224,3235.15151483,4514.27272682,4047.03030263,42.0,42.0,?
2017-07-31 19:11:09.508399,4601.33333287,3103.27272696,4143.36363595,2641.69696943,3885.7878784,271.999999973,3940.393939,515.1515151,4320.06060563,239.030303006,4634.30302984,309.09090906,4268.54545412,3618.42424206,4395.27272683,3053.81818151,5051.06060556,3057.93939363,4227.33333291,140.121212107,4476.1515147,3721.45454508,4192.30302988,2814.78787851,4912.99999951,3231.03030271,4500.36363591,4047.03030263,42.0,42.0,?
2017-07-31 19:11:09.517256,4613.18181772,3103.27272696,4155.2121208,2641.69696943,3888.36363597,271.999999973,3980.57575718,515.1515151,4362.81818138,239.030303006,4652.84848438,309.09090906,4282.45454503,3618.42424206,4399.39393895,3053.81818151,5037.66666616,3057.93939363,4226.8181814,131.878787866,4482.8484844,3721.45454508,4193.84848443,2814.78787851,4927.42424193,3231.03030271,4507.06060561,4047.03030263,42.0,42.0,?
2017-07-31 19:11:09.523847,4612.66666621,3103.27272696,4147.48484807,2641.69696943,3898.15151476,271.999999973,4015.09090869,515.1515151,4393.21212077,239.030303006,4666.24242378,309.09090906,4295.3333329,3618.42424206,4424.12121168,3053.81818151,5058.78787828,3057.93939363,4231.96969655,131.878787866,4489.5454541,3717.33333296,4192.30302988,2814.78787851,4932.57575708,3231.03030271,4518.39393894,4047.03030263,42.0,42.0,?
2017-07-31 19:11:09.537782,4611.63636318,3103.27272696,4147.99999959,2641.69696943,3894.54545416,271.999999973,3973.87878748,515.1515151,4343.75757532,239.030303006,4663.15151469,309.09090906,4294.30302987,3618.42424206,4426.69696925,3053.81818151,5062.9090904,3057.93939363,4227.33333291,131.878787866,4485.42424198,3717.33333296,4191.78787837,2802.42424214,4927.93939345,3231.03030271,4513.75757531,4047.03030263,42.0,42.0,?
2017-07-31 19:11:09.540883,4611.63636318,3103.27272696,4147.99999959,2641.69696943,3890.42424204,271.999999973,3941.42424203,515.1515151,4343.75757532,239.030303006,4666.24242378,309.09090906,4299.45454502,3618.42424206,4414.33333289,3053.81818151,5062.9090904,3057.93939363,4225.78787837,131.878787866,4482.33333289,3717.33333296,4191.78787837,2802.42424214,4925.87878739,3231.03030271,4507.57575713,4047.03030263,42.0,42.0,?
2017-07-31 19:11:09.548658,4610.60606014,3103.27272696,4147.99999959,2641.69696943,3892.4848481,271.999999973,3968.72727233,515.1515151,4348.39393896,239.030303006,4664.18181772,309.09090906,4299.96969654,3618.42424206,4415.36363592,3053.81818151,5058.27272677,3057.93939363,4232.48484806,131.878787866,4483.87878743,3717.33333296,4196.424242,2802.42424214,4922.27272678,3231.03030271,4507.06060561,4047.03030263,42.0,42.0,?
2017-07-31 19:11:09.558651,4615.24242378,3103.27272696,4155.72727231,2641.69696943,3888.36363597,271.999999973,3998.60606021,515.1515151,4363.3333329,239.030303006,4657.48484802,309.09090906,4291.7272723,3618.42424206,4421.03030259,3053.81818151,5076.3030298,3057.93939363,4241.75757533,131.878787866,4486.96969652,3717.33333296,4194.36363594,2802.42424214,4920.72727224,3231.03030271,4504.99999955,4047.03030263,42.0,42.0,?
2017-07-31 19:11:09.561932,4614.21212075,3103.27272696,4146.96969656,2641.69696943,3891.45454507,271.999999973,3987.78787839,515.1515151,4361.78787835,239.030303006,4658.51515105,309.09090906,4289.15151472,3618.42424206,4413.81818138,3053.81818151,5074.75757525,3057.93939363,4242.78787836,131.878787866,4491.09090864,3717.33333296,4189.21212079,2802.42424214,4925.36363587,3231.03030271,4510.1515147,4047.03030263,42.0,42.0,?
2017-07-31 19:11:09.571377,4622.45454499,3103.27272696,4155.2121208,2641.69696943,3898.15151476,271.999999973,3951.72727233,515.1515151,4339.12121169,239.030303006,4643.0606056,309.09090906,4276.78787836,3618.42424206,4403.51515107,3053.81818151,5044.36363586,3057.93939363,4223.7272723,131.878787866,4491.09090864,3717.33333296,4191.78787837,2802.42424214,4932.57575708,3231.03030271,4517.36363591,4047.03030263,42.0,42.0,?
2017-07-31 19:11:09.577944,4619.87878742,3103.27272696,4151.09090868,2641.69696943,3899.18181779,271.999999973,3941.93939355,515.1515151,4333.45454502,239.030303006,4626.0606056,309.09090906,4269.06060563,3618.42424206,4409.18181774,3053.81818151,5050.03030253,3057.93939363,4221.15151473,131.878787866,4486.96969652,3717.33333296,4191.78787837,2802.42424214,4929.99999951,3231.03030271,4514.78787834,4047.03030263,42.0,42.0,?
2017-07-31 19:11:09.585917,4608.03030257,3103.27272696,4140.27272686,2641.69696943,3887.84848446,271.999999973,3966.66666627,515.1515151,4346.3333329,239.030303006,4631.72727226,309.09090906,4271.63636321,3618.42424206,4406.60606017,3053.81818151,5066.51515101,3057.93939363,4229.39393897,131.878787866,4480.78787834,3717.33333296,4186.63636322,2802.42424214,4921.24242375,3231.03030271,4504.99999955,4047.03030263,42.0,42.0,?
2017-07-31 19:11:09.595457,4613.18181772,3103.27272696,4151.60606019,2641.69696943,3879.60606022,271.999999973,3976.96969657,515.1515151,4347.36363593,239.030303006,4640.48484802,309.09090906,4270.09090866,3618.42424206,4391.66666623,3053.81818151,5048.9999995,3057.93939363,4223.7272723,131.878787866,4480.78787834,3717.33333296,4190.75757534,2802.42424214,4920.21212072,3231.03030271,4501.90909046,4047.03030263,42.0,42.0,?
2017-07-31 19:11:09.602689,4613.69696924,3103.27272696,4148.5151511,2641.69696943,3888.87878749,271.999999973,3949.15151476,515.1515151,4344.27272684,239.030303006,4638.93939348,309.09090906,4274.21212078,3618.42424206,4398.36363592,3053.81818151,5055.69696919,3057.93939363,4228.36363594,131.878787866,4487.48484804,3717.33333296,4195.90909049,2802.42424214,4920.21212072,3231.03030271,4508.09090864,4047.03030263,42.0,42.0,?
2017-07-31 19:11:09.609844,4610.09090863,3103.27272696,4149.54545413,2641.69696943,3888.36363597,271.999999973,3931.12121173,515.1515151,4336.0303026,239.030303006,4629.15151469,309.09090906,4269.06060563,3618.42424206,4402.48484804,3053.81818151,5063.42424192,3057.93939363,4231.96969655,131.878787866,4481.81818137,3717.33333296,4191.27272685,2802.42424214,4911.96969648,3231.03030271,4504.48484803,4047.03030263,42.0,42.0,?
2017-07-31 19:11:09.617572,4610.60606014,3103.27272696,4150.06060565,2641.69696943,3884.24242385,271.999999973,3972.84848445,515.1515151,4331.39393896,239.030303006,4635.33333287,309.09090906,4259.27272685,3618.42424206,4398.87878744,3053.81818151,5041.27272677,3057.93939363,4222.18181776,131.878787866,4474.09090864,3717.33333296,4189.72727231,2802.42424214,4912.99999951,3231.03030271,4500.87878743,4047.03030263,42.0,42.0,?
2017-07-31 19:11:09.625278,4608.03030257,3103.27272696,4144.90909049,2641.69696943,3884.24242385,271.999999973,3992.42424203,515.1515151,4334.48484805,239.030303006,4645.63636317,309.09090906,4262.36363594,3618.42424206,4398.87878744,3053.81818151,5038.18181768,3057.93939363,4211.36363594,131.878787866,4475.12121167,3717.33333296,4190.75757534,2802.42424214,4921.24242375,3231.03030271,4500.87878743,4047.03030263,42.0,42.0,?
2017-07-31 19:11:09.633488,4606.48484802,3103.27272696,4152.63636322,2641.69696943,3877.03030264,271.999999973,3945.03030264,515.1515151,4338.60606017,239.030303006,4638.42424196,309.09090906,4272.15151472,3618.42424206,4392.18181774,3053.81818151,5049.51515101,3057.93939363,4209.30302988,131.878787866,4472.5454541,3717.33333296,4191.27272685,2802.42424214,4915.57575708,3231.03030271,4493.1515147,4047.03030263,42.0,42.0,?
2017-07-31 19:11:09.642415,4599.78787833,3103.27272696,4147.99999959,2641.69696943,3878.57575719,271.999999973,3938.33333294,515.1515151,4347.36363593,239.030303006,4639.45454499,309.09090906,4281.424242,3618.42424206,4392.18181774,3053.81818151,5050.03030253,3057.93939363,4214.96969655,131.878787866,4468.93939349,3717.33333296,4191.27272685,2802.42424214,4907.84848436,3231.03030271,4492.12121167,4047.03030263,42.0,42.0,?
2017-07-31 19:11:09.650891,4603.90909045,3103.27272696,4152.12121171,2641.69696943,3882.69696931,271.999999973,3975.42424203,515.1515151,4338.09090866,239.030303006,4641.51515105,309.09090906,4268.54545412,3618.42424206,4392.18181774,3053.81818151,5036.12121162,3057.93939363,4197.96969655,131.878787866,4464.81818137,3717.33333296,4184.57575716,2802.42424214,4912.48484799,3231.03030271,4493.1515147,4047.03030263,42.0,42.0,?
2017-07-31 19:11:09.656777,4615.7575753,3103.27272696,4156.24242383,2641.69696943,3886.81818143,271.999999973,3971.81818142,515.1515151,4332.42424199,239.030303006,4634.81818135,309.09090906,4261.33333291,3618.42424206,4399.90909047,3053.81818151,5044.87878737,3057.93939363,4195.39393897,131.878787866,4471.51515107,3717.33333296,4186.63636322,2802.42424214,4920.21212072,3231.03030271,4498.30302985,4047.03030263,42.0,42.0,?
2017-07-31 19:11:09.663899,4615.7575753,3103.27272696,4147.48484807,2641.69696943,3887.84848446,271.999999973,3953.27272688,515.1515151,4351.99999956,239.030303006,4634.30302984,309.09090906,4277.30302988,3618.42424206,4407.6363632,3053.81818151,5057.24242374,3057.93939363,4228.87878746,131.878787866,4484.39393895,3717.33333296,4194.36363594,2802.42424214,4922.7878783,3231.03030271,4509.12121167,4047.03030263,42.0,42.0,?
2017-07-31 19:11:09.673536,4616.27272681,3103.27272696,4155.2121208,2641.69696943,3878.06060567,271.999999973,3955.84848445,515.1515151,4356.12121169,239.030303006,4641.51515105,309.09090906,4269.06060563,3618.42424206,4387.03030259,3053.81818151,5031.48484798,3057.93939363,4232.48484806,131.878787866,4481.81818137,3717.33333296,4192.8181814,2802.42424214,4919.18181769,3231.03030271,4504.99999955,4047.03030263,42.0,42.0,?
2017-07-31 19:11:09.679891,4608.03030257,3103.27272696,4148.5151511,2641.69696943,3872.90909052,271.999999973,3956.87878748,515.1515151,4341.69696926,239.030303006,4645.12121166,309.09090906,4254.1212117,3618.42424206,4379.30302987,3053.81818151,5021.18181768,3057.93939363,4205.69696928,131.878787866,4470.48484804,3717.33333296,4187.15151473,2802.42424214,4910.42424193,3231.03030271,4495.72727228,4047.03030263,42.0,42.0,?
2017-07-31 19:11:09.687903,4604.42424196,3103.27272696,4149.54545413,2641.69696943,3872.90909052,271.999999973,3945.54545415,515.1515151,4334.48484805,239.030303006,4635.33333287,309.09090906,4259.27272685,3618.42424206,4389.09090865,3053.81818151,5032.51515101,3057.93939363,4191.78787837,131.878787866,4468.42424198,3717.33333296,4185.60606019,2802.42424214,4910.42424193,3231.03030271,4489.5454541,4047.03030263,42.0,42.0,?
2017-07-31 19:11:09.695256,4604.93939348,3103.27272696,4157.78787837,2641.69696943,3878.06060567,271.999999973,3945.54545415,515.1515151,4338.60606017,239.030303006,4628.63636317,309.09090906,4267.51515109,3618.42424206,4389.60606017,3053.81818151,5035.6060601,3057.93939363,4198.48484806,131.878787866,4468.93939349,3717.33333296,4191.78787837,2802.42424214,4914.54545405,3231.03030271,4486.96969652,4047.03030263,42.0,42.0,?
2017-07-31 19:11:09.704467,4596.18181772,3103.27272696,4146.45454504,2641.69696943,3886.81818143,271.999999973,3957.90909051,515.1515151,4340.15151472,239.030303006,4631.72727226,309.09090906,4261.84848442,3618.42424206,4395.78787835,3053.81818151,5044.36363586,3057.93939363,4210.33333291,131.878787866,4463.78787834,3717.33333296,4193.84848443,2802.42424214,4905.7878783,3231.03030271,4494.18181773,4047.03030263,42.0,42.0,?
2017-07-31 19:11:09.711388,4609.57575711,3103.27272696,4152.12121171,2641.69696943,3884.75757537,271.999999973,3969.24242385,515.1515151,4343.75757532,239.030303006,4634.30302984,309.09090906,4257.21212079,3618.42424206,4405.06060562,3053.81818151,5054.15151465,3057.93939363,4212.90909049,131.878787866,4473.06060561,3717.33333296,4188.18181776,2802.42424214,4909.3939389,3231.03030271,4502.93939349,4047.03030263,42.0,42.0,?
2017-07-31 19:11:09.718929,4615.7575753,3103.27272696,4146.45454504,2641.69696943,3887.84848446,271.999999973,3966.15151475,515.1515151,4349.9393935,239.030303006,4635.84848438,309.09090906,4277.30302988,3618.42424206,4407.6363632,3053.81818151,5055.69696919,3057.93939363,4215.48484806,131.878787866,4486.96969652,3717.33333296,4188.18181776,2802.42424214,4924.84848436,3231.03030271,4501.39393894,4047.03030263,42.0,42.0,?
2017-07-31 19:11:09.727306,4608.54545408,3103.27272696,4140.27272686,2641.69696943,3888.87878749,271.999999973,3954.30302991,515.1515151,4327.78787836,239.030303006,4629.6666662,309.09090906,4285.0303026,3618.42424206,4400.42424198,3053.81818151,5048.48484798,3057.93939363,4210.33333291,131.878787866,4481.30302985,3717.33333296,4193.33333291,2802.42424214,4921.75757527,3231.03030271,4495.21212076,4047.03030263,42.0,42.0,?
2017-07-31 19:11:09.734989,4611.12121166,3103.27272696,4146.96969656,2641.69696943,3881.15151476,271.999999973,3962.54545415,515.1515151,4325.72727229,239.030303006,4624.51515105,309.09090906,4270.60606018,3618.42424206,4399.90909047,3053.81818151,5050.54545404,3057.93939363,4210.84848443,131.878787866,4473.57575713,3717.33333296,4194.36363594,2802.42424214,4913.51515102,3231.03030271,4498.81818137,4047.03030263,42.0,42.0,?
2017-07-31 19:11:09.741896,4604.93939348,3103.27272696,4139.75757534,2641.69696943,3883.21212082,271.999999973,3969.75757536,515.1515151,4359.21212078,239.030303006,4633.78787832,309.09090906,4270.60606018,3618.42424206,4409.69696926,3053.81818151,5057.75757525,3057.93939363,4221.66666624,131.878787866,4475.63636319,3717.33333296,4188.18181776,2802.42424214,4912.99999951,3231.03030271,4503.454545,4047.03030263,42.0,42.0,?
2017-07-31 19:11:09.751549,4609.0606056,3103.27272696,4155.2121208,2641.69696943,3883.72727234,271.999999973,3942.45454506,515.1515151,4349.42424199,239.030303006,4636.3636359,309.09090906,4269.06060563,3618.42424206,4401.45454501,3053.81818151,5037.15151465,3057.93939363,4203.1212117,131.878787866,4472.5454541,3717.33333296,4185.60606019,2802.42424214,4915.57575708,3231.03030271,4498.81818137,4047.03030263,42.0,42.0,?
2017-07-31 19:11:09.758944,4610.09090863,3103.27272696,4142.33333292,2641.69696943,3889.90909052,271.999999973,3947.60606021,515.1515151,4334.99999957,239.030303006,4632.75757529,309.09090906,4263.39393897,3618.42424206,4392.18181774,3053.81818151,5031.48484798,3057.93939363,4191.78787837,131.878787866,4469.45454501,3717.33333296,4192.30302988,2802.42424214,4912.48484799,3231.03030271,4501.39393894,4047.03030263,42.0,42.0,?
2017-07-31 19:11:09.766995,4601.33333287,3103.27272696,4125.33333292,2641.69696943,3889.90909052,271.999999973,3965.63636324,515.1515151,4351.48484805,239.030303006,4630.18181772,309.09090906,4263.90909048,3618.42424206,4387.03030259,3053.81818151,5041.27272677,3057.93939363,4196.93939352,131.878787866,4468.93939349,3717.33333296,4191.78787837,2802.42424214,4905.7878783,3231.03030271,4499.8484844,4047.03030263,42.0,42.0,?
2017-07-31 19:11:09.775200,4616.27272681,3103.27272696,4181.99999958,2641.69696943,3869.30302992,271.999999973,3932.15151476,515.1515151,4339.6363632,239.030303006,4619.3636359,309.09090906,4249.48484806,3618.42424206,4363.3333329,3053.81818151,5003.66666617,3057.93939363,4175.30302989,131.878787866,4460.18181774,3717.33333296,4185.09090867,2802.42424214,4906.30302981,3231.03030271,4480.27272682,4047.03030263,42.0,42.0,?
2017-07-31 19:11:09.783459,4584.84848439,3103.27272696,4065.57575717,2641.69696943,3909.99999961,271.999999973,3938.84848445,515.1515151,4343.75757532,239.030303006,4622.96969651,309.09090906,4260.30302988,3618.42424206,4386.51515108,3053.81818151,5063.42424192,3057.93939363,4235.06060564,131.878787866,4467.90909046,3717.33333296,4188.69696928,2802.42424214,4906.30302981,3231.03030271,4496.24242379,4047.03030263,42.0,42.0,?
2017-07-31 19:11:09.789981,4584.84848439,3103.27272696,4065.57575717,2641.69696943,3909.99999961,271.999999973,3969.75757536,515.1515151,4343.75757532,239.030303006,4624.51515105,309.09090906,4269.06060563,3618.42424206,4414.33333289,3053.81818151,5063.42424192,3057.93939363,4235.06060564,131.878787866,4483.36363592,3717.33333296,4188.69696928,2802.42424214,4905.27272678,3231.03030271,4511.69696925,4047.03030263,42.0,42.0,?
2017-07-31 19:11:09.799967,4604.42424196,3103.27272696,4177.87878746,2641.69696943,3869.30302992,271.999999973,3931.12121173,515.1515151,4306.66666624,239.030303006,4601.33333287,309.09090906,4235.57575715,3618.42424206,4372.09090865,3053.81818151,5042.3030298,3057.93939363,4193.33333291,131.878787866,4467.39393895,3717.33333296,4184.57575716,2802.42424214,4907.84848436,3231.03030271,4478.72727228,4047.03030263,42.0,42.0,?
2017-07-31 19:11:09.806114,4603.39393893,3103.27272696,4170.15151473,2641.69696943,3865.69696931,271.999999973,3906.90909052,515.1515151,4302.54545412,239.030303006,4599.27272681,309.09090906,4235.57575715,3618.42424206,4360.24242381,3053.81818151,5009.33333283,3057.93939363,4170.66666625,131.878787866,4450.90909046,3717.33333296,4186.1212117,2802.42424214,4899.60606012,3231.03030271,4473.06060561,4047.03030263,42.0,42.0,?
2017-07-31 19:11:09.816170,4598.24242378,3103.27272696,4124.81818141,2641.69696943,3878.57575719,271.999999973,3942.45454506,515.1515151,4329.84848442,239.030303006,4616.27272681,309.09090906,4256.18181776,3618.42424206,4387.54545411,3053.81818151,5021.18181768,3057.93939363,4192.30302988,131.878787866,4464.81818137,3717.33333296,4191.78787837,2802.42424214,4901.15151466,3231.03030271,4490.06060561,4047.03030263,42.0,42.0,?
2017-07-31 19:11:09.823267,4608.03030257,3103.27272696,4155.72727231,2641.69696943,3874.96969658,271.999999973,3975.42424203,515.1515151,4332.93939351,239.030303006,4622.45454499,309.09090906,4256.18181776,3618.42424206,4387.54545411,3053.81818151,5031.9999995,3057.93939363,4204.66666625,131.878787866,4479.24242379,3717.33333296,4196.424242,2802.42424214,4914.03030254,3231.03030271,4488.51515107,4047.03030263,42.0,42.0,?
2017-07-31 19:11:09.828532,4602.87878742,3103.27272696,4153.66666625,2641.69696943,3883.72727234,271.999999973,3942.45454506,515.1515151,4324.18181775,239.030303006,4616.27272681,309.09090906,4254.63636321,3618.42424206,4375.69696926,3053.81818151,5028.39393889,3057.93939363,4202.09090867,131.878787866,4470.99999955,3717.33333296,4188.69696928,2802.42424214,4905.7878783,3231.03030271,4486.45454501,4047.03030263,42.0,42.0,?
2017-07-31 19:11:09.837840,4605.45454499,3103.27272696,4147.99999959,2641.69696943,3884.24242385,271.999999973,3916.18181779,515.1515151,4329.84848442,239.030303006,4619.3636359,309.09090906,4265.45454503,3618.42424206,4382.39393896,3053.81818151,5027.36363586,3057.93939363,4200.54545413,131.878787866,4465.8484844,3717.33333296,4187.66666625,2802.42424214,4903.21212072,3231.03030271,4493.1515147,4047.03030263,42.0,42.0,?
2017-07-31 19:11:09.843960,4610.09090863,3103.27272696,4142.33333292,2641.69696943,3881.15151476,271.999999973,3973.87878748,515.1515151,4347.36363593,239.030303006,4634.30302984,309.09090906,4282.96969654,3618.42424206,4406.09090865,3053.81818151,5040.75757525,3057.93939363,4220.1212117,131.878787866,4479.75757531,3717.33333296,4195.90909049,2802.42424214,4912.99999951,3231.03030271,4503.454545,4047.03030263,42.0,42.0,?
2017-07-31 19:11:09.853795,4604.93939348,3103.27272696,4149.03030262,2641.69696943,3875.4848481,271.999999973,3969.75757536,515.1515151,4320.57575714,239.030303006,4617.30302984,309.09090906,4254.1212117,3618.42424206,4390.6363632,3053.81818151,5030.96969647,3057.93939363,4210.84848443,131.878787866,4475.12121167,3717.33333296,4188.69696928,2802.42424214,4902.69696921,3231.03030271,4490.06060561,4047.03030263,42.0,42.0,?
2017-07-31 19:11:09.859958,4588.96969651,3103.27272696,4142.84848443,2641.69696943,3870.84848446,271.999999973,3890.42424204,515.1515151,4287.09090866,239.030303006,4591.03030257,309.09090906,4220.1212117,3618.42424206,4362.30302987,3053.81818151,5017.06060556,3057.93939363,4183.54545413,131.878787866,4457.09090865,3717.33333296,4179.42424201,2802.42424214,4887.75757527,3231.03030271,4473.57575713,4047.03030263,42.0,42.0,?
2017-07-31 19:11:09.869138,4592.57575712,3103.27272696,4140.27272686,2641.69696943,3870.33333295,271.999999973,3911.03030264,515.1515151,4319.0303026,239.030303006,4603.39393893,309.09090906,4238.15151473,3618.42424206,4370.54545411,3053.81818151,5028.90909041,3057.93939363,4191.78787837,131.878787866,4463.27272683,3717.33333296,4189.72727231,2802.42424214,4897.03030254,3231.03030271,4481.30302985,4047.03030263,42.0,42.0,?
2017-07-31 19:11:09.875293,4606.48484802,3103.27272696,4149.54545413,2641.69696943,3869.30302992,271.999999973,3990.36363596,515.1515151,4356.6363632,239.030303006,4622.96969651,309.09090906,4261.84848442,3618.42424206,4387.03030259,3053.81818151,5028.90909041,3057.93939363,4208.27272685,131.878787866,4472.03030258,3717.33333296,4194.87878746,2802.42424214,4904.75757527,3231.03030271,4489.03030258,4047.03030263,42.0,42.0,?
2017-07-31 19:11:09.884062,4585.87878742,3103.27272696,4138.2121208,2641.69696943,3862.60606022,271.999999973,3971.81818142,515.1515151,4325.72727229,239.030303006,4609.57575711,309.09090906,4246.39393897,3618.42424206,4374.15151471,3053.81818151,5004.18181768,3057.93939363,4188.69696928,131.878787866,4453.99999955,3717.33333296,4180.45454504,2802.42424214,4885.18181769,3231.03030271,4476.1515147,4047.03030263,42.0,42.0,?
2017-07-31 19:11:09.892003,4577.12121166,3103.27272696,4146.96969656,2641.69696943,3853.33333295,271.999999973,3921.33333294,515.1515151,4298.93939351,239.030303006,4597.21212075,309.09090906,4229.39393897,3618.42424206,4356.12121169,3053.81818151,4989.75757526,3057.93939363,4164.48484807,131.878787866,4439.57575713,3717.33333296,4182.5151511,2802.42424214,4877.96969648,3231.03030271,4462.2424238,4047.03030263,42.0,42.0,?
2017-07-31 19:11:09.899500,4585.87878742,3103.27272696,4144.90909049,2641.69696943,3866.21212083,271.999999973,3938.84848445,515.1515151,4332.42424199,239.030303006,4619.87878742,309.09090906,4247.93939351,3618.42424206,4374.66666623,3053.81818151,5019.63636313,3057.93939363,4190.24242382,131.878787866,4451.93939349,3717.33333296,4196.424242,2802.42424214,4887.24242375,3231.03030271,4473.06060561,4047.03030263,42.0,42.0,?
2017-07-31 19:11:09.908559,4590.51515106,3103.27272696,4142.33333292,2641.69696943,3875.4848481,271.999999973,3941.93939355,515.1515151,4320.57575714,239.030303006,4630.69696923,309.09090906,4257.7272723,3618.42424206,4389.09090865,3053.81818151,5044.87878737,3057.93939363,4215.48484806,131.878787866,4459.66666622,3717.33333296,4190.75757534,2802.42424214,4891.36363587,3231.03030271,4482.8484844,4047.03030263,42.0,42.0,?
2017-07-31 19:11:09.916155,4603.39393893,3062.06060575,4155.2121208,2641.69696943,3880.63636325,271.999999973,3941.93939355,515.1515151,4320.57575714,239.030303006,4625.54545408,309.09090906,4265.45454503,3618.42424206,4390.6363632,3053.81818151,5042.3030298,3057.93939363,4220.1212117,131.878787866,4469.45454501,3717.33333296,4190.75757534,2802.42424214,4906.81818133,3231.03030271,4491.60606016,4047.03030263,42.0,42.0,?
2017-07-31 19:11:09.923250,4611.63636318,3062.06060575,4151.09090868,2695.272727,3898.15151476,271.999999973,3978.51515112,515.1515151,4346.84848441,239.030303006,4635.33333287,309.09090906,4289.66666624,3618.42424206,4406.09090865,3053.81818151,5040.75757525,3057.93939363,4230.424242,131.878787866,4486.96969652,3717.33333296,4199.5151511,2802.42424214,4924.33333284,3231.03030271,4507.06060561,4047.03030263,42.0,42.0,?
2017-07-31 19:11:09.930693,4615.24242378,3062.06060575,4157.78787837,2695.272727,3895.57575719,271.999999973,3975.93939354,515.1515151,4354.57575714,239.030303006,4644.09090863,309.09090906,4281.93939351,3618.42424206,4402.48484804,3053.81818151,5031.48484798,3057.93939363,4223.21212079,131.878787866,4480.27272682,3717.33333296,4194.36363594,2802.42424214,4919.18181769,3231.03030271,4503.454545,3952.24242385,42.0,42.0,?
2017-07-31 19:11:09.938886,4609.57575711,3062.06060575,4149.03030262,2695.272727,3891.45454507,267.878787852,3958.42424203,515.1515151,4341.69696926,239.030303006,4645.12121166,309.09090906,4269.06060563,3618.42424206,4392.69696926,3053.81818151,5042.3030298,3057.93939363,4214.45454503,131.878787866,4467.39393895,3717.33333296,4186.63636322,2802.42424214,4906.81818133,3231.03030271,4492.63636319,3952.24242385,42.0,42.0,?
2017-07-31 19:11:09.946243,4604.42424196,3062.06060575,4144.90909049,2695.272727,3895.57575719,267.878787852,3959.96969657,482.181818134,4343.24242381,239.030303006,4638.93939348,309.09090906,4275.75757533,3618.42424206,4397.33333289,3053.81818151,5058.27272677,3057.93939363,4217.54545412,131.878787866,4468.93939349,3717.33333296,4188.18181776,2802.42424214,4903.72727224,3231.03030271,4491.60606016,3952.24242385,42.0,42.0,?
2017-07-31 19:11:09.953437,4604.93939348,3062.06060575,4157.27272686,2695.272727,3883.21212082,267.878787852,3952.75757536,482.181818134,4328.30302987,135.999999986,4618.33333287,309.09090906,4264.93939351,3618.42424206,4397.33333289,3053.81818151,5043.84848434,3057.93939363,4208.27272685,131.878787866,4464.81818137,3717.33333296,4188.69696928,2802.42424214,4899.60606012,3231.03030271,4486.96969652,3952.24242385,42.0,42.0,?
2017-07-31 19:11:09.962904,4591.03030257,3062.06060575,4139.24242383,2695.272727,3871.36363598,267.878787852,3945.54545415,482.181818134,4317.48484805,135.999999986,4609.57575711,230.787878765,4249.99999958,3618.42424206,4390.6363632,3053.81818151,5034.57575707,3057.93939363,4198.48484806,131.878787866,4457.60606016,3717.33333296,4183.54545413,2802.42424214,4897.54545406,3231.03030271,4479.75757531,3952.24242385,42.0,42.0,?
2017-07-31 19:11:09.971170,4596.69696924,3062.06060575,4146.45454504,2695.272727,3873.42424204,267.878787852,3953.78787839,482.181818134,4335.51515108,135.999999986,4626.0606056,230.787878765,4247.424242,3593.69696934,4381.36363593,3053.81818151,5032.51515101,3057.93939363,4200.03030261,131.878787866,4463.27272683,3717.33333296,4187.66666625,2802.42424214,4906.81818133,3231.03030271,4480.27272682,3952.24242385,42.0,42.0,?
2017-07-31 19:11:09.976922,4611.12121166,3062.06060575,4160.87878746,2695.272727,3884.24242385,267.878787852,3963.06060566,482.181818134,4351.99999956,135.999999986,4641.51515105,230.787878765,4258.75757533,3593.69696934,4384.96969653,3008.48484818,5024.78787829,3057.93939363,4208.27272685,131.878787866,4468.93939349,3717.33333296,4198.48484806,2802.42424214,4910.93939345,3231.03030271,4485.93939349,3952.24242385,42.0,42.0,?
2017-07-31 19:11:09.986561,4605.45454499,3062.06060575,4149.54545413,2695.272727,3883.21212082,267.878787852,3958.93939354,482.181818134,4347.87878744,135.999999986,4634.30302984,230.787878765,4269.57575715,3593.69696934,4395.27272683,3008.48484818,5017.06060556,3049.69696939,4205.69696928,131.878787866,4459.66666622,3717.33333296,4193.33333291,2802.42424214,4899.60606012,3231.03030271,4482.8484844,3952.24242385,42.0,42.0,?
2017-07-31 19:11:10.003439,4601.33333287,3062.06060575,4149.54545413,2695.272727,3870.84848446,267.878787852,3947.60606021,482.181818134,4331.90909048,135.999999986,4623.48484802,230.787878765,4264.424242,3593.69696934,4386.51515108,3008.48484818,5009.33333283,3049.69696939,4196.93939352,160.727272711,4454.51515107,3717.33333296,4181.48484807,2802.42424214,4898.06060557,3231.03030271,4471.51515107,3952.24242385,42.0,42.0,?
2017-07-31 19:11:10.007026,4594.63636318,3062.06060575,4144.39393898,2695.272727,3870.33333295,267.878787852,3926.99999961,482.181818134,4324.69696926,135.999999986,4628.12121166,230.787878765,4263.90909048,3593.69696934,4383.42424199,3008.48484818,5021.18181768,3049.69696939,4202.60606019,160.727272711,4458.63636319,3676.12121175,4186.63636322,2802.42424214,4902.69696921,3231.03030271,4469.96969652,3952.24242385,42.0,42.0,?
2017-07-31 19:11:10.013556,4597.21212075,3062.06060575,4152.63636322,2695.272727,3873.93939355,267.878787852,3921.33333294,482.181818134,4330.36363593,135.999999986,4632.75757529,230.787878765,4264.424242,3593.69696934,4391.15151471,3008.48484818,5040.24242374,3049.69696939,4204.15151473,160.727272711,4461.21212077,3676.12121175,4197.45454503,2806.54545426,4899.0909086,3231.03030271,4476.1515147,3952.24242385,42.0,42.0,?
2017-07-31 19:11:10.024545,4604.42424196,3062.06060575,4154.18181777,2695.272727,3883.72727234,267.878787852,3959.96969657,482.181818134,4342.21212078,135.999999986,4634.30302984,230.787878765,4266.99999957,3593.69696934,4394.2424238,3008.48484818,5042.81818131,3049.69696939,4203.1212117,160.727272711,4462.2424238,3676.12121175,4193.84848443,2806.54545426,4900.12121163,3181.57575726,4479.24242379,3952.24242385,42.0,42.0,?
2017-07-31 19:11:10.030283,4597.72727227,3062.06060575,4141.8181814,2695.272727,3883.21212082,267.878787852,3987.27272687,482.181818134,4339.12121169,135.999999986,4633.27272681,230.787878765,4263.90909048,3593.69696934,4383.9393935,3008.48484818,5028.39393889,3049.69696939,4202.09090867,156.60606059,4456.06060561,3676.12121175,4186.1212117,2806.54545426,4897.54545406,3181.57575726,4474.60606016,3952.24242385,42.0,42.0,?
2017-07-31 19:11:10.035792,4598.7575753,3062.06060575,4152.12121171,2695.272727,3869.30302992,267.878787852,3964.60606021,482.181818134,4322.6363632,135.999999986,4626.0606056,230.787878765,4246.39393897,3593.69696934,4365.90909047,3008.48484818,5007.27272677,3049.69696939,4193.84848443,156.60606059,4451.42424198,3676.12121175,4189.72727231,2806.54545426,4892.3939389,3181.57575726,4471.51515107,3952.24242385,42.0,42.0,?
2017-07-31 19:11:10.040662,4600.30302984,3062.06060575,4148.5151511,2695.272727,3877.54545416,267.878787852,3941.93939355,482.181818134,4326.24242381,135.999999986,4628.63636317,230.787878765,4255.66666624,3593.69696934,4379.81818138,3008.48484818,5016.54545404,3049.69696939,4206.72727231,156.60606059,4463.27272683,3676.12121175,4196.424242,2806.54545426,4903.21212072,3181.57575726,4483.87878743,3952.24242385,42.0,42.0,?
2017-07-31 19:11:10.054124,4604.42424196,3062.06060575,4151.09090868,2695.272727,3886.30302991,267.878787852,3921.33333294,482.181818134,4332.93939351,135.999999986,4634.30302984,230.787878765,4275.75757533,3593.69696934,4405.57575714,3008.48484818,5038.18181768,3049.69696939,4221.15151473,156.60606059,4468.93939349,3676.12121175,4196.424242,2806.54545426,4912.99999951,3181.57575726,4485.42424198,3952.24242385,42.0,42.0,?
2017-07-31 19:11:10.056019,4609.0606056,3062.06060575,4155.2121208,2695.272727,3880.12121173,267.878787852,3926.99999961,482.181818134,4343.24242381,135.999999986,4640.99999954,230.787878765,4275.75757533,3593.69696934,4406.60606017,3008.48484818,5039.72727222,3049.69696939,4221.66666624,156.60606059,4463.78787834,3676.12121175,4195.39393897,2806.54545426,4908.36363587,3181.57575726,4479.24242379,3952.24242385,42.0,42.0,?
2017-07-31 19:11:10.064866,4602.87878742,3062.06060575,4145.42424201,2695.272727,3875.4848481,267.878787852,3977.48484809,482.181818134,4354.06060563,135.999999986,4649.75757529,230.787878765,4275.24242381,3593.69696934,4400.42424198,3008.48484818,5024.78787829,3049.69696939,4217.03030261,156.60606059,4465.8484844,3676.12121175,4189.72727231,2806.54545426,4908.87878739,3181.57575726,4482.8484844,3952.24242385,42.0,42.0,?
2017-07-31 19:11:10.075526,4604.42424196,3062.06060575,4155.72727231,2695.272727,3872.39393901,267.878787852,3971.30302991,482.181818134,4334.48484805,135.999999986,4642.54545408,230.787878765,4275.24242381,3593.69696934,4396.81818138,3008.48484818,5016.03030253,3049.69696939,4199.5151511,156.60606059,4466.36363592,3676.12121175,4184.57575716,2806.54545426,4912.99999951,3181.57575726,4478.21212076,3952.24242385,42.0,42.0,?
2017-07-31 19:11:10.082777,4602.3636359,3062.06060575,4148.5151511,2695.272727,3879.0909087,267.878787852,3923.90909052,482.181818134,4324.69696926,135.999999986,4635.84848438,230.787878765,4275.24242381,3593.69696934,4399.39393895,3008.48484818,5038.69696919,3049.69696939,4198.99999958,156.60606059,4462.2424238,3676.12121175,4192.30302988,2806.54545426,4903.72727224,3181.57575726,4475.63636319,3952.24242385,42.0,42.0,?
2017-07-31 19:11:10.086480,4605.96969651,3062.06060575,4146.96969656,2695.272727,3882.18181779,267.878787852,3941.42424203,482.181818134,4343.75757532,135.999999986,4641.51515105,230.787878765,4273.69696927,3593.69696934,4398.87878744,3008.48484818,5049.51515101,3049.69696939,4215.48484806,156.60606059,4464.81818137,3676.12121175,4194.87878746,2806.54545426,4900.12121163,3181.57575726,4482.33333289,3952.24242385,42.0,42.0,?
2017-07-31 19:11:10.095395,4612.66666621,3062.06060575,4158.8181814,2695.272727,3876.51515113,267.878787852,3975.93939354,482.181818134,4351.48484805,135.999999986,4645.12121166,230.787878765,4265.45454503,3593.69696934,4390.12121168,3008.48484818,5028.39393889,3049.69696939,4217.03030261,156.60606059,4470.99999955,3676.12121175,4186.63636322,2806.54545426,4912.99999951,3181.57575726,4483.87878743,3952.24242385,42.0,42.0,?
2017-07-31 19:11:10.102956,4601.33333287,3062.06060575,4146.45454504,2695.272727,3881.15151476,267.878787852,3965.12121172,482.181818134,4341.18181775,135.999999986,4640.99999954,230.787878765,4259.27272685,3593.69696934,4379.30302987,3008.48484818,5013.96969647,3049.69696939,4206.21212079,156.60606059,4467.90909046,3676.12121175,4187.66666625,2806.54545426,4909.3939389,3181.57575726,4486.96969652,3952.24242385,42.0,42.0,?
2017-07-31 19:11:10.110702,4604.93939348,3062.06060575,4151.60606019,2695.272727,3881.15151476,267.878787852,3954.30302991,482.181818134,4331.39393896,135.999999986,4635.33333287,230.787878765,4265.45454503,3593.69696934,4368.48484805,3008.48484818,5014.9999995,3049.69696939,4201.57575716,156.60606059,4461.21212077,3676.12121175,4196.93939352,2806.54545426,4893.93939345,3181.57575726,4486.96969652,3952.24242385,42.0,42.0,?
2017-07-31 19:11:10.119013,4603.90909045,3062.06060575,4149.03030262,2695.272727,3870.84848446,267.878787852,3955.33333294,482.181818134,4334.48484805,135.999999986,4638.93939348,230.787878765,4276.27272685,3593.69696934,4374.66666623,3008.48484818,5022.21212071,3049.69696939,4214.45454503,156.60606059,4461.72727228,3676.12121175,4196.93939352,2806.54545426,4887.75757527,3181.57575726,4480.78787834,3952.24242385,42.0,42.0,?
2017-07-31 19:11:10.124936,4591.03030257,3062.06060575,4144.90909049,2695.272727,3860.54545416,267.878787852,3923.393939,482.181818134,4333.45454502,135.999999986,4635.33333287,230.787878765,4262.36363594,3593.69696934,4373.12121168,3008.48484818,5021.69696919,3049.69696939,4209.8181814,156.60606059,4455.5454541,3676.12121175,4188.69696928,2806.54545426,4887.24242375,3181.57575726,4473.06060561,3952.24242385,42.0,42.0,?
2017-07-31 19:11:10.134927,4597.72727227,3062.06060575,4157.27272686,2695.272727,3863.12121173,267.878787852,3925.45454506,482.181818134,4336.54545411,135.999999986,4627.60606014,230.787878765,4248.45454503,3593.69696934,4361.78787835,3008.48484818,5022.21212071,3049.69696939,4201.06060564,156.60606059,4455.03030258,3676.12121175,4188.69696928,2806.54545426,4898.06060557,3181.57575726,4478.72727228,3952.24242385,42.0,42.0,?
2017-07-31 19:11:10.143247,4600.81818136,3062.06060575,4148.5151511,2695.272727,3875.4848481,267.878787852,3980.06060566,482.181818134,4350.96969653,135.999999986,4635.84848438,230.787878765,4266.99999957,3593.69696934,4376.72727229,3008.48484818,5037.66666616,3049.69696939,4220.1212117,156.60606059,4472.5454541,3676.12121175,4197.45454503,2806.54545426,4911.96969648,3181.57575726,4491.09090864,3952.24242385,42.0,42.0,?
2017-07-31 19:11:10.150022,4603.90909045,3062.06060575,4153.15151474,2695.272727,3868.27272689,267.878787852,3970.78787839,482.181818134,4347.87878744,135.999999986,4642.03030257,230.787878765,4275.24242381,3593.69696934,4385.48484805,3008.48484818,5044.87878737,3049.69696939,4229.90909049,156.60606059,4481.30302985,3676.12121175,4197.45454503,2806.54545426,4917.12121163,3181.57575726,4490.06060561,3952.24242385,42.0,42.0,?
2017-07-31 19:11:10.159205,4603.39393893,3062.06060575,4151.09090868,2695.272727,3863.63636325,267.878787852,3931.63636324,482.181818134,4344.78787835,135.999999986,4640.48484802,230.787878765,4270.60606018,3593.69696934,4374.15151471,3008.48484818,5041.27272677,3049.69696939,4219.09090867,156.60606059,4467.39393895,3676.12121175,4190.24242382,2806.54545426,4909.3939389,3181.57575726,4486.45454501,3952.24242385,42.0,42.0,?
2017-07-31 19:11:10.165189,4593.09090863,3062.06060575,4142.33333292,2695.272727,3862.60606022,267.878787852,3940.393939,482.181818134,4346.3333329,135.999999986,4634.30302984,230.787878765,4263.39393897,3593.69696934,4358.18181775,3008.48484818,5013.96969647,3049.69696939,4201.57575716,156.60606059,4452.96969652,3676.12121175,4187.15151473,2806.54545426,4893.93939345,3181.57575726,4482.8484844,3952.24242385,42.0,42.0,?
2017-07-31 19:11:10.171873,4595.66666621,3062.06060575,4153.15151474,2695.272727,3850.24242386,267.878787852,3947.0909087,482.181818134,4348.39393896,135.999999986,4631.72727226,230.787878765,4256.69696927,3593.69696934,4355.09090866,3008.48484818,4993.36363586,3049.69696939,4196.424242,156.60606059,4455.5454541,3676.12121175,4193.33333291,2806.54545426,4892.90909042,3181.57575726,4478.72727228,3952.24242385,42.0,42.0,?
2017-07-31 19:11:10.180534,4595.15151469,3062.06060575,4146.45454504,2695.272727,3857.45454507,267.878787852,3942.45454506,482.181818134,4353.03030259,135.999999986,4644.09090863,230.787878765,4265.45454503,3593.69696934,4370.54545411,3008.48484818,5016.54545404,3049.69696939,4207.75757534,156.60606059,4457.60606016,3676.12121175,4193.33333291,2806.54545426,4894.96969648,3181.57575726,4482.8484844,3952.24242385,42.0,42.0,?
2017-07-31 19:11:10.187895,4595.15151469,3062.06060575,4153.66666625,2695.272727,3871.36363598,267.878787852,3934.72727233,482.181818134,4330.87878745,135.999999986,4642.03030257,230.787878765,4260.81818139,3593.69696934,4364.87878744,3008.48484818,5023.24242374,3049.69696939,4194.87878746,156.60606059,4447.30302986,3676.12121175,4183.03030261,2806.54545426,4889.81818133,3181.57575726,4481.81818137,3952.24242385,42.0,42.0,?
2017-07-31 19:11:10.197846,4594.12121166,3062.06060575,4155.2121208,2695.272727,3867.75757537,267.878787852,3936.27272688,482.181818134,4319.54545411,135.999999986,4625.03030257,230.787878765,4255.66666624,3593.69696934,4355.09090866,3008.48484818,5018.09090859,3049.69696939,4178.39393898,156.60606059,4440.60606016,3676.12121175,4181.99999958,2806.54545426,4884.15151466,3181.57575726,4480.27272682,3952.24242385,42.0,42.0,?
2017-07-31 19:11:10.204288,4588.454545,3062.06060575,4144.90909049,2695.272727,3860.54545416,267.878787852,3960.48484809,482.181818134,4334.99999957,135.999999986,4623.99999954,230.787878765,4263.39393897,3593.69696934,4366.42424199,3008.48484818,5033.03030253,3049.69696939,4188.69696928,156.60606059,4441.12121168,3676.12121175,4188.69696928,2806.54545426,4872.81818133,3181.57575726,4486.45454501,3952.24242385,42.0,42.0,?
2017-07-31 19:11:10.211954,4598.24242378,3062.06060575,4158.8181814,2695.272727,3861.57575719,267.878787852,3970.27272688,482.181818134,4335.51515108,135.999999986,4632.24242378,230.787878765,4256.69696927,3593.69696934,4367.45454502,3008.48484818,5023.75757526,3049.69696939,4196.93939352,156.60606059,4445.2424238,3676.12121175,4192.8181814,2806.54545426,4869.21212073,3181.57575726,4489.03030258,3952.24242385,42.0,42.0,?
2017-07-31 19:11:10.221654,4594.63636318,3062.06060575,4151.60606019,2695.272727,3871.36363598,267.878787852,3949.15151476,482.181818134,4335.51515108,135.999999986,4628.12121166,230.787878765,4253.09090867,3593.69696934,4360.75757532,3008.48484818,5000.57575708,3049.69696939,4200.54545413,156.60606059,4451.42424198,3676.12121175,4194.87878746,2806.54545426,4880.54545406,3181.57575726,4489.5454541,3952.24242385,42.0,42.0,?
2017-07-31 19:11:10.230602,4596.69696924,3062.06060575,4152.63636322,2695.272727,3875.4848481,267.878787852,3934.72727233,482.181818134,4341.69696926,135.999999986,4629.15151469,230.787878765,4260.81818139,3593.69696934,4359.72727229,3008.48484818,5006.24242374,3049.69696939,4205.18181776,156.60606059,4456.06060561,3676.12121175,4193.84848443,2806.54545426,4893.93939345,3181.57575726,4494.18181773,3952.24242385,42.0,42.0,?
2017-07-31 19:11:10.234975,4613.18181772,3062.06060575,4162.93939352,2695.272727,3882.18181779,267.878787852,3958.42424203,482.181818134,4341.69696926,135.999999986,4650.27272681,230.787878765,4272.66666624,3593.69696934,4369.51515108,3008.48484818,5025.3030298,3049.69696939,4208.78787837,156.60606059,4466.36363592,3676.12121175,4193.84848443,2806.54545426,4905.27272678,3181.57575726,4503.96969652,3952.24242385,42.0,42.0,?
2017-07-31 19:11:10.243633,4606.99999954,3062.06060575,4151.09090868,2695.272727,3880.12121173,267.878787852,3959.45454506,482.181818134,4339.12121169,135.999999986,4650.27272681,230.787878765,4276.27272685,3593.69696934,4375.18181774,3008.48484818,5030.45454495,3049.69696939,4210.84848443,156.60606059,4469.96969652,3676.12121175,4194.87878746,2806.54545426,4908.87878739,3181.57575726,4506.54545409,3952.24242385,42.0,42.0,?
2017-07-31 19:11:10.251881,4595.15151469,3062.06060575,4158.8181814,2695.272727,3862.0909087,267.878787852,3912.06060567,482.181818134,4331.39393896,135.999999986,4630.18181772,230.787878765,4261.84848442,3593.69696934,4358.69696926,3008.48484818,5014.48484798,3049.69696939,4194.36363594,156.60606059,4464.81818137,3676.12121175,4188.69696928,2806.54545426,4911.96969648,3181.57575726,4494.18181773,3952.24242385,42.0,42.0,?
2017-07-31 19:11:10.257957,4580.21212075,3062.06060575,4158.30302989,2695.272727,3868.27272689,267.878787852,3915.15151476,482.181818134,4322.12121169,135.999999986,4634.81818135,230.787878765,4257.21212079,3593.69696934,4357.66666623,3008.48484818,5009.84848435,3049.69696939,4189.72727231,156.60606059,4465.8484844,3676.12121175,4185.60606019,2806.54545426,4910.93939345,3181.57575726,4487.99999955,3952.24242385,42.0,42.0,?
2017-07-31 19:11:10.267084,4573.51515106,3062.06060575,4157.78787837,2695.272727,3878.57575719,267.878787852,3966.15151475,482.181818134,4321.60606017,135.999999986,4647.69696923,230.787878765,4257.21212079,3593.69696934,4367.96969653,3008.48484818,5016.54545404,3049.69696939,4204.15151473,156.60606059,4460.18181774,3676.12121175,4193.84848443,2806.54545426,4895.484848,3181.57575726,4485.93939349,3952.24242385,42.0,42.0,?
2017-07-31 19:11:10.274508,4577.12121166,3062.06060575,4160.36363595,2695.272727,3869.81818143,267.878787852,3981.60606021,482.181818134,4344.78787835,135.999999986,4652.84848438,230.787878765,4261.84848442,3593.69696934,4367.96969653,3008.48484818,5020.15151465,3049.69696939,4210.84848443,156.60606059,4454.51515107,3676.12121175,4198.99999958,2806.54545426,4888.27272678,3181.57575726,4486.96969652,3952.24242385,42.0,42.0,?
2017-07-31 19:11:10.284239,4573.51515106,3062.06060575,4149.03030262,2695.272727,3869.81818143,267.878787852,3955.33333294,482.181818134,4363.84848441,135.999999986,4647.69696923,230.787878765,4272.15151472,3593.69696934,4375.18181774,3008.48484818,5036.63636313,3049.69696939,4215.48484806,156.60606059,4461.72727228,3676.12121175,4193.84848443,2806.54545426,4897.54545406,3181.57575726,4493.66666622,3952.24242385,42.0,42.0,?
2017-07-31 19:11:10.290861,4581.24242378,3062.06060575,4158.30302989,2695.272727,3876.51515113,267.878787852,3945.03030264,482.181818134,4344.78787835,135.999999986,4628.12121166,230.787878765,4260.30302988,3593.69696934,4372.60606017,3008.48484818,5046.93939343,3049.69696939,4217.03030261,156.60606059,4465.8484844,3676.12121175,4191.78787837,2806.54545426,4906.30302981,3181.57575726,4492.63636319,3952.24242385,42.0,42.0,?
2017-07-31 19:11:10.300545,4583.81818136,3062.06060575,4153.66666625,2695.272727,3883.21212082,267.878787852,3959.96969657,482.181818134,4336.0303026,135.999999986,4631.72727226,230.787878765,4260.30302988,3593.69696934,4365.90909047,3008.48484818,5040.24242374,3049.69696939,4215.48484806,156.60606059,4465.8484844,3676.12121175,4196.424242,2806.54545426,4906.81818133,3181.57575726,4496.75757531,3952.24242385,42.0,42.0,?
2017-07-31 19:11:10.306012,4579.18181772,3062.06060575,4152.63636322,2695.272727,3882.18181779,267.878787852,3954.30302991,482.181818134,4347.36363593,135.999999986,4642.54545408,230.787878765,4271.63636321,3593.69696934,4367.45454502,3008.48484818,5021.69696919,3049.69696939,4208.78787837,156.60606059,4467.39393895,3676.12121175,4195.39393897,2806.54545426,4904.75757527,3181.57575726,4503.454545,3952.24242385,42.0,42.0,?
2017-07-31 19:11:10.314576,4584.33333287,3062.06060575,4167.06060564,2695.272727,3880.63636325,267.878787852,3941.42424203,482.181818134,4335.51515108,135.999999986,4629.6666662,230.787878765,4262.87878745,3593.69696934,4370.03030259,3008.48484818,5012.42424192,3049.69696939,4209.30302988,156.60606059,4468.42424198,3676.12121175,4193.84848443,2806.54545426,4908.36363587,3181.57575726,4501.90909046,3952.24242385,42.0,42.0,?
2017-07-31 19:11:10.321818,4584.33333287,3062.06060575,4156.24242383,2695.272727,3888.87878749,267.878787852,3950.6969693,482.181818134,4328.81818139,135.999999986,4630.69696923,230.787878765,4268.54545412,3593.69696934,4379.81818138,3008.48484818,5035.6060601,3049.69696939,4228.36363594,156.60606059,4477.18181773,3676.12121175,4198.99999958,2806.54545426,4916.60606011,3181.57575726,4508.09090864,3952.24242385,42.0,42.0,?
2017-07-31 19:11:10.332737,4596.69696924,3062.06060575,4164.99999958,2695.272727,3890.93939355,267.878787852,3966.66666627,482.181818134,4348.90909047,135.999999986,4646.15151469,230.787878765,4286.06060563,3593.69696934,4391.15151471,3008.48484818,5058.27272677,3049.69696939,4234.54545412,156.60606059,4492.63636319,3676.12121175,4198.99999958,2806.54545426,4927.93939345,3181.57575726,4518.39393894,3952.24242385,42.0,42.0,?
2017-07-31 19:11:10.338645,4606.99999954,3062.06060575,4171.69696928,2695.272727,3897.12121173,267.878787852,3978.51515112,482.181818134,4353.03030259,135.999999986,4642.03030257,230.787878765,4287.60606018,3593.69696934,4396.30302986,3008.48484818,5064.45454495,3049.69696939,4236.09090867,156.60606059,4498.81818137,3676.12121175,4196.424242,2806.54545426,4931.03030254,3181.57575726,4524.06060561,3952.24242385,42.0,42.0,?
2017-07-31 19:11:10.344320,4600.30302984,3062.06060575,4164.48484807,2695.272727,3901.24242385,267.878787852,3970.78787839,482.181818134,4332.93939351,135.999999986,4628.63636317,230.787878765,4277.81818139,3593.69696934,4390.12121168,3008.48484818,5051.06060556,3049.69696939,4241.24242382,156.60606059,4489.5454541,3676.12121175,4198.99999958,2806.54545426,4920.21212072,3181.57575726,4520.96969652,3952.24242385,42.0,42.0,?
2017-07-31 19:11:10.353775,4596.69696924,3062.06060575,4169.1212117,2695.272727,3891.45454507,267.878787852,3951.72727233,482.181818134,4334.48484805,135.999999986,4625.54545408,230.787878765,4268.0303026,3593.69696934,4377.75757532,3008.48484818,5037.15151465,3049.69696939,4239.18181776,156.60606059,4485.42424198,3676.12121175,4198.99999958,2806.54545426,4914.03030254,3181.57575726,4514.78787834,3952.24242385,42.0,42.0,?
2017-07-31 19:11:10.360500,4589.99999954,3062.06060575,4157.78787837,2695.272727,3884.75757537,267.878787852,3935.75757536,482.181818134,4344.27272684,135.999999986,4628.63636317,230.787878765,4264.424242,3593.69696934,4373.6363632,3008.48484818,5036.63636313,3049.69696939,4232.99999958,156.60606059,4488.51515107,3676.12121175,4193.33333291,2806.54545426,4921.75757527,3181.57575726,4512.72727228,3952.24242385,42.0,42.0,?
2017-07-31 19:11:10.369429,4592.57575712,3062.06060575,4161.39393898,2695.272727,3885.7878784,267.878787852,3938.84848445,482.181818134,4330.36363593,135.999999986,4630.69696923,230.787878765,4256.69696927,3593.69696934,4362.81818138,3008.48484818,5025.81818132,3049.69696939,4218.57575715,156.60606059,4480.78787834,3676.12121175,4191.78787837,2806.54545426,4921.24242375,3181.57575726,4507.57575713,3952.24242385,42.0,42.0,?
2017-07-31 19:11:10.379642,4586.90909045,3062.06060575,4163.96969655,2695.272727,3888.87878749,267.878787852,3969.75757536,482.181818134,4326.24242381,135.999999986,4627.09090863,230.787878765,4251.03030261,3593.69696934,4358.18181775,3008.48484818,5017.57575707,3049.69696939,4212.39393897,156.60606059,4465.8484844,3676.12121175,4195.39393897,2806.54545426,4900.63636315,3181.57575726,4500.36363591,3952.24242385,42.0,42.0,?
