Timestamp,F3 Value,F3 Quality,FC5 Value,FC5 Quality,F7 Value,F7 Quality,T7 Value,T7 Quality,P7 Value,P7 Quality,O1 Value,O1 Quality,O2 Value,O2 Quality,P8 Value,P8 Quality,T8 Value,T8 Quality,F8 Value,F8 Quality,AF4 Value,AF4 Quality,FC6 Value,FC6 Quality,F4 Value,F4 Quality,AF3 Value,AF3 Quality,X Value,Y Value,Z Value
2017-08-01 19:56:14.844243,3038.36363606,0,3405.15151481,0,2690.63636337,0,2575.24242398,0,2892.06060577,0,3057.42424212,0,2790.5757573,0,2797.78787851,0,3566.90909055,0,2820.96969669,0,3160.96969665,0,2758.12121185,0,3573.09090873,0,2838.99999972,0,42.0,42.0,?
2017-08-01 19:56:14.844408,3719.39393902,0,3625.12121176,0,3238.75757543,0,3120.78787848,0,3472.12121177,0,3814.69696932,0,3579.27272691,0,3484.99999965,0,4176.33333292,0,3370.12121178,0,3736.90909054,0,3374.24242391,0,4158.8181814,0,3785.84848447,0,42.0,42.0,?
2017-08-01 19:56:14.844458,3620.48484812,0,3575.66666631,0,3238.75757543,0,3120.78787848,0,3385.06060572,0,3640.57575721,0,3411.84848451,0,3484.99999965,0,4176.33333292,0,3370.12121178,0,3736.90909054,0,3268.12121179,0,4158.8181814,0,3572.0606057,0,42.0,42.0,?
2017-08-01 19:56:14.846979,3760.09090871,0,3710.12121175,0,3311.90909058,0,3198.06060574,0,3553.51515116,0,3558.66666631,0,3471.60606026,0,3511.27272692,0,4192.30302988,0,3413.39393905,0,3799.24242386,0,3414.9393936,0,4207.24242382,0,3464.90909056,0,42.0,42.0,?
2017-08-01 19:56:14.849039,3760.09090871,0,3710.12121175,0,3311.90909058,0,3198.06060574,0,3553.51515116,0,3721.9696966,0,3471.60606026,0,3511.27272692,0,4192.30302988,0,3413.39393905,0,3799.24242386,0,3414.9393936,0,4207.24242382,0,3626.6666663,0,42.0,42.0,?
2017-08-01 19:56:14.851721,4357.66666623,3465.93939359,4075.36363596,0,3701.87878751,0,3601.93939358,0,4126.87878747,0,4134.09090868,0,3846.12121174,0,3930.60606021,0,4853.24242376,0,3846.63636325,0,4101.63636323,0,4023.84848445,0,4479.75757531,0,4055.27272687,0,42.0,42.0,?
2017-08-01 19:56:14.855148,4159.84848443,3465.93939359,3887.33333294,2254.30303008,3701.87878751,0,3742.06060569,0,3907.42424203,0,4285.54545412,0,4011.48484808,0,4142.84848443,0,4853.24242376,0,4025.39393899,0,4213.93939352,0,3860.03030264,0,4596.18181772,0,4245.36363594,0,42.0,42.0,?
2017-08-01 19:56:14.858484,3918.75757537,3465.93939359,3887.33333294,2254.30303008,3534.96969662,0,3526.72727237,0,3686.42424206,0,4068.15151474,0,3828.60606022,0,3950.18181779,0,4640.48484802,0,3823.96969659,0,4049.09090869,0,3629.75757539,0,4453.99999955,0,4040.84848444,3795.63636326,42.0,42.0,?
2017-08-01 19:56:14.863327,3653.9696966,3465.93939359,3712.18181781,2254.30303008,3369.60606027,2509.81818157,3321.18181785,0,3429.87878754,0,3847.66666628,0,3614.30302994,0,3707.54545417,0,4383.9393935,0,3599.87878752,0,3873.42424204,0,3327.36363603,0,4295.84848442,0,3803.8787875,3795.63636326,42.0,42.0,?
2017-08-01 19:56:14.866019,3302.12121179,3465.93939359,3535.99999965,2254.30303008,3182.60606029,2509.81818157,3078.03030272,173.090909074,3078.54545424,0,3596.78787843,0,3374.75757542,0,3444.81818147,0,4120.18181777,0,3321.69696936,0,3673.03030266,0,2962.12121183,0,4113.99999959,0,3534.96969662,3795.63636326,42.0,42.0,?
2017-08-01 19:56:14.869756,3228.45454513,3465.93939359,3322.72727239,2254.30303008,2943.57575728,2509.81818157,2735.45454518,173.090909074,3019.30303,111.272727262,3253.18181786,0,3051.75757545,0,3073.39393909,0,3743.09090872,0,2943.57575728,0,3413.90909057,0,2962.12121183,0,3872.90909052,0,3153.75757544,3795.63636326,42.0,42.0,?
2017-08-01 19:56:14.872776,3228.45454513,3465.93939359,3335.09090876,2254.30303008,2929.66666637,2509.81818157,2683.42424216,173.090909074,3019.30303,111.272727262,3198.06060574,164.848484832,2988.90909061,0,2972.42424213,0,3645.21212085,0,2878.66666638,0,3397.42424208,0,2912.15151486,0,3853.33333295,0,3063.09090878,3795.63636326,42.0,42.0,?
2017-08-01 19:56:14.876089,3278.4242421,3465.93939359,3398.45454511,2254.30303008,2970.36363607,2509.81818157,2727.72727245,173.090909074,3064.63636333,111.272727262,3243.39393907,164.848484832,3036.30303,2950.78787849,3030.63636333,0,3713.72727236,0,2934.81818152,0,3445.33333299,0,2962.63636334,0,3891.45454507,0,3110.99999969,3795.63636326,42.0,42.0,?
2017-08-01 19:56:14.879458,3041.45454515,3465.93939359,3239.78787846,2254.30303008,2785.42424215,2509.81818157,2481.99999975,173.090909074,2816.84848457,111.272727262,2998.18181788,164.848484832,2815.30303002,2950.78787849,2794.69696942,2967.27272698,3476.24242389,0,2676.72727246,0,3253.69696937,0,2688.57575731,0,3719.39393902,0,2848.7878785,3795.63636326,42.0,42.0,?
2017-08-01 19:56:14.882757,2866.30303002,3465.93939359,3163.54545423,2254.30303008,2684.45454519,2509.81818157,2334.66666643,173.090909074,2650.9696967,111.272727262,2843.63636335,164.848484832,2657.15151489,2950.78787849,2584.51515126,2967.27272698,3255.24242392,3099.15151484,2493.8484846,0,3143.96969666,0,2504.66666642,0,3618.93939358,0,2651.99999973,3795.63636326,42.0,42.0,?
2017-08-01 19:56:14.887681,3013.12121182,3465.93939359,3313.45454512,2254.30303008,2815.30303002,2509.81818157,2498.99999975,173.090909074,2802.93939366,111.272727262,3005.39393909,164.848484832,2796.75757548,2950.78787849,2717.42424215,2967.27272698,3386.60606027,3099.15151484,2651.48484822,4195.39393897,3277.39393907,0,2687.03030276,0,3735.36363599,0,2808.60606033,3795.63636326,42.0,42.0,?
2017-08-01 19:56:14.893833,3048.15151485,3465.93939359,3339.72727239,2254.30303008,2825.60606032,2509.81818157,2530.93939369,173.090909074,2842.09090881,111.272727262,3036.81818151,164.848484832,2832.81818153,2950.78787849,2778.21212093,2967.27272698,3463.36363602,3099.15151484,2687.03030276,4195.39393897,3296.45454512,2501.57575733,2726.69696942,0,3761.12121175,0,2849.81818153,3795.63636326,42.0,42.0,?
2017-08-01 19:56:14.903283,2829.72727244,3465.93939359,3187.24242392,2254.30303008,2658.18181792,2509.81818157,2324.36363613,173.090909074,2645.81818155,111.272727262,2827.15151487,164.848484832,2641.69696943,2950.78787849,2572.15151489,2967.27272698,3261.4242421,3099.15151484,2476.33333309,4195.39393897,3119.75757545,2501.57575733,2488.18181793,3544.24242389,3598.84848449,0,2629.84848459,3795.63636326,42.0,42.0,?
2017-08-01 19:56:14.909713,2764.30303003,3465.93939359,3168.18181787,2254.30303008,2624.69696943,2509.81818157,2266.15151492,173.090909074,2591.21212095,111.272727262,2769.96969669,164.848484832,2587.60606035,2950.78787849,2479.93939369,2967.27272698,3142.93939363,3099.15151484,2411.42424218,4195.39393897,3074.42424212,2501.57575733,2429.45454521,3544.24242389,3549.39393904,1207.51515139,2556.69696944,3795.63636326,42.0,42.0,?
2017-08-01 19:56:14.917873,2847.75757547,3465.93939359,3250.60606028,2254.30303008,2693.21212094,2509.81818157,2344.96969674,173.090909074,2668.99999973,111.272727262,2852.39393911,164.848484832,2660.75757549,2950.78787849,2543.81818156,2967.27272698,3194.96969665,3099.15151484,2475.30303006,4191.27272685,3148.09090878,2501.57575733,2518.57575732,3544.24242389,3614.81818146,1207.51515139,2616.45454519,3795.63636326,42.0,42.0,?
2017-08-01 19:56:14.926556,2959.03030273,3465.93939359,3345.90909057,2254.30303008,2779.24242396,2509.81818157,2462.42424218,173.090909074,2784.39393912,111.272727262,2971.3939391,164.848484832,2757.09090882,2950.78787849,2670.54545428,2967.27272698,3350.54545421,3099.15151484,2589.15151489,4191.27272685,3237.7272724,2489.21212096,2604.60606035,3544.24242389,3688.48484812,1207.51515139,2729.78787851,3795.63636326,42.0,42.0,?
2017-08-01 19:56:14.934479,3027.03030273,3465.93939359,3381.45454512,2254.30303008,2816.84848457,2509.81818157,2524.75757551,173.090909074,2846.21212093,111.272727262,3034.24242394,164.848484832,2818.90909063,2950.78787849,2770.99999972,2967.27272698,3467.48484814,3099.15151484,2670.03030276,4191.27272685,3281.51515119,2489.21212096,2663.33333307,3544.24242389,3731.75757538,1207.51515139,2825.60606032,3795.63636326,42.0,42.0,?
2017-08-01 19:56:14.943861,2736.99999973,3465.93939359,3147.06060575,2254.30303008,2583.99999974,2509.81818157,2232.66666644,173.090909074,2544.33333308,111.272727262,2733.90909064,164.848484832,2556.18181793,2950.78787849,2483.5454543,2967.27272698,3159.93939362,3099.15151484,2372.27272704,4191.27272685,3045.57575727,2489.21212096,2396.48484825,3544.24242389,3523.12121177,1207.51515139,2529.90909066,3795.63636326,42.0,42.0,?
2017-08-01 19:56:14.951402,2394.9393937,3465.93939359,2936.87878759,2254.30303008,2353.21212098,2509.81818157,1914.81818163,173.090909074,2211.03030281,111.272727262,2405.242424,164.848484832,2240.39393917,2950.78787849,2099.75757555,2967.27272698,2775.12121184,3099.15151484,2015.78787859,4191.27272685,2796.24242396,2489.21212096,2060.09090888,3544.24242389,3292.84848452,1207.51515139,2159.5151513,3795.63636326,42.0,42.0,?
2017-08-01 19:56:14.960992,2324.36363613,3465.93939359,2971.90909061,2254.30303008,2358.87878764,2509.81818157,1895.75757557,173.090909074,2150.24242403,111.272727262,2383.60606037,164.848484832,2211.54545432,2950.78787849,2050.3030301,2967.27272698,2740.09090882,3099.15151484,1974.57575738,4191.27272685,2795.72727245,2489.21212096,1970.45454526,3544.24242389,3295.42424209,1207.51515139,2123.45454524,3795.63636326,42.0,42.0,?
2017-08-01 19:56:14.965507,2324.36363613,3465.93939359,2962.63636334,2254.30303008,2333.6363634,2509.81818157,1858.15151497,173.090909074,2150.24242403,111.272727262,2346.51515128,164.848484832,2184.24242402,2950.78787849,2021.96969677,2967.27272698,2705.06060579,3099.15151484,1941.60606041,4191.27272685,2773.06060578,2489.21212096,1970.45454526,3544.24242389,3270.69696937,1207.51515139,2085.33333312,3795.63636326,42.0,42.0,?
2017-08-01 19:56:14.974193,2432.03030279,3465.93939359,3087.81818151,2254.30303008,2425.84848461,2509.81818157,1980.75757556,173.090909074,2283.15151492,111.272727262,2470.66666642,164.848484832,2296.54545432,2950.78787849,2126.03030282,2967.27272698,2808.60606033,3099.15151484,2087.9090907,4191.27272685,2879.18181789,2489.21212096,2106.45454524,3544.24242389,3361.36363603,1207.51515139,2191.45454524,3795.63636326,42.0,42.0,?
2017-08-01 19:56:14.981316,2432.03030279,3465.93939359,3087.81818151,2254.30303008,2425.84848461,2509.81818157,1980.75757556,173.090909074,2283.15151492,111.272727262,2470.66666642,164.848484832,2296.54545432,2950.78787849,2126.03030282,2967.27272698,2808.60606033,3099.15151484,2087.9090907,4191.27272685,2879.18181789,2489.21212096,2106.45454524,3544.24242389,3361.36363603,1207.51515139,2191.45454524,3795.63636326,42.0,42.0,?
2017-08-01 19:56:14.988315,2302.21212098,3465.93939359,2980.15151485,2254.30303008,2311.48484825,2509.81818157,1835.4848483,173.090909074,2136.33333312,111.272727262,2325.39393916,164.848484832,2174.45454524,2950.78787849,2010.12121192,2967.27272698,2678.272727,3099.15151484,1951.3939392,4191.27272685,2759.66666639,2489.21212096,1986.42424223,3544.24242389,3261.4242421,1207.51515139,2066.27272707,3795.63636326,42.0,42.0,?
2017-08-01 19:56:14.995595,1997.75757556,3465.93939359,2776.15151487,2254.30303008,2098.72727252,2509.81818157,1545.4545453,173.090909074,1822.60606042,111.272727262,2030.21212101,164.848484832,1889.06060587,2950.78787849,1684.54545438,2967.27272698,2351.66666643,3099.15151484,1627.3636362,4191.27272685,2532.48484823,2489.21212096,1670.63636347,3544.24242389,3052.78787848,1207.51515139,1744.81818164,3795.63636326,42.0,42.0,?
2017-08-01 19:56:15.004388,1910.18181799,3465.93939359,2756.5757573,2254.30303008,2055.96969676,2509.81818157,1489.81818167,173.090909074,1753.5757574,111.272727262,1966.84848465,164.848484832,1812.30303012,2950.78787849,1587.18181802,2967.27272698,2288.30303007,3099.15151484,1524.33333318,4191.27272685,2476.33333309,2489.21212096,1566.0606059,3544.24242389,2981.6969694,1207.51515139,1644.3636362,3795.63636326,42.0,42.0,?
2017-08-01 19:56:15.012011,1834.96969679,3465.93939359,2727.21212094,2254.30303008,2002.39393919,2509.81818157,1433.15151501,173.090909074,1701.03030286,111.272727262,1904.51515132,164.848484832,1756.15151498,2950.78787849,1537.21212106,2967.27272698,2248.1212119,3099.15151484,1449.12121198,4191.27272685,2420.69696945,2489.21212096,1475.90909076,3544.24242389,2927.60606031,1207.51515139,1566.0606059,3795.63636326,42.0,42.0,?
2017-08-01 19:56:15.023665,1726.78787862,3465.93939359,2678.78787852,2254.30303008,1933.36363617,2509.81818157,1327.54545441,173.090909074,1596.96969681,111.272727262,1797.8787877,164.848484832,1657.24242408,2950.78787849,1410.48484834,2967.27272698,2094.09090888,3099.15151484,1364.12121198,4191.27272685,2353.21212098,2489.21212096,1380.09090895,3544.24242389,2867.33333305,1207.51515139,1449.63636349,3795.63636326,42.0,42.0,?
2017-08-01 19:56:15.029722,1788.60606043,3465.93939359,2750.90909063,2254.30303008,1986.93939374,2509.81818157,1380.09090895,173.090909074,1647.45454529,111.272727262,1852.4848483,164.848484832,1704.63636347,2950.78787849,1435.72727258,2967.27272698,2112.12121191,3099.15151484,1434.69696955,4191.27272685,2407.30303006,2489.21212096,1474.36363622,3544.24242389,2909.06060577,1207.51515139,1505.78787864,3795.63636326,42.0,42.0,?
2017-08-01 19:56:15.037076,1784.48484831,3465.93939359,2751.93939366,2254.30303008,1971.9999998,2509.81818157,1373.39393926,173.090909074,1644.87878771,111.272727262,1844.24242406,164.848484832,1703.09090892,2950.78787849,1449.63636349,2967.27272698,2148.18181797,3099.15151484,1408.42424228,4191.27272685,2396.48484825,2489.21212096,1461.48484834,3544.24242389,2899.7878785,1207.51515139,1502.18181803,3795.63636326,42.0,42.0,?
2017-08-01 19:56:15.043662,1679.39393923,3465.93939359,2684.9696967,2254.30303008,1894.21212102,2509.81818157,1278.09090896,173.090909074,1545.96969682,111.272727262,1746.36363619,164.848484832,1614.48484832,2950.78787849,1365.15151502,2967.27272698,2071.93939373,3099.15151484,1294.06060593,4191.27272685,2309.42424219,2489.21212096,1312.60606047,3544.24242389,2812.21212093,1207.51515139,1396.06060592,3795.63636326,42.0,42.0,?
2017-08-01 19:56:15.053357,1695.36363619,3465.93939359,2714.84848458,2254.30303008,1912.24242405,2509.81818157,1295.60606048,173.090909074,1550.60606045,111.272727262,1764.90909073,164.848484832,1626.33333317,2950.78787849,1363.09090895,2967.27272698,2060.09090888,3099.15151484,1313.12121199,4191.27272685,2322.81818159,2489.21212096,1330.6363635,3544.24242389,2823.54545426,1207.51515139,1416.66666652,3795.63636326,42.0,42.0,?
2017-08-01 19:56:15.060287,1703.09090892,3465.93939359,2727.72727245,2254.30303008,1911.21212102,2509.81818157,1307.45454532,173.090909074,1561.42424227,111.272727262,1778.81818164,164.848484832,1634.57575741,2950.78787849,1359.99999986,2967.27272698,2050.81818161,3099.15151484,1322.90909078,4191.27272685,2331.57575734,2489.21212096,1364.12121198,3544.24242389,2838.99999972,1207.51515139,1434.18181804,3795.63636326,42.0,42.0,?
2017-08-01 19:56:15.068194,1656.21212105,3465.93939359,2701.45454518,2254.30303008,1876.69696951,2509.81818157,1282.7272726,173.090909074,1546.99999985,111.272727262,1751.51515134,164.848484832,1602.63636348,2950.78787849,1324.96969684,2967.27272698,2015.78787859,3099.15151484,1289.93939381,4191.27272685,2293.45454523,2489.21212096,1313.6363635,3544.24242389,2797.27272699,1207.51515139,1393.99999986,3795.63636326,42.0,42.0,?
2017-08-01 19:56:15.074057,1696.90909074,3465.93939359,2745.75757548,2254.30303008,1913.7878786,2509.81818157,1324.45454532,173.090909074,1597.48484833,111.272727262,1795.81818164,164.848484832,1638.69696953,2950.78787849,1365.15151502,2967.27272698,2054.42424222,3099.15151484,1348.15151502,4191.27272685,2330.0303028,2489.21212096,1358.96969683,3544.24242389,2824.06060578,1207.51515139,1430.57575743,3795.63636326,42.0,42.0,?
2017-08-01 19:56:15.081611,1792.72727255,3465.93939359,2815.30303002,2254.30303008,1976.63636344,2509.81818157,1398.12121198,173.090909074,1672.18181801,111.272727262,1874.63636345,164.848484832,1715.9696968,2950.78787849,1451.69696955,2967.27272698,2148.69696948,3099.15151484,1433.15151501,4191.27272685,2405.242424,2489.21212096,1475.90909076,3544.24242389,2891.54545426,1207.51515139,1511.96969682,3795.63636326,42.0,42.0,?
2017-08-01 19:56:15.093095,1913.27272708,3465.93939359,2891.54545426,2254.30303008,2053.9090907,2509.81818157,1511.4545453,173.090909074,1782.93939376,111.272727262,1985.3939392,164.848484832,1818.99999982,2950.78787849,1579.4545453,2967.27272698,2294.99999977,3099.15151484,1540.30303015,4191.27272685,2484.57575733,2489.21212096,1581.51515136,3544.24242389,2967.78787849,1207.51515139,1635.60606044,3795.63636326,42.0,42.0,?
2017-08-01 19:56:15.097758,2017.84848465,3465.93939359,2949.75757546,2254.30303008,2118.30303009,2509.81818157,1618.60606044,173.090909074,1887.51515133,111.272727262,2084.30303009,164.848484832,1909.66666648,2950.78787849,1701.54545438,2967.27272698,2417.60606036,3099.15151484,1651.0606059,4191.27272685,2547.42424217,2489.21212096,1656.72727256,3544.24242389,3028.57575727,1207.51515139,1757.69696952,3795.63636326,42.0,42.0,?
2017-08-01 19:56:15.105775,1856.09090891,3465.93939359,2803.96969669,2254.30303008,1979.72727253,2509.81818157,1455.30303016,173.090909074,1722.15151498,111.272727262,1917.90909072,164.848484832,1761.30303013,2950.78787849,1543.90909075,2967.27272698,2248.1212119,3099.15151484,1472.30303016,4191.27272685,2403.69696946,2489.21212096,1500.12121197,3544.24242389,2892.57575729,1207.51515139,1591.81818166,3795.63636326,42.0,42.0,?
2017-08-01 19:56:15.113335,1648.99999984,3465.93939359,2659.72727246,2254.30303008,1837.03030285,2509.81818157,1252.33333321,173.090909074,1515.57575742,111.272727262,1719.06060589,164.848484832,1572.24242409,2950.78787849,1314.15151502,2967.27272698,2020.42424222,3099.15151484,1252.84848472,4191.27272685,2247.60606038,2489.21212096,1301.27272714,3544.24242389,2748.84848457,1207.51515139,1368.75757562,3795.63636326,42.0,42.0,?
2017-08-01 19:56:15.121823,1820.54545436,3465.93939359,2817.8787876,2254.30303008,1987.96969677,2509.81818157,1429.03030289,173.090909074,1692.78787862,111.272727262,1897.81818163,164.848484832,1732.45454528,2950.78787849,1482.09090894,2967.27272698,2198.66666645,3099.15151484,1460.45454531,4191.27272685,2395.45454522,2489.21212096,1480.03030288,3544.24242389,2881.24242395,1207.51515139,1561.42424227,3795.63636326,42.0,42.0,?
2017-08-01 19:56:15.129254,1978.6969695,3465.93939359,2923.48484819,2254.30303008,2090.48484828,2509.81818157,1573.78787863,173.090909074,1847.84848466,111.272727262,2044.12121192,164.848484832,1882.87878769,2950.78787849,1672.69696953,2967.27272698,2382.57575734,3099.15151484,1637.6666665,4191.27272685,2506.21212096,2489.21212096,1653.12121196,3544.24242389,2986.33333303,1207.51515139,1746.36363619,3795.63636326,42.0,42.0,?
2017-08-01 19:56:15.138763,1782.93939376,3465.93939359,2752.45454518,2254.30303008,1925.63636344,2509.81818157,1376.48484835,173.090909074,1648.48484832,111.272727262,1844.75757557,164.848484832,1702.06060589,2950.78787849,1479.51515137,2967.27272698,2178.57575736,3099.15151484,1411.51515137,4191.27272685,2342.90909067,2489.21212096,1441.39393925,3544.24242389,2845.69696941,1207.51515139,1537.21212106,3795.63636326,42.0,42.0,?
2017-08-01 19:56:15.144602,1647.9696968,3465.93939359,2670.54545428,2254.30303008,1839.60606042,2509.81818157,1268.30303018,173.090909074,1531.54545439,111.272727262,1729.36363619,164.848484832,1578.42424227,2950.78787849,1324.45454532,2967.27272698,2029.18181798,3099.15151484,1271.90909078,4191.27272685,2250.18181796,2489.21212096,1291.48484836,3544.24242389,2749.8787876,1207.51515139,1395.03030289,3795.63636326,42.0,42.0,?
2017-08-01 19:56:15.154629,1662.90909074,3465.93939359,2701.45454518,2254.30303008,1855.06060588,2509.81818157,1290.96969684,173.090909074,1552.66666651,111.272727262,1745.33333316,164.848484832,1589.7575756,2950.78787849,1332.69696956,2967.27272698,2039.9999998,3099.15151484,1302.30303017,4191.27272685,2269.75757553,2489.21212096,1339.39393926,3544.24242389,2767.39393912,1207.51515139,1412.03030289,3795.63636326,42.0,42.0,?
2017-08-01 19:56:15.159611,1591.30303014,3465.93939359,2653.54545428,2254.30303008,1799.42424224,2509.81818157,1213.18181806,173.090909074,1475.90909076,111.272727262,1669.09090892,164.848484832,1518.151515,2950.78787849,1253.87878775,2967.27272698,1948.30303011,3099.15151484,1227.60606048,4191.27272685,2211.54545432,2489.21212096,1289.4242423,3544.24242389,2716.39393912,1207.51515139,1328.57575744,3795.63636326,42.0,42.0,?
2017-08-01 19:56:15.167682,1698.9696968,3465.93939359,2748.33333306,2254.30303008,1892.15151496,2509.81818157,1328.57575744,173.090909074,1590.27272711,111.272727262,1791.181818,164.848484832,1621.69696953,2950.78787849,1361.03030289,2967.27272698,2063.69696949,3099.15151484,1342.99999987,4191.27272685,2296.54545432,2489.21212096,1359.99999986,3544.24242389,2777.1818179,1207.51515139,1448.60606046,3795.63636326,42.0,42.0,?
2017-08-01 19:56:15.176427,1890.60606042,3465.93939359,2876.60606032,2254.30303008,2017.33333313,2509.81818157,1510.93939379,173.090909074,1771.09090891,111.272727262,1971.9999998,164.848484832,1806.63636346,2950.78787849,1591.81818166,2967.27272698,2323.84848462,3099.15151484,1530.51515136,4191.27272685,2433.06060582,2489.21212096,1520.72727258,3544.24242389,2902.36363607,1207.51515139,1662.90909074,3795.63636326,42.0,42.0,?
2017-08-01 19:56:15.185127,1693.30303013,3465.93939359,2699.90909064,2254.30303008,1840.63636345,2509.81818157,1292.51515139,173.090909074,1554.72727257,111.272727262,1748.42424225,164.848484832,1623.7575756,2950.78787849,1416.66666652,2967.27272698,2150.75757554,3099.15151484,1312.60606047,4191.27272685,2254.81818159,2489.21212096,1333.21212108,3544.24242389,2750.90909063,1207.51515139,1442.42424228,3795.63636326,42.0,42.0,?
2017-08-01 19:56:15.194571,1455.30303016,3465.93939359,2542.78787853,2254.30303008,1683.51515135,2509.81818157,1068.93939383,173.090909074,1329.60606047,111.272727262,1519.69696955,164.848484832,1393.48484835,2950.78787849,1132.8181817,2967.27272698,1838.06060588,3099.15151484,1080.78787868,4191.27272685,2082.75757555,2489.21212096,1108.6060605,3544.24242389,2589.66666641,1207.51515139,1173.5151514,3795.63636326,42.0,42.0,?
2017-08-01 19:56:15.198635,1650.03030287,3465.93939359,2721.03030276,2254.30303008,1857.63636345,2509.81818157,1286.84848472,173.090909074,1546.99999985,111.272727262,1737.60606043,164.848484832,1568.12121196,2950.78787849,1297.15151502,2967.27272698,1995.6969695,3099.15151484,1293.0303029,4191.27272685,2259.45454523,2489.21212096,1304.87878775,3544.24242389,2736.99999973,1207.51515139,1393.48484835,3795.63636326,42.0,42.0,?
2017-08-01 19:56:15.211063,1862.7878786,3465.93939359,2857.03030274,2254.30303008,1991.06060586,2509.81818157,1478.48484834,173.090909074,1746.36363619,111.272727262,1934.90909072,164.848484832,1759.75757558,2950.78787849,1536.18181803,2967.27272698,2244.51515129,3099.15151484,1503.72727258,4191.27272685,2409.36363612,2489.21212096,1524.8484847,3544.24242389,2871.45454517,1207.51515139,1634.57575741,3795.63636326,42.0,42.0,?
2017-08-01 19:56:15.216194,1714.93939377,3465.93939359,2717.42424215,2254.30303008,1849.90909072,2509.81818157,1305.90909078,173.090909074,1573.78787863,111.272727262,1761.30303013,164.848484832,1613.45454529,2950.78787849,1400.18181804,2967.27272698,2118.81818161,3099.15151484,1344.54545441,4191.27272685,2270.27272705,2489.21212096,1374.9393938,3544.24242389,2755.54545427,1207.51515139,1465.60606046,3795.63636326,42.0,42.0,?
2017-08-01 19:56:15.224330,1643.84848468,3465.93939359,2679.81818155,2254.30303008,1813.84848467,2509.81818157,1260.57575745,173.090909074,1521.75757561,111.272727262,1711.33333316,164.848484832,1555.7575756,2950.78787849,1324.96969684,2967.27272698,2054.93939373,3099.15151484,1281.18181805,4191.27272685,2214.1212119,2489.21212096,1278.60606048,3544.24242389,2698.36363609,1207.51515139,1387.30303016,3795.63636326,42.0,42.0,?
2017-08-01 19:56:15.231913,1943.66666647,3465.93939359,2913.69696941,2254.30303008,2056.48484828,2509.81818157,1585.12121196,173.090909074,1856.60606042,111.272727262,2043.09090889,164.848484832,1848.36363618,2950.78787849,1635.09090893,2967.27272698,2358.36363613,3099.15151484,1607.78787863,4191.27272685,2456.242424,2489.21212096,1586.66666651,3544.24242389,2914.72727244,1207.51515139,1719.5757574,3795.63636326,42.0,42.0,?
2017-08-01 19:56:15.241170,2243.99999978,3465.93939359,3101.2121209,2254.30303008,2252.75757553,2509.81818157,1858.66666648,173.090909074,2144.57575736,111.272727262,2329.51515128,164.848484832,2122.42424221,2950.78787849,1949.84848465,2967.27272698,2657.6666664,3099.15151484,1914.81818163,4191.27272685,2678.272727,2489.21212096,1928.21212102,3544.24242389,3125.93939363,1207.51515139,2035.36363616,3795.63636326,42.0,42.0,?
2017-08-01 19:56:15.246696,2182.18181796,3465.93939359,3002.81818152,2254.30303008,2165.69696948,2509.81818157,1770.5757574,173.090909074,2045.15151495,111.272727262,2239.87878765,164.848484832,2056.48484828,2950.78787849,1908.63636345,2967.27272698,2619.54545428,3099.15151484,1827.75757557,4191.27272685,2597.90909065,2489.21212096,1866.90909072,3544.24242389,3058.45454515,1207.51515139,1960.15151496,3795.63636326,42.0,42.0,?
2017-08-01 19:56:15.257242,2054.93939373,3465.93939359,2894.63636335,2254.30303008,2070.39393919,2509.81818157,1642.30303014,173.090909074,1915.33333314,111.272727262,2110.57575736,164.848484832,1940.06060587,2950.78787849,1793.24242406,2967.27272698,2521.1515149,3099.15151484,1695.87878771,4191.27272685,2495.90909066,2489.21212096,1702.57575741,3544.24242389,2965.72727243,1207.51515139,1825.69696951,3795.63636326,42.0,42.0,?
2017-08-01 19:56:15.263698,2145.09090888,3465.93939359,2960.57575728,2254.30303008,2145.60606039,2509.81818157,1723.18181801,173.090909074,2018.36363616,111.272727262,2194.54545433,164.848484832,2022.48484828,2950.78787849,1876.69696951,2967.27272698,2598.42424216,3099.15151484,1810.24242406,4191.27272685,2570.60606035,2489.21212096,1797.8787877,3544.24242389,3029.6060603,1207.51515139,1929.24242405,3795.63636326,42.0,42.0,?
2017-08-01 19:56:15.270806,2088.93939373,3465.93939359,2896.18181789,2254.30303008,2085.33333312,2509.81818157,1657.75757559,173.090909074,1950.36363617,111.272727262,2122.93939373,164.848484832,1954.48484829,2950.78787849,1808.181818,2967.27272698,2512.90909066,3099.15151484,1748.42424225,4191.27272685,2512.39393914,2489.21212096,1771.60606043,3544.24242389,2978.60606031,1207.51515139,1881.84848466,3795.63636326,42.0,42.0,?
2017-08-01 19:56:15.281101,1858.15151497,3465.93939359,2730.81818155,2254.30303008,1917.3939392,2509.81818157,1451.18181804,173.090909074,1721.12121195,111.272727262,1905.03030284,164.848484832,1730.39393922,2950.78787849,1567.09090893,2967.27272698,2277.99999977,3099.15151484,1488.78787864,4191.27272685,2336.21212098,2489.21212096,1534.12121197,3544.24242389,2818.90909063,1207.51515139,1643.84848468,3795.63636326,42.0,42.0,?
2017-08-01 19:56:15.286800,1870.51515133,3465.93939359,2765.84848457,2254.30303008,1946.75757556,2509.81818157,1486.72727258,173.090909074,1759.24242407,111.272727262,1935.93939375,164.848484832,1752.54545437,2950.78787849,1584.09090893,2967.27272698,2308.39393916,3099.15151484,1509.39393924,4191.27272685,2362.48484825,2489.21212096,1534.12121197,3544.24242389,2830.75757547,1207.51515139,1638.69696953,3795.63636326,42.0,42.0,?
2017-08-01 19:56:15.300567,1955.51515132,3465.93939359,2824.06060578,2254.30303008,2002.90909071,2509.81818157,1559.36363621,173.090909074,1839.09090891,111.272727262,2009.09090889,164.848484832,1838.57575739,2950.78787849,1676.30303014,2967.27272698,2395.96969673,3099.15151484,1606.24242408,4191.27272685,2429.45454521,2489.21212096,1623.24242408,3544.24242389,2894.63636335,1207.51515139,1713.90909074,3795.63636326,42.0,42.0,?
2017-08-01 19:56:15.305678,1889.57575739,3465.93939359,2774.60606033,2254.30303008,1950.87878768,2509.81818157,1476.93939379,173.090909074,1757.69696952,111.272727262,1934.90909072,164.848484832,1772.12121194,2950.78787849,1598.51515136,2967.27272698,2307.36363613,3099.15151484,1527.93939379,4191.27272685,2373.81818158,2489.21212096,1578.42424227,3544.24242389,2847.75757547,1207.51515139,1666.51515135,3795.63636326,42.0,42.0,?
2017-08-01 19:56:15.308793,1999.81818162,4001.6969693,2877.63636335,2254.30303008,2050.3030301,2509.81818157,1590.27272711,173.090909074,1884.93939375,111.272727262,2060.09090888,164.848484832,1874.63636345,2950.78787849,1694.84848468,2967.27272698,2406.78787855,3099.15151484,1654.15151499,4191.27272685,2466.03030278,2489.21212096,1694.84848468,3544.24242389,2924.51515122,1207.51515139,1800.96969679,3795.63636326,42.0,42.0,?
2017-08-01 19:56:15.316701,2401.12121188,4001.6969693,3157.87878756,2472.72727248,2338.27272704,2509.81818157,1992.09090889,173.090909074,2298.09090886,111.272727262,2466.5454543,164.848484832,2251.7272725,2950.78787849,2112.12121191,2967.27272698,2831.7878785,3099.15151484,2082.75757555,4191.27272685,2777.1818179,2489.21212096,2065.75757555,3544.24242389,3205.78787847,1207.51515139,2202.27272705,3795.63636326,42.0,42.0,?
2017-08-01 19:56:15.329429,2553.09090884,4001.6969693,3199.09090877,2472.72727248,2402.15151491,2509.81818157,2128.60606039,173.090909074,2428.42424218,111.272727262,2596.3636361,164.848484832,2388.75757552,2950.78787849,2307.36363613,2967.27272698,3024.96969667,3099.15151484,2219.78787857,4191.27272685,2858.06060577,2489.21212096,2213.09090887,3544.24242389,3290.27272694,1207.51515139,2351.66666643,65.9393939328,42.0,42.0,?
2017-08-01 19:56:15.335796,2268.7272725,4001.6969693,2945.12121183,2472.72727248,2169.8181816,2855.99999971,1829.81818164,173.090909074,2126.03030282,111.272727262,2293.96969674,164.848484832,2114.69696949,2950.78787849,2035.87878768,2967.27272698,2751.42424215,3099.15151484,1906.57575739,4191.27272685,2608.72727247,2489.21212096,1946.75757556,3544.24242389,3077.51515121,1207.51515139,2068.84848464,65.9393939328,42.0,42.0,?
2017-08-01 19:56:15.339961,2037.93939374,4001.6969693,2794.1818179,2472.72727248,2022.48484828,2855.99999971,1607.27272711,589.333333274,1904.51515132,111.272727262,2074.51515131,164.848484832,1903.99999981,2950.78787849,1787.06060588,2967.27272698,2514.96969672,3099.15151484,1688.15151498,4191.27272685,2446.96969673,2489.21212096,1709.78787862,3544.24242389,2920.3939391,1207.51515139,1833.93939376,65.9393939328,42.0,42.0,?
2017-08-01 19:56:15.347641,2010.63636344,4001.6969693,2799.84848457,2472.72727248,2016.81818162,2855.99999971,1601.09090893,589.333333274,1885.45454527,482.181818134,2063.18181798,164.848484832,1891.63636345,2950.78787849,1757.18181801,2967.27272698,2490.75757551,3099.15151484,1673.21212104,4191.27272685,2442.33333309,2489.21212096,1672.69696953,3544.24242389,2906.48484819,1207.51515139,1803.03030285,65.9393939328,42.0,42.0,?
2017-08-01 19:56:15.357236,1902.96969678,4001.6969693,2725.15151488,2472.72727248,1932.84848466,2855.99999971,1508.87878773,589.333333274,1779.84848467,482.181818134,1962.21212102,482.181818134,1793.75757558,2950.78787849,1645.39393923,2967.27272698,2359.39393916,3099.15151484,1557.81818166,4191.27272685,2356.81818158,2489.21212096,1591.81818166,3544.24242389,2836.93939366,1207.51515139,1689.18181801,65.9393939328,42.0,42.0,?
2017-08-01 19:56:15.363578,1824.66666648,4001.6969693,2687.03030276,2472.72727248,1888.03030284,2855.99999971,1437.78787864,589.333333274,1713.39393922,482.181818134,1892.66666648,482.181818134,1714.93939377,3305.21212088,1542.36363621,2967.27272698,2251.7272725,3099.15151484,1493.42424227,4191.27272685,2301.18181795,2489.21212096,1533.09090894,3544.24242389,2778.72727245,1207.51515139,1599.54545439,65.9393939328,42.0,42.0,?
2017-08-01 19:56:15.370681,2049.27272707,4001.6969693,2875.57575729,2472.72727248,2068.84848464,2855.99999971,1652.60606044,589.333333274,1944.6969695,482.181818134,2116.75757555,482.181818134,1915.84848466,3305.21212088,1760.2727271,3301.09090876,2492.81818157,3099.15151484,1714.93939377,4191.27272685,2489.72727248,2489.21212096,1732.9696968,3544.24242389,2940.99999971,1207.51515139,1824.66666648,65.9393939328,42.0,42.0,?
2017-08-01 19:56:15.380731,2294.48484826,4001.6969693,3034.75757545,2472.72727248,2227.51515129,2855.99999971,1883.39393921,589.333333274,2184.24242402,482.181818134,2349.60606037,482.181818134,2141.48484827,3305.21212088,2033.3030301,3301.09090876,2765.33333306,3268.12121179,1940.57575738,4191.27272685,2670.03030276,2489.21212096,1959.12121193,3544.24242389,3112.03030272,1207.51515139,2092.03030282,65.9393939328,42.0,42.0,?
2017-08-01 19:56:15.387545,2229.06060584,4001.6969693,2947.18181789,2472.72727248,2149.72727251,2855.99999971,1817.45454527,589.333333274,2112.12121191,482.181818134,2277.99999977,482.181818134,2087.9090907,3305.21212088,1986.93939374,3301.09090876,2698.36363609,3268.12121179,1884.42424224,288.484848456,2594.30303004,2489.21212096,1906.57575739,3544.24242389,3047.63636333,1207.51515139,2043.6060604,65.9393939328,42.0,42.0,?
2017-08-01 19:56:15.394616,2115.72727252,4001.6969693,2858.06060577,2472.72727248,2070.9090907,2855.99999971,1710.30303013,589.333333274,1995.6969695,482.181818134,2167.75757554,482.181818134,1982.81818162,3305.21212088,1857.63636345,3301.09090876,2568.03030277,3268.12121179,1786.03030285,288.484848456,2506.72727248,2687.03030276,1809.72727255,3544.24242389,2967.78787849,1207.51515139,1914.81818163,65.9393939328,42.0,42.0,?
2017-08-01 19:56:15.404637,2345.48484825,4001.6969693,3039.39393909,2472.72727248,2264.09090886,2855.99999971,1946.24242405,589.333333274,2238.84848462,482.181818134,2408.33333309,482.181818134,2190.42424221,3305.21212088,2076.57575737,3301.09090876,2798.81818154,3268.12121179,2022.9999998,288.484848456,2693.72727246,2687.03030276,2041.03030283,3886.30302991,3131.09090878,1207.51515139,2143.03030282,65.9393939328,42.0,42.0,?
2017-08-01 19:56:15.413498,2906.48484819,4001.6969693,3428.33333299,2472.72727248,2665.39393913,2855.99999971,2487.66666642,589.333333274,2805.51515123,482.181818134,2964.6969694,482.181818134,2709.69696943,3305.21212088,2667.45454519,3301.09090876,3397.9393936,3268.12121179,2604.60606035,288.484848456,3119.75757545,2687.03030276,2583.99999974,3886.30302991,3513.33333298,1347.6363635,2740.60606033,65.9393939328,42.0,42.0,?
2017-08-01 19:56:15.418556,3194.45454514,4001.6969693,3553.51515116,2472.72727248,2812.72727245,2855.99999971,2731.33333306,589.333333274,3063.6060603,482.181818134,3213.51515119,482.181818134,2971.3939391,3305.21212088,3008.48484818,3301.09090876,3742.5757572,3268.12121179,2892.06060577,288.484848456,3294.39393906,2687.03030276,2862.1818179,3886.30302991,3682.81818145,1347.6363635,3055.87878757,65.9393939328,42.0,42.0,?
2017-08-01 19:56:15.427370,2848.7878785,4001.6969693,3219.18181786,2472.72727248,2514.4545452,2855.99999971,2373.30303007,589.333333274,2693.21212094,482.181818134,2847.24242396,482.181818134,2640.15151489,3305.21212088,2678.272727,3301.09090876,3402.06060572,3268.12121179,2506.72727248,288.484848456,2980.15151485,2699.39393912,2539.69696944,3886.30302991,3413.39393905,1347.6363635,2707.63636337,65.9393939328,42.0,42.0,?
2017-08-01 19:56:15.434752,2374.84848461,4001.6969693,2881.75757547,2472.72727248,2188.36363614,2855.99999971,1916.36363617,589.333333274,2223.90909069,482.181818134,2388.75757552,482.181818134,2198.15151493,3305.21212088,2161.06060584,3301.09090876,2869.90909062,3268.12121179,2028.15151495,288.484848456,2636.03030277,2699.39393912,2089.96969676,3878.06060567,3102.75757545,1347.6363635,2215.15151493,65.9393939328,42.0,42.0,?
2017-08-01 19:56:15.442408,2289.3333331,4001.6969693,2875.57575729,2472.72727248,2162.60606039,2855.99999971,1832.90909073,589.333333274,2145.09090888,482.181818134,2311.48484825,482.181818134,2118.30303009,3305.21212088,2028.15151495,3301.09090876,2740.09090882,3268.12121179,1972.51515132,288.484848456,2612.33333307,2699.39393912,2003.42424222,3878.06060567,3062.57575727,1347.6363635,2104.9090907,65.9393939328,42.0,42.0,?
2017-08-01 19:56:15.450017,2433.57575733,4001.6969693,3002.30303,2472.72727248,2277.99999977,2855.99999971,1987.45454526,589.333333274,2296.54545432,482.181818134,2462.93939369,482.181818134,2257.39393917,3305.21212088,2177.54545433,3301.09090876,2901.84848456,3268.12121179,2110.06060585,288.484848456,2730.81818155,2699.39393912,2137.87878766,3878.06060567,3164.06060574,1347.6363635,2245.54545432,65.9393939328,42.0,42.0,?
2017-08-01 19:56:15.459251,2451.60606036,4001.6969693,3000.24242394,2472.72727248,2279.0303028,2855.99999971,2030.72727252,589.333333274,2329.51515128,482.181818134,2491.27272702,482.181818134,2287.78787856,3305.21212088,2235.24242402,3301.09090876,2967.78787849,3268.12121179,2106.45454524,288.484848456,2732.87878761,2699.39393912,2140.96969676,3878.06060567,3173.33333302,1347.6363635,2278.51515129,65.9393939328,42.0,42.0,?
2017-08-01 19:56:15.465760,2301.69696947,4001.6969693,2883.30303001,2472.72727248,2161.06060584,2855.99999971,1876.69696951,589.333333274,2175.48484827,482.181818134,2334.66666643,482.181818134,2149.212121,3305.21212088,2095.63636343,3301.09090876,2825.60606032,3268.12121179,1963.75757556,288.484848456,2603.57575732,2699.39393912,1983.33333313,3878.06060567,3054.84848454,1347.6363635,2130.66666645,65.9393939328,42.0,42.0,?
2017-08-01 19:56:15.477434,2312.51515128,4001.6969693,2919.36363607,2472.72727248,2189.39393918,2855.99999971,1874.12121193,589.333333274,2174.96969675,482.181818134,2344.45454522,482.181818134,2153.33333312,3305.21212088,2078.12121191,3301.09090876,2803.45454517,3268.12121179,1983.33333313,288.484848456,2625.72727246,2699.39393912,1994.66666647,3878.06060567,3073.39393909,1347.6363635,2131.69696948,65.9393939328,42.0,42.0,?
2017-08-01 19:56:15.486358,2659.72727246,4001.6969693,3186.72727241,2472.72727248,2452.12121188,2855.99999971,2219.78787857,589.333333274,2530.93939369,482.181818134,2698.87878761,482.181818134,2475.81818157,3305.21212088,2421.72727249,3301.09090876,3152.2121209,3268.12121179,2325.90909068,288.484848456,2911.12121183,2699.39393912,2343.9393937,3878.06060567,3331.48484815,1347.6363635,2482.51515127,65.9393939328,42.0,42.0,?
2017-08-01 19:56:15.492761,2948.72727243,4001.6969693,3342.81818148,2472.72727248,2625.72727246,2855.99999971,2489.21212096,589.333333274,2817.36363608,482.181818134,2966.24242395,482.181818134,2739.5757573,3305.21212088,2745.24242397,3301.09090876,3476.24242389,3268.12121179,2626.24242398,288.484848456,3114.09090878,2699.39393912,2643.75757549,3878.06060567,3526.21212086,1347.6363635,2792.12121184,65.9393939328,42.0,42.0,?
2017-08-01 19:56:15.497044,2592.24242398,4001.6969693,3022.39393909,2472.72727248,2342.39393916,2855.99999971,2325.39393916,589.333333274,2441.81818157,482.181818134,2798.30303002,482.181818134,2593.27272701,3305.21212088,2610.27272701,3301.09090876,3080.09090878,3268.12121179,2251.21212099,288.484848456,2971.90909061,2699.39393912,2304.27272704,3878.06060567,3407.72727239,1347.6363635,2652.51515125,65.9393939328,42.0,42.0,?
2017-08-01 19:56:15.503591,2592.24242398,4001.6969693,3022.39393909,2472.72727248,2342.39393916,2855.99999971,2129.12121191,589.333333274,2441.81818157,482.181818134,2599.96969671,482.181818134,2393.39393915,3305.21212088,2372.27272704,3301.09090876,3080.09090878,3268.12121179,2251.21212099,288.484848456,2809.12121184,2699.39393912,2304.27272704,3878.06060567,3250.60606028,1347.6363635,2430.48484824,65.9393939328,42.0,42.0,?
2017-08-01 19:56:15.512569,2650.45454519,4001.6969693,3085.24242393,2472.72727248,2394.9393937,2855.99999971,2182.69696948,589.333333274,2491.78787854,482.181818134,2654.57575731,482.181818134,2441.30303006,3305.21212088,2415.5454543,3301.09090876,3143.96969666,3268.12121179,2313.0303028,288.484848456,2861.15151487,2699.39393912,2345.48484825,3878.06060567,3294.39393906,1347.6363635,2478.90909066,65.9393939328,42.0,42.0,?
2017-08-01 19:56:15.520238,2628.81818156,4001.6969693,3053.30303,2472.72727248,2360.42424219,2855.99999971,2145.09090888,589.333333274,2453.15151491,482.181818134,2615.93939368,482.181818134,2420.18181794,3305.21212088,2406.27272703,3301.09090876,3133.15151484,3268.12121179,2298.09090886,288.484848456,2835.39393911,2699.39393912,2328.99999977,3878.06060567,3274.81818149,1347.6363635,2454.69696945,65.9393939328,42.0,42.0,?
2017-08-01 19:56:15.527609,2398.54545431,4001.6969693,2882.7878785,2472.72727248,2187.84848463,2855.99999971,1932.33333314,589.333333274,2239.87878765,482.181818134,2398.54545431,482.181818134,2215.15151493,3305.21212088,2174.96969675,3301.09090876,2889.99999971,3268.12121179,2062.15151495,288.484848456,2658.69696943,2699.39393912,2111.09090888,3878.06060567,3116.15151484,1347.6363635,2214.63636341,65.9393939328,42.0,42.0,?
2017-08-01 19:56:15.539207,2286.75757553,4001.6969693,2834.8787876,2472.72727248,2131.18181797,2855.99999971,1842.69696951,589.333333274,2151.27272706,482.181818134,2307.87878765,482.181818134,2116.75757555,3305.21212088,2047.21212101,3301.09090876,2776.15151487,3268.12121179,1939.54545435,288.484848456,2589.15151489,2699.39393912,1979.21212101,3878.06060567,3052.78787848,1347.6363635,2095.63636343,65.9393939328,42.0,42.0,?
2017-08-01 19:56:15.544204,2424.81818158,4001.6969693,2961.60606031,2472.72727248,2250.18181796,2855.99999971,1971.48484829,589.333333274,2282.63636341,482.181818134,2443.87878763,482.181818134,2237.30303008,3305.21212088,2176.5151513,3301.09090876,2922.96969668,3268.12121179,2084.30303009,288.484848456,2699.39393912,2699.39393912,2093.57575737,3878.06060567,3134.69696938,1347.6363635,2246.57575735,65.9393939328,42.0,42.0,?
2017-08-01 19:56:15.551206,2677.75757549,4001.6969693,3139.33333302,2472.72727248,2427.39393915,2855.99999971,2209.48484826,589.333333274,2525.27272702,482.181818134,2685.99999973,482.181818134,2460.36363612,3305.21212088,2428.9393937,3301.09090876,3170.24242393,3268.12121179,2339.81818158,288.484848456,2895.66666638,2699.39393912,2355.27272704,3878.06060567,3303.66666634,1347.6363635,2518.57575732,65.9393939328,42.0,42.0,?
2017-08-01 19:56:15.560735,2990.96969667,4001.6969693,3337.15151482,2472.72727248,2640.6666664,2855.99999971,2525.78787854,589.333333274,2852.39393911,482.181818134,3002.30303,482.181818134,2751.93939366,3305.21212088,2763.272727,3301.09090876,3497.36363601,3268.12121179,2650.45454519,288.484848456,3132.12121181,2699.39393912,2680.84848458,3878.06060567,3525.69696934,1347.6363635,2851.36363608,65.9393939328,42.0,42.0,?
2017-08-01 19:56:15.570347,3167.66666635,4001.6969693,3408.2424239,2472.72727248,2738.54545427,2855.99999971,2693.21212094,589.333333274,3027.03030273,482.181818134,3168.69696938,482.181818134,2917.81818153,3305.21212088,2978.60606031,3301.09090876,3712.69696933,3268.12121179,2847.24242396,288.484848456,3233.09090877,2699.39393912,2858.57575729,3878.06060567,3623.0606057,1347.6363635,3030.63636333,65.9393939328,42.0,42.0,?
2017-08-01 19:56:15.575469,3001.78787849,4001.6969693,3241.33333301,2472.72727248,2589.66666641,2855.99999971,2508.27272702,589.333333274,2839.51515123,482.181818134,2982.72727243,482.181818134,2760.69696942,3305.21212088,2820.45454517,3301.09090876,3547.84848449,3268.12121179,2696.81818155,288.484848456,3075.45454515,2699.39393912,2699.39393912,3878.06060567,3487.06060571,1347.6363635,2851.36363608,65.9393939328,42.0,42.0,?
2017-08-01 19:56:15.582891,2799.33333305,4001.6969693,3093.99999969,2472.72727248,2454.69696945,2855.99999971,2311.99999977,589.333333274,2640.6666664,482.181818134,2786.96969669,482.181818134,2581.42424217,3305.21212088,2603.0606058,3301.09090876,3315.51515118,3268.12121179,2485.09090884,288.484848456,2923.99999971,2699.39393912,2507.24242399,3878.06060567,3348.48484815,1347.6363635,2657.6666664,65.9393939328,42.0,42.0,?
2017-08-01 19:56:15.590133,2703.51515124,4001.6969693,3035.27272697,2472.72727248,2399.06060582,2855.99999971,2218.24242402,589.333333274,2542.27272702,482.181818134,2692.69696943,482.181818134,2497.4545452,3305.21212088,2491.78787854,3301.09090876,3190.84848453,3268.12121179,2378.45454522,288.484848456,2860.63636335,2699.39393912,2420.18181794,3878.06060567,3294.39393906,1347.6363635,2574.72727247,65.9393939328,42.0,42.0,?
2017-08-01 19:56:15.602046,2574.72727247,4001.6969693,2960.57575728,2472.72727248,2305.30303007,2855.99999971,2077.6060604,589.333333274,2389.27272703,482.181818134,2553.09090884,482.181818134,2365.06060582,3305.21212088,2341.87878764,3301.09090876,3055.36363606,3268.12121179,2249.15151493,288.484848456,2766.8787876,2699.39393912,2289.84848462,3878.06060567,3202.69696938,1347.6363635,2423.78787855,65.9393939328,42.0,42.0,?
2017-08-01 19:56:15.606250,2650.9696967,4001.6969693,3047.12121182,2472.72727248,2375.87878764,2855.99999971,2165.69696948,589.333333274,2472.21212096,482.181818134,2639.63636337,482.181818134,2431.51515127,3305.21212088,2416.57575733,3301.09090876,3160.45454514,3268.12121179,2319.7272725,288.484848456,2839.51515123,2699.39393912,2348.06060583,3878.06060567,3250.09090877,1347.6363635,2478.90909066,65.9393939328,42.0,42.0,?
2017-08-01 19:56:15.613649,2828.69696941,4001.6969693,3161.48484817,2472.72727248,2500.5454543,2855.99999971,2359.39393916,589.333333274,2673.63636337,482.181818134,2827.66666638,482.181818134,2603.57575732,3305.21212088,2619.54545428,3301.09090876,3363.42424209,3268.12121179,2502.09090884,288.484848456,2974.48484819,2699.39393912,2508.27272702,3878.06060567,3380.42424209,1347.6363635,2672.09090882,65.9393939328,42.0,42.0,?
2017-08-01 19:56:15.623457,2639.12121186,4001.6969693,2993.03030273,2472.72727248,2339.30303007,2855.99999971,2176.5151513,589.333333274,2491.27272702,482.181818134,2641.69696943,482.181818134,2433.57575733,3305.21212088,2444.39393915,3301.09090876,3172.8181815,3268.12121179,2323.3333331,288.484848456,2809.12121184,2699.39393912,2321.27272704,3878.06060567,3241.33333301,1347.6363635,2495.90909066,65.9393939328,42.0,42.0,?
2017-08-01 19:56:15.629579,2510.8484846,4001.6969693,2935.84848455,2472.72727248,2274.90909068,2855.99999971,2066.78787858,589.333333274,2382.57575734,482.181818134,2536.09090884,482.181818134,2321.27272704,3305.21212088,2305.81818159,3301.09090876,3043.51515121,3268.12121179,2190.93939372,288.484848456,2729.78787851,2699.39393912,2199.69696948,3878.06060567,3165.09090877,1347.6363635,2354.75757552,65.9393939328,42.0,42.0,?
2017-08-01 19:56:15.639097,2884.84848456,4001.6969693,3233.60606028,2472.72727248,2572.66666641,2855.99999971,2436.15151491,589.333333274,2766.8787876,482.181818134,2913.69696941,482.181818134,2671.57575731,3305.21212088,2682.90909064,3301.09090876,3422.66666632,3268.12121179,2578.84848459,288.484848456,3040.42424212,2699.39393912,2582.96969671,3878.06060567,3442.75757541,1347.6363635,2733.39393912,65.9393939328,42.0,42.0,?
2017-08-01 19:56:15.645491,3000.75757546,4001.6969693,3258.33333301,2472.72727248,2607.18181792,2855.99999971,2511.87878763,589.333333274,2843.63636335,482.181818134,2989.42424213,482.181818134,2772.03030275,3305.21212088,2807.5757573,3301.09090876,3516.42424207,3268.12121179,2700.42424215,288.484848456,3093.99999969,2699.39393912,2729.272727,3878.06060567,3500.96969662,1347.6363635,2869.39393911,65.9393939328,42.0,42.0,?
2017-08-01 19:56:15.654556,2580.90909065,4001.6969693,2918.33333304,2472.72727248,2271.81818159,2855.99999971,2081.72727252,589.333333274,2390.81818158,482.181818134,2552.57575732,482.181818134,2370.72727249,3305.21212088,2361.96969673,3301.09090876,3063.6060603,3268.12121179,2245.54545432,288.484848456,2746.78787851,2699.39393912,2315.09090886,3878.06060567,3202.69696938,1347.6363635,2427.90909067,65.9393939328,42.0,42.0,?
2017-08-01 19:56:15.660633,2366.09090885,4001.6969693,2809.63636336,2472.72727248,2149.212121,2855.99999971,1895.75757557,589.333333274,2199.18181796,482.181818134,2364.03030279,482.181818134,2175.48484827,3305.21212088,2125.5151513,3301.09090876,2856.51515123,3268.12121179,2020.42424222,288.484848456,2599.45454519,2699.39393912,2059.57575737,3878.06060567,3055.36363606,1347.6363635,2182.18181796,65.9393939328,42.0,42.0,?
2017-08-01 19:56:15.669464,2558.7575755,4001.6969693,2996.12121182,2472.72727248,2316.6363634,2855.99999971,2110.06060585,589.333333274,2426.36363612,482.181818134,2578.84848459,482.181818134,2367.6363634,3305.21212088,2333.6363634,3301.09090876,3078.54545424,3268.12121179,2240.39393917,288.484848456,2767.90909063,2699.39393912,2225.45454523,3878.06060567,3186.21212089,1347.6363635,2395.45454522,65.9393939328,42.0,42.0,?
2017-08-01 19:56:15.676423,2856.51515123,4001.6969693,3208.36363604,2472.72727248,2532.99999975,2855.99999971,2412.45454521,589.333333274,2727.21212094,482.181818134,2880.21212092,482.181818134,2647.3636361,3305.21212088,2655.09090883,3301.09090876,3391.75757542,3268.12121179,2548.96969671,288.484848456,3004.36363606,2699.39393912,2541.24242399,3878.06060567,3404.6363633,1347.6363635,2725.66666639,65.9393939328,42.0,42.0,?
2017-08-01 19:56:15.684966,2986.33333303,4001.6969693,3254.21212089,2472.72727248,2601.51515126,2855.99999971,2518.57575732,589.333333274,2828.69696941,482.181818134,2990.45454516,482.181818134,2764.30303003,3305.21212088,2801.39393911,3301.09090876,3528.78787844,3268.12121179,2671.57575731,288.484848456,3080.6060603,2699.39393912,2695.78787852,3878.06060567,3486.03030268,1347.6363635,2854.96969668,65.9393939328,42.0,42.0,?
2017-08-01 19:56:15.692663,2753.48484821,4001.6969693,3047.63636333,2472.72727248,2404.72727249,2855.99999971,2257.39393917,589.333333274,2574.21212095,482.181818134,2734.93939367,482.181818134,2539.18181793,3305.21212088,2563.90909065,3301.09090876,3284.09090876,3268.12121179,2432.5454543,288.484848456,2876.0909088,2699.39393912,2455.21212097,3878.06060567,3305.7272724,1347.6363635,2600.99999974,65.9393939328,42.0,42.0,?
2017-08-01 19:56:15.700240,2698.36363609,4001.6969693,3037.84848454,2472.72727248,2392.36363612,2855.99999971,2221.33333311,589.333333274,2546.39393914,482.181818134,2699.39393912,482.181818134,2481.99999975,3305.21212088,2476.33333309,3301.09090876,3201.66666635,3268.12121179,2390.30303006,288.484848456,2855.4848482,2699.39393912,2395.45454522,3878.06060567,3270.18181785,1347.6363635,2543.30303005,65.9393939328,42.0,42.0,?
2017-08-01 19:56:15.707973,3356.72727239,4001.6969693,3528.27272692,2472.72727248,2898.24242395,2855.99999971,2889.4848482,589.333333274,3224.33333301,482.181818134,3372.69696936,482.181818134,3089.87878757,3305.21212088,3129.54545423,3301.09090876,3875.4848481,3268.12121179,3063.6060603,288.484848456,3384.03030269,2699.39393912,3069.78787848,3878.06060567,3739.48484811,1347.6363635,3234.63636331,65.9393939328,42.0,42.0,?
2017-08-01 19:56:15.716453,3799.75757538,4001.6969693,3741.54545417,2472.72727248,3152.2121209,2855.99999971,3282.0303027,589.333333274,3627.69696933,482.181818134,3767.81818144,482.181818134,3488.09090874,3305.21212088,3627.18181782,3301.09090876,4378.78787835,3268.12121179,3484.99999965,288.484848456,3670.45454509,2699.39393912,3512.30302995,3878.06060567,4025.90909051,1347.6363635,3705.48484811,65.9393939328,42.0,42.0,?
2017-08-01 19:56:15.726076,3300.06060573,4001.6969693,3279.45454513,2472.72727248,2725.15151488,2855.99999971,2756.06060579,589.333333274,3100.69696939,482.181818134,3234.63636331,482.181818134,3014.15151485,3305.21212088,3162.5151512,3301.09090876,3902.27272688,3268.12121179,2968.81818152,288.484848456,3228.45454513,2699.39393912,2989.93939364,3878.06060567,3645.72727236,1347.6363635,3191.87878756,65.9393939328,42.0,42.0,?
2017-08-01 19:56:15.732839,2888.96969668,4001.6969693,3023.42424212,2472.72727248,2465.51515127,2855.99999971,2364.03030279,589.333333274,2708.15151488,482.181818134,2846.72727244,482.181818134,2638.09090883,3305.21212088,2710.21212094,3301.09090876,3440.18181784,3268.12121179,2578.33333308,288.484848456,2949.24242395,2699.39393912,2583.48484823,3878.06060567,3382.99999966,1347.6363635,2757.60606033,65.9393939328,42.0,42.0,?
2017-08-01 19:56:15.739508,3091.93939363,4001.6969693,3229.99999968,2472.72727248,2655.09090883,2855.99999971,2579.36363611,589.333333274,2925.03030274,482.181818134,3067.72727242,482.181818134,2837.45454517,3305.21212088,2877.12121183,3301.09090876,3597.81818146,3268.12121179,2794.69696942,288.484848456,3147.57575726,2699.39393912,2821.99999972,3878.06060567,3548.87878752,1347.6363635,2965.72727243,65.9393939328,42.0,42.0,?
2017-08-01 19:56:15.747088,3162.5151512,4001.6969693,3256.78787846,2472.72727248,2688.06060579,2855.99999971,2661.78787852,589.333333274,2996.12121182,482.181818134,3135.2121209,482.181818134,2902.36363607,3305.21212088,2973.45454516,3301.09090876,3695.69696933,3268.12121179,2851.87878759,288.484848456,3181.57575726,2699.39393912,2885.87878759,3878.06060567,3583.39393904,1347.6363635,3045.57575727,65.9393939328,42.0,42.0,?
2017-08-01 19:56:15.755500,2952.33333304,4001.6969693,3087.81818151,2472.72727248,2528.87878763,2855.99999971,2463.45454521,589.333333274,2781.81818154,482.181818134,2927.0909088,482.181818134,2701.45454518,3305.21212088,2780.78787851,3301.09090876,3514.87878753,3268.12121179,2627.27272701,288.484848456,3014.15151485,2699.39393912,2647.3636361,3878.06060567,3436.57575723,1347.6363635,2819.93939366,65.9393939328,42.0,42.0,?
2017-08-01 19:56:15.761925,2983.24242394,4001.6969693,3140.36363605,2472.72727248,2574.21212095,2855.99999971,2481.99999975,589.333333274,2803.45454517,482.181818134,2960.06060576,482.181818134,2728.24242397,3305.21212088,2788.51515124,3301.09090876,3517.4545451,3268.12121179,2664.3636361,288.484848456,3059.99999969,2699.39393912,2690.12121185,3878.06060567,3464.90909056,1347.6363635,2840.54545426,65.9393939328,42.0,42.0,?
2017-08-01 19:56:15.770411,3100.18181787,4001.6969693,3222.78787847,2472.72727248,2648.90909064,2855.99999971,2577.30303005,589.333333274,2907.51515122,482.181818134,3061.03030272,482.181818134,2834.8787876,3305.21212088,2895.66666638,3301.09090876,3617.90909055,3268.12121179,2785.93939366,288.484848456,3146.54545423,2699.39393912,2814.78787851,3878.06060567,3543.72727237,1347.6363635,2960.57575728,65.9393939328,42.0,42.0,?
2017-08-01 19:56:15.777576,2843.63636335,4001.6969693,3016.21212091,2472.72727248,2441.81818157,2855.99999971,2324.36363613,589.333333274,2650.9696967,482.181818134,2795.72727245,482.181818134,2595.33333307,3305.21212088,2651.48484822,3301.09090876,3387.6363633,3268.12121179,2517.03030278,288.484848456,2927.60606031,2699.39393912,2540.21212096,3878.06060567,3355.69696936,1347.6363635,2696.30303003,65.9393939328,42.0,42.0,?
2017-08-01 19:56:15.787020,2545.36363611,4001.6969693,2834.36363608,2472.72727248,2250.69696947,2855.99999971,2052.87878767,589.333333274,2373.30303007,482.181818134,2519.60606035,482.181818134,2323.3333331,3305.21212088,2336.21212098,3301.09090876,3069.27272697,3268.12121179,2214.63636341,288.484848456,2709.69696943,2699.39393912,2241.4242422,3878.06060567,3150.66666635,1347.6363635,2387.21212097,65.9393939328,42.0,42.0,?
2017-08-01 19:56:15.794491,2731.33333306,4001.6969693,3023.93939364,2472.72727248,2422.75757552,2855.99999971,2259.45454523,589.333333274,2580.39393914,482.181818134,2732.87878761,482.181818134,2505.18181793,3305.21212088,2491.78787854,3301.09090876,3214.03030271,3268.12121179,2418.63636339,288.484848456,2887.42424214,2699.39393912,2430.48484824,3878.06060567,3303.15151482,1347.6363635,2577.81818156,65.9393939328,42.0,42.0,?
2017-08-01 19:56:15.801564,3117.69696939,4001.6969693,3293.87878755,2472.72727248,2693.21212094,2855.99999971,2644.27272701,589.333333274,2975.51515122,482.181818134,3122.33333302,482.181818134,2873.51515123,3305.21212088,2912.15151486,3301.09090876,3653.9696966,3268.12121179,2820.45454517,288.484848456,3179.5151512,2699.39393912,2813.75757548,3878.06060567,3564.84848449,1347.6363635,2974.48484819,65.9393939328,42.0,42.0,?
2017-08-01 19:56:15.808873,3164.06060574,4001.6969693,3278.93939361,2472.72727248,2695.272727,2855.99999971,2675.69696943,589.333333274,3012.6060603,482.181818134,3151.18181787,482.181818134,2914.21212092,3305.21212088,3003.33333303,3301.09090876,3752.8787875,3268.12121179,2864.24242396,288.484848456,3188.27272695,2699.39393912,2877.12121183,3878.06060567,3583.39393904,1347.6363635,3025.9999997,65.9393939328,42.0,42.0,?
2017-08-01 19:56:15.816597,3012.6060603,3816.24242386,3149.63636332,2472.72727248,2578.84848459,2855.99999971,2498.99999975,589.333333274,2831.27272699,482.181818134,2976.54545425,482.181818134,2753.48484821,3305.21212088,2825.60606032,3301.09090876,3555.57575722,3268.12121179,2706.60606034,288.484848456,3066.69696939,2699.39393912,2733.39393912,3878.06060567,3485.51515117,1347.6363635,2878.66666638,65.9393939328,42.0,42.0,?
2017-08-01 19:56:15.825250,3000.75757546,3816.24242386,3151.69696938,2410.90909067,2580.39393914,2855.99999971,2483.03030278,589.333333274,2804.99999972,482.181818134,2959.54545425,482.181818134,2729.272727,3305.21212088,2782.33333306,3301.09090876,3504.57575723,3268.12121179,2695.272727,288.484848456,3067.21212091,2699.39393912,2712.272727,3878.06060567,3486.03030268,1347.6363635,2873.51515123,65.9393939328,42.0,42.0,?
2017-08-01 19:56:15.832835,3254.21212089,3816.24242386,3350.0303027,2410.90909067,2782.33333306,2855.99999971,2769.96969669,589.333333274,3095.03030272,482.181818134,3243.90909058,482.181818134,2973.96969667,3305.21212088,3048.66666636,3301.09090876,3784.81818144,3268.12121179,2960.06060576,288.484848456,3280.99999967,2699.39393912,2968.30303001,3878.06060567,3679.72727236,1347.6363635,3143.45454514,4059.39393899,42.0,42.0,?
2017-08-01 19:56:15.841139,3702.90909054,3816.24242386,3645.72727236,2410.90909067,3104.30302999,2711.75757549,3228.45454513,589.333333274,3578.7575754,482.181818134,3712.18181781,482.181818134,3407.21212087,3305.21212088,3540.63636328,3301.09090876,4289.15151472,3268.12121179,3428.33333299,288.484848456,3619.45454509,2699.39393912,3422.66666632,3878.06060567,3984.6969693,1347.6363635,3626.6666663,4059.39393899,42.0,42.0,?
2017-08-01 19:56:15.848641,3847.15151477,3816.24242386,3662.72727236,2410.90909067,3158.90909059,2711.75757549,3326.333333,436.848484805,3694.15151478,482.181818134,3823.45454507,482.181818134,3543.72727237,3305.21212088,3723.51515114,3301.09090876,4466.87878743,3268.12121179,3575.66666631,288.484848456,3682.30302993,2699.39393912,3559.69696934,3878.06060567,4052.69696929,1347.6363635,3793.06060568,4059.39393899,42.0,42.0,?
2017-08-01 19:56:15.857330,3598.33333297,3816.24242386,3432.45454511,2410.90909067,2951.81818152,2711.75757549,3054.33333303,436.848484805,3414.9393936,313.212121181,3548.36363601,482.181818134,3303.15151482,3305.21212088,3473.66666632,3301.09090876,4203.63636322,3268.12121179,3315.51515118,288.484848456,3464.90909056,2699.39393912,3307.78787846,3878.06060567,3867.75757537,1347.6363635,3533.42424207,4059.39393899,42.0,42.0,?
2017-08-01 19:56:15.864354,3569.99999964,3816.24242386,3423.69696935,2410.90909067,2951.81818152,2711.75757549,3037.33333303,436.848484805,3395.36363602,313.212121181,3525.69696934,296.727272698,3269.15151482,3305.21212088,3424.21212087,3301.09090876,4154.18181777,3268.12121179,3291.81818149,288.484848456,3461.30302996,2699.39393912,3301.60606028,3878.06060567,3855.90909052,1347.6363635,3493.75757541,4059.39393899,42.0,42.0,?
2017-08-01 19:56:15.874810,3590.60606025,3816.24242386,3419.57575723,2410.90909067,2953.87878758,2711.75757549,3042.9999997,436.848484805,3402.06060572,313.212121181,3530.33333298,296.727272698,3280.99999967,3218.66666634,3434.51515117,3301.09090876,4159.84848443,3268.12121179,3311.39393906,288.484848456,3482.93939359,2699.39393912,3342.81818148,3878.06060567,3875.99999961,1347.6363635,3508.18181783,4059.39393899,42.0,42.0,?
2017-08-01 19:56:15.879505,3265.54545422,3816.24242386,3174.36363605,2410.90909067,2703.51515124,2711.75757549,2716.39393912,436.848484805,3060.51515121,313.212121181,3198.06060574,296.727272698,2973.45454516,3218.66666634,3087.30302999,3165.09090877,3798.21212083,3268.12121179,2964.18181789,288.484848456,3222.27272695,2699.39393912,3005.39393909,3878.06060567,3638.51515115,1347.6363635,3161.48484817,4059.39393899,42.0,42.0,?
2017-08-01 19:56:15.887626,3195.99999968,3816.24242386,3173.84848453,2410.90909067,2689.09090882,2711.75757549,2672.60606034,436.848484805,3011.06060576,313.212121181,3153.75757544,296.727272698,2917.30303001,3218.66666634,3005.39393909,3165.09090877,3733.30302993,3189.8181815,2893.0909088,288.484848456,3185.18181786,2699.39393912,2904.93939365,3878.06060567,3599.363636,1347.6363635,3076.48484818,4059.39393899,42.0,42.0,?
2017-08-01 19:56:15.895133,3352.09090876,3816.24242386,3300.57575725,2410.90909067,2811.1818179,2711.75757549,2832.81818153,436.848484805,3175.90909059,313.212121181,3314.99999967,296.727272698,3076.48484818,3218.66666634,3197.03030271,3165.09090877,3950.18181779,3189.8181815,3054.84848454,94.7878787784,3314.48484815,2699.39393912,3039.39393909,3878.06060567,3724.54545417,1347.6363635,3241.33333301,4059.39393899,42.0,42.0,?
2017-08-01 19:56:15.902670,3308.81818149,3816.24242386,3256.27272695,2410.90909067,2766.36363609,2711.75757549,2789.03030275,436.848484805,3123.87878757,313.212121181,3268.63636331,296.727272698,3032.18181788,3218.66666634,3152.72727241,3165.09090877,3892.99999961,3189.8181815,3010.54545424,94.7878787784,3275.33333301,2658.18181792,3005.90909061,3878.06060567,3686.42424206,1347.6363635,3201.15151483,4059.39393899,42.0,42.0,?
2017-08-01 19:56:15.912546,3504.06060571,3816.24242386,3414.9393936,2410.90909067,2926.06060577,2711.75757549,2987.36363606,436.848484805,3322.21212088,313.212121181,3474.18181783,296.727272698,3203.72727241,3218.66666634,3312.93939361,3165.09090877,4039.3030299,3189.8181815,3221.24242392,94.7878787784,3440.69696935,2658.18181792,3232.57575725,3725.5757572,3832.72727234,1347.6363635,3399.99999966,4059.39393899,42.0,42.0,?
2017-08-01 19:56:15.919306,3869.30302992,3816.24242386,3652.42424206,2410.90909067,3180.54545423,2711.75757549,3335.60606027,436.848484805,3688.99999963,313.212121181,3830.66666628,296.727272698,3546.81818146,3218.66666634,3709.60606024,3165.09090877,4451.93939349,3189.8181815,3586.48484813,94.7878787784,3713.21212084,2658.18181792,3606.0606057,3725.5757572,4088.24242383,1302.30303017,3797.1818178,4059.39393899,42.0,42.0,?
2017-08-01 19:56:15.926545,3810.06060568,3816.24242386,3540.63636328,2410.90909067,3098.12121181,2711.75757549,3255.75757543,436.848484805,3617.90909055,313.212121181,3746.69696932,296.727272698,3486.03030268,3218.66666634,3685.90909054,3165.09090877,4432.87878744,3189.8181815,3505.60606026,86.5454545368,3635.93939358,2658.18181792,3531.87878753,3725.5757572,4022.81818142,1302.30303017,3757.51515114,4059.39393899,42.0,42.0,?
2017-08-01 19:56:15.936501,3760.09090871,3816.24242386,3496.33333298,2410.90909067,3068.24242394,2711.75757549,3200.1212118,436.848484805,3565.87878752,313.212121181,3690.03030266,296.727272698,3421.12121178,3218.66666634,3600.90909055,3165.09090877,4335.51515108,3189.8181815,3477.78787844,86.5454545368,3598.84848449,2666.42424216,3484.99999965,3725.5757572,3982.63636324,1302.30303017,3692.60606024,4059.39393899,42.0,42.0,?
2017-08-01 19:56:15.941879,4028.48484808,3816.24242386,3685.90909054,2410.90909067,3267.60606028,2711.75757549,3459.2424239,436.848484805,3831.69696931,313.212121181,3954.81818142,296.727272698,3666.84848448,3218.66666634,3862.0909087,3165.09090877,4606.48484802,3189.8181815,3787.39393902,86.5454545368,3801.30302992,2666.42424216,3769.8787875,3725.5757572,4161.90909049,1302.30303017,3968.21212082,4059.39393899,42.0,42.0,?
2017-08-01 19:56:15.949674,3940.393939,3816.24242386,3567.42424207,2410.90909067,3165.09090877,2711.75757549,3352.60606027,436.848484805,3717.84848448,313.212121181,3848.1818178,296.727272698,3586.99999964,3218.66666634,3809.03030265,3165.09090877,4556.51515106,3189.8181815,3675.09090872,86.5454545368,3712.18181781,2666.42424216,3673.54545418,3725.5757572,4099.06060565,1302.30303017,3893.51515113,4059.39393899,42.0,42.0,?
2017-08-01 19:56:15.959162,3567.42424207,3816.24242386,3291.81818149,2410.90909067,2893.60606032,2711.75757549,2984.78787849,436.848484805,3339.21212088,313.212121181,3477.78787844,296.727272698,3240.81818149,3218.66666634,3425.2424239,3165.09090877,4151.60606019,3189.8181815,3263.99999967,86.5454545368,3433.99999966,2666.42424216,3275.33333301,3725.5757572,3851.27272689,1302.30303017,3497.87878753,4059.39393899,42.0,42.0,?
2017-08-01 19:56:15.968412,3620.48484812,3816.24242386,3381.96969663,2410.90909067,2977.57575728,2711.75757549,3068.24242394,436.848484805,3422.66666632,313.212121181,3561.24242389,296.727272698,3300.57575725,3218.66666634,3455.12121178,3165.09090877,4190.24242382,3189.8181815,3330.96969664,86.5454545368,3499.42424207,2666.42424216,3329.42424209,3725.5757572,3898.15151476,1302.30303017,3538.57575722,4059.39393899,42.0,42.0,?
2017-08-01 19:56:15.974715,4105.75757535,3816.24242386,3739.99999963,2410.90909067,3344.36363603,2711.75757549,3562.78787843,436.848484805,3927.51515112,313.212121181,4061.45454505,296.727272698,3760.60606023,3218.66666634,3957.90909051,3165.09090877,4718.78787832,3189.8181815,3845.09090871,86.5454545368,3884.24242385,2666.42424216,3848.1818178,3725.5757572,4247.424242,1302.30303017,4053.72727232,4059.39393899,42.0,42.0,?
2017-08-01 19:56:15.982578,4403.51515107,3816.24242386,3886.30302991,2410.90909067,3517.4545451,2711.75757549,3822.42424204,436.848484805,4202.60606019,313.212121181,4328.81818139,296.727272698,4032.6060602,3218.66666634,4279.87878745,3165.09090877,5028.39393889,3189.8181815,4149.03030262,86.5454545368,4082.06060565,2666.42424216,4172.72727231,3725.5757572,4435.96969653,1302.30303017,4379.30302987,4059.39393899,42.0,42.0,?
2017-08-01 19:56:15.989529,4153.66666625,3816.24242386,3639.54545418,2410.90909067,3294.90909058,2711.75757549,3532.90909056,436.848484805,3915.66666628,313.212121181,4037.75757535,296.727272698,3786.8787875,3218.66666634,4027.45454505,3165.09090877,4756.90909043,3189.8181815,3888.36363597,86.5454545368,3847.66666628,2666.42424216,3905.87878749,3725.5757572,4231.96969655,1302.30303017,4118.12121171,4059.39393899,42.0,42.0,?
2017-08-01 19:56:15.997245,3711.15151478,3816.24242386,3326.333333,2410.90909067,2984.78787849,2711.75757549,3103.27272696,436.848484805,3464.39393905,313.212121181,3597.81818146,296.727272698,3371.15151481,3218.66666634,3572.0606057,3165.09090877,4312.84848442,3189.8181815,3444.81818147,86.5454545368,3515.90909056,2666.42424216,3446.36363602,3725.5757572,3921.84848446,1302.30303017,3650.363636,4059.39393899,42.0,42.0,?
2017-08-01 19:56:16.004563,3426.78787845,3816.24242386,3167.15151483,2410.90909067,2807.5757573,2711.75757549,2855.4848482,436.848484805,3195.48484817,313.212121181,3341.27272694,296.727272698,3118.72727242,3218.66666634,3284.09090876,3165.09090877,4031.06060566,3189.8181815,3153.24242393,86.5454545368,3329.93939361,2666.42424216,3166.1212118,3725.5757572,3743.09090872,1302.30303017,3353.6363633,4059.39393899,42.0,42.0,?
2017-08-01 19:56:16.013028,3127.99999969,3816.24242386,2994.06060576,2410.90909067,2603.0606058,2711.75757549,2579.36363611,436.848484805,2911.63636335,313.212121181,3058.96969666,296.727272698,2854.96969668,3218.66666634,2973.96969667,3165.09090877,3712.18181781,3189.8181815,2823.03030275,86.5454545368,3114.60606029,2666.42424216,2844.15151487,3725.5757572,3552.48484813,1302.30303017,3024.45454515,4059.39393899,42.0,42.0,?
2017-08-01 19:56:16.021308,2816.84848457,3816.24242386,2829.72727244,2410.90909067,2403.18181794,2711.75757549,2290.87878765,436.848484805,2617.99999974,313.212121181,2765.84848457,296.727272698,2575.7575755,3218.66666634,2646.84848458,3165.09090877,3380.42424209,3189.8181815,2501.57575733,86.5454545368,2887.93939365,2666.42424216,2513.42424217,3725.5757572,3334.57575724,1302.30303017,2676.72727246,4059.39393899,42.0,42.0,?
2017-08-01 19:56:16.028519,2688.57575731,3816.24242386,2809.63636336,2410.90909067,2344.96969674,2711.75757549,2179.60606039,436.848484805,2498.99999975,313.212121181,2653.54545428,296.727272698,2467.06060581,3218.66666634,2507.24242399,3165.09090877,3235.15151483,3189.8181815,2391.84848461,86.5454545368,2820.96969669,2666.42424216,2408.84848461,3725.5757572,3266.06060573,1302.30303017,2554.63636338,4059.39393899,42.0,42.0,?
2017-08-01 19:56:16.035908,2546.90909065,3816.24242386,2754.51515124,2410.90909067,2250.69696947,2711.75757549,2041.03030283,436.848484805,2352.69696946,313.212121181,2515.99999975,296.727272698,2345.48484825,3218.66666634,2349.09090886,3165.09090877,3067.72727242,3189.8181815,2249.66666644,86.5454545368,2732.87878761,2666.42424216,2274.39393917,3725.5757572,3188.27272695,1302.30303017,2414.51515127,4059.39393899,42.0,42.0,?
2017-08-01 19:56:16.043628,2367.12121188,3816.24242386,2669.51515125,2410.90909067,2131.69696948,2711.75757549,1881.84848466,436.848484805,2182.18181796,313.212121181,2351.15151492,296.727272698,2181.15151493,3218.66666634,2143.03030282,3165.09090877,2857.03030274,3189.8181815,2060.09090888,86.5454545368,2602.54545429,2666.42424216,2070.39393919,3725.5757572,3054.33333303,1302.30303017,2188.87878766,4059.39393899,42.0,42.0,?
2017-08-01 19:56:16.053700,2588.12121186,3816.24242386,2889.99999971,2410.90909067,2326.42424219,2711.75757549,2130.15151494,436.848484805,2423.78787855,313.212121181,2595.33333307,296.727272698,2380.51515128,3218.66666634,2342.39393916,3165.09090877,3058.45454515,3189.8181815,2293.45454523,86.5454545368,2797.78787851,2666.42424216,2293.45454523,3725.5757572,3222.78787847,1302.30303017,2398.54545431,4059.39393899,42.0,42.0,?
2017-08-01 19:56:16.059608,3108.93939363,3816.24242386,3276.87878755,2410.90909067,2707.63636337,2711.75757549,2639.12121186,436.848484805,2954.3939391,313.212121181,3116.66666635,296.727272698,2854.45454517,3218.66666634,2866.30303002,3165.09090877,3592.66666631,3189.8181815,2830.75757547,86.5454545368,3200.63636332,2666.42424216,2839.51515123,3725.5757572,3591.12121176,1302.30303017,2978.60606031,4059.39393899,42.0,42.0,?
2017-08-01 19:56:16.067997,3489.12121177,3816.24242386,3495.81818147,2410.90909067,2950.78787849,2711.75757549,2983.75757546,436.848484805,3325.81818149,313.212121181,3475.21212086,296.727272698,3201.15151483,3218.66666634,3279.45454513,3165.09090877,4015.09090869,3189.8181815,3213.51515119,86.5454545368,3458.21212087,2666.42424216,3206.8181815,3725.5757572,3828.60606022,1302.30303017,3405.66666633,4059.39393899,42.0,42.0,?
2017-08-01 19:56:16.074615,3539.60606025,3816.24242386,3456.66666632,2410.90909067,2945.63636334,2711.75757549,3012.09090879,436.848484805,3347.96969663,313.212121181,3497.36363601,296.727272698,3242.36363604,3218.66666634,3370.6363633,3165.09090877,4106.78787838,3189.8181815,3253.18181786,86.5454545368,3454.09090875,2666.42424216,3230.51515119,3725.5757572,3833.75757537,1302.30303017,3453.57575723,4059.39393899,42.0,42.0,?
2017-08-01 19:56:16.084995,3245.96969665,3816.24242386,3198.06060574,2410.90909067,2709.18181791,2711.75757549,2726.69696942,436.848484805,3050.21212091,313.212121181,3202.18181786,296.727272698,2970.87878758,3218.66666634,3098.63636333,3165.09090877,3833.75757537,3189.8181815,2947.6969694,86.5454545368,3203.21212089,2666.42424216,2930.6969694,3725.5757572,3613.78787843,1302.30303017,3148.09090878,4059.39393899,42.0,42.0,?
2017-08-01 19:56:16.090628,3061.54545424,3816.24242386,3090.9090906,2410.90909067,2600.48484822,2711.75757549,2564.42424217,436.848484805,2896.18181789,313.212121181,3043.51515121,296.727272698,2807.06060578,3218.66666634,2894.12121183,3165.09090877,3628.21212085,3189.8181815,2765.84848457,86.5454545368,3086.27272696,2666.42424216,2750.90909063,3725.5757572,3505.09090874,1302.30303017,2950.78787849,4059.39393899,42.0,42.0,?
2017-08-01 19:56:16.101411,3355.69696936,3816.24242386,3339.21212088,2410.90909067,2840.54545426,2711.75757549,2845.1818179,436.848484805,3189.30302998,313.212121181,3334.57575724,296.727272698,3079.06060575,3218.66666634,3160.45454514,3165.09090877,3880.63636325,3189.8181815,3079.06060575,86.5454545368,3337.66666633,2666.42424216,3069.78787848,3725.5757572,3718.36363599,1302.30303017,3239.27272695,4059.39393899,42.0,42.0,?
2017-08-01 19:56:16.106660,3582.36363601,3816.24242386,3466.45454511,2410.90909067,2979.12121182,2711.75757549,3041.45454515,436.848484805,3386.60606027,313.212121181,3533.42424207,296.727272698,3279.96969664,3218.66666634,3404.6363633,3165.09090877,4121.2121208,3189.8181815,3321.18181785,86.5454545368,3488.09090874,2666.42424216,3325.30302997,3725.5757572,3858.4848481,1302.30303017,3489.12121177,4059.39393899,42.0,42.0,?
2017-08-01 19:56:16.115369,3415.96969663,3816.24242386,3305.7272724,2410.90909067,2837.45454517,2711.75757549,2884.33333304,436.848484805,3231.54545422,313.212121181,3372.18181784,296.727272698,3122.84848454,3218.66666634,3262.45454513,3165.09090877,3987.78787839,3189.8181815,3149.63636332,86.5454545368,3342.81818148,2666.42424216,3146.03030272,3725.5757572,3742.06060569,1302.30303017,3343.84848451,4059.39393899,42.0,42.0,?
2017-08-01 19:56:16.121587,3465.42424208,3816.24242386,3354.15151482,2410.90909067,2896.69696941,2711.75757549,2957.9999997,436.848484805,3309.84848452,313.212121181,3446.36363602,296.727272698,3175.39393908,3218.66666634,3301.09090876,3165.09090877,4025.39393899,3189.8181815,3190.33333301,86.5454545368,3392.27272693,2666.42424216,3168.18181787,3725.5757572,3781.72727235,1302.30303017,3395.87878754,4059.39393899,42.0,42.0,?
2017-08-01 19:56:16.129554,3806.96969659,3816.24242386,3589.57575722,2410.90909067,3143.96969666,2711.75757549,3280.99999967,436.848484805,3627.18181782,313.212121181,3772.96969659,296.727272698,3487.57575723,3218.66666634,3640.0606057,3165.09090877,4369.51515108,3189.8181815,3524.1515148,86.5454545368,3649.33333297,2666.42424216,3519.51515116,3725.5757572,4020.75757536,1302.30303017,3736.90909054,4059.39393899,42.0,42.0,?
2017-08-01 19:56:16.138970,3883.72727234,3816.24242386,3590.60606025,2410.90909067,3165.09090877,2711.75757549,3326.333333,436.848484805,3667.87878751,313.212121181,3818.81818144,296.727272698,3545.78787843,3218.66666634,3732.2727269,3165.09090877,4473.57575713,3189.8181815,3605.54545418,86.5454545368,3686.42424206,2666.42424216,3612.24242388,3725.5757572,4068.66666626,1302.30303017,3819.33333295,4059.39393899,42.0,42.0,?
2017-08-01 19:56:16.146616,3839.93939356,3816.24242386,3532.39393904,2410.90909067,3129.03030272,2711.75757549,3284.60606028,436.848484805,3636.45454509,313.212121181,3776.06060568,296.727272698,3504.57575723,3218.66666634,3688.99999963,3165.09090877,4429.78787834,3189.8181815,3583.39393904,86.5454545368,3660.15151479,2666.42424216,3564.33333298,3725.5757572,4049.09090869,1302.30303017,3786.8787875,4059.39393899,42.0,42.0,?
2017-08-01 19:56:16.157969,4021.27272687,3816.24242386,3656.54545418,2410.90909067,3273.27272695,2711.75757549,3466.45454511,436.848484805,3835.30302992,313.212121181,3960.9999996,296.727272698,3676.63636327,3218.66666634,3870.84848446,3165.09090877,4609.57575711,3189.8181815,3777.09090871,86.5454545368,3815.21212083,2666.42424216,3746.69696932,3725.5757572,4196.93939352,1302.30303017,3983.15151475,4059.39393899,42.0,42.0,?
2017-08-01 19:56:16.163672,4153.15151474,3816.24242386,3714.24242387,2410.90909067,3350.54545421,2711.75757549,3571.03030267,436.848484805,3948.63636324,313.212121181,4073.81818141,296.727272698,3795.12121174,3218.66666634,4026.93939354,3165.09090877,4779.5757571,3189.8181815,3903.30302991,86.5454545368,3896.60606022,2666.42424216,3892.99999961,3725.5757572,4276.27272685,1302.30303017,4132.54545413,4059.39393899,42.0,42.0,?
2017-08-01 19:56:16.170521,3912.57575718,3816.24242386,3495.81818147,2410.90909067,3147.57575726,2711.75757549,3316.0303027,436.848484805,3681.2727269,313.212121181,3814.1818178,296.727272698,3569.48484813,3218.66666634,3799.75757538,3165.09090877,4559.60606015,3189.8181815,3644.69696933,86.5454545368,3692.60606024,2666.42424216,3648.30302994,3725.5757572,4098.03030262,1302.30303017,3893.51515113,4059.39393899,42.0,42.0,?
2017-08-01 19:56:16.177052,3533.93939359,3816.24242386,3231.03030271,2410.90909067,2880.21212092,2711.75757549,2959.03030273,436.848484805,3307.27272694,313.212121181,3443.27272693,296.727272698,3220.72727241,3218.66666634,3402.06060572,3165.09090877,4139.24242383,3189.8181815,3261.4242421,86.5454545368,3417.51515117,2666.42424216,3254.7272724,3725.5757572,3845.09090871,1302.30303017,3491.18181783,4059.39393899,42.0,42.0,?
2017-08-01 19:56:16.184789,3409.27272693,3816.24242386,3191.36363604,2410.90909067,2816.84848457,2711.75757549,2847.24242396,436.848484805,3197.03030271,313.212121181,3333.54545421,296.727272698,3098.12121181,3218.66666634,3239.78787846,3165.09090877,3947.60606021,3189.8181815,3134.69696938,86.5454545368,3352.60606027,2666.42424216,3140.87878756,3725.5757572,3770.39393902,1302.30303017,3331.48484815,4059.39393899,42.0,42.0,?
2017-08-01 19:56:16.192644,3390.21212087,3816.24242386,3206.30302998,2410.90909067,2807.5757573,2711.75757549,2831.7878785,436.848484805,3177.45454514,313.212121181,3319.12121179,296.727272698,3081.63636333,3218.66666634,3209.39393907,3165.09090877,3923.90909052,3189.8181815,3098.63636333,86.5454545368,3350.54545421,2666.42424216,3123.36363605,3725.5757572,3769.36363599,1302.30303017,3294.90909058,4059.39393899,42.0,42.0,?
2017-08-01 19:56:16.199790,3116.15151484,3816.24242386,3021.36363606,2410.90909067,2611.81818156,2711.75757549,2587.09090883,436.848484805,2913.69696941,313.212121181,3061.54545424,296.727272698,2850.33333305,3218.66666634,2957.48484819,3165.09090877,3693.63636327,3189.8181815,2827.15151487,86.5454545368,3133.66666635,2666.42424216,2820.96969669,3725.5757572,3577.72727237,1302.30303017,3016.21212091,4059.39393899,42.0,42.0,?
2017-08-01 19:56:16.209843,2969.84848455,3816.24242386,2972.42424213,2410.90909067,2545.36363611,2711.75757549,2458.81818157,436.848484805,2781.81818154,313.212121181,2938.42424213,296.727272698,2722.06060579,3218.66666634,2790.06060578,3165.09090877,3511.78787844,3189.8181815,2704.54545427,86.5454545368,3046.6060603,2666.42424216,2660.75757549,3725.5757572,3489.12121177,1302.30303017,2851.87878759,4059.39393899,42.0,42.0,?
2017-08-01 19:56:16.216349,3340.24242391,3816.24242386,3290.78787846,2410.90909067,2842.60606032,2711.75757549,2812.21212093,436.848484805,3153.75757544,313.212121181,3309.333333,296.727272698,3055.87878757,3218.66666634,3125.93939363,3165.09090877,3830.66666628,3189.8181815,3083.18181787,86.5454545368,3361.36363603,2666.42424216,3064.63636333,3725.5757572,3764.21212084,1302.30303017,3224.33333301,4059.39393899,42.0,42.0,?
2017-08-01 19:56:16.225581,3620.48484812,3816.24242386,3456.15151481,2410.90909067,3015.6969694,2711.75757549,3080.6060603,436.848484805,3428.33333299,313.212121181,3574.12121176,296.727272698,3318.09090876,3218.66666634,3432.45454511,3165.09090877,4147.99999959,3189.8181815,3352.60606027,86.5454545368,3549.39393904,2666.42424216,3376.30302997,3725.5757572,3945.03030264,1302.30303017,3539.09090874,4059.39393899,42.0,42.0,?
2017-08-01 19:56:16.232711,3512.81818147,3816.24242386,3333.54545421,2410.90909067,2912.15151486,2711.75757549,2974.48484819,436.848484805,3316.0303027,313.212121181,3462.33333299,296.727272698,3220.21212089,3218.66666634,3352.09090876,3165.09090877,4076.9090905,3189.8181815,3237.21212089,86.5454545368,3442.75757541,2666.42424216,3250.60606028,3725.5757572,3861.06060567,1302.30303017,3443.27272693,4059.39393899,42.0,42.0,?
2017-08-01 19:56:16.240205,3418.5454542,3816.24242386,3266.06060573,2410.90909067,2841.57575729,2711.75757549,2874.54545426,436.848484805,3215.57575725,313.212121181,3364.45454512,296.727272698,3134.69696938,3218.66666634,3263.99999967,3165.09090877,3990.87878748,3189.8181815,3151.18181787,86.5454545368,3375.78787845,2666.42424216,3141.90909059,3725.5757572,3789.45454508,1302.30303017,3333.0303027,4059.39393899,42.0,42.0,?
2017-08-01 19:56:16.247261,3235.66666634,3816.24242386,3140.36363605,2410.90909067,2709.69696943,2711.75757549,2704.03030276,436.848484805,3041.45454515,313.212121181,3187.75757544,296.727272698,2968.81818152,3218.66666634,3083.69696939,3165.09090877,3805.93939356,3189.8181815,2964.18181789,86.5454545368,3234.1212118,2666.42424216,2964.6969694,3725.5757572,3657.06060569,1302.30303017,3142.93939363,4059.39393899,42.0,42.0,?
2017-08-01 19:56:16.258604,3490.66666632,3816.24242386,3377.84848451,2410.90909067,2947.18181789,2711.75757549,2989.93939364,436.848484805,3340.75757542,313.212121181,3483.96969662,296.727272698,3201.15151483,3218.66666634,3307.78787846,3165.09090877,4038.78787838,3189.8181815,3218.66666634,86.5454545368,3459.2424239,2666.42424216,3200.1212118,3725.5757572,3851.27272689,1302.30303017,3415.45454511,4059.39393899,42.0,42.0,?
2017-08-01 19:56:16.264511,4633.27272681,3816.24242386,4199.5151511,2410.90909067,3787.39393902,2711.75757549,4102.15151474,436.848484805,4493.66666622,313.212121181,4621.42424196,296.727272698,4270.09090866,3218.66666634,4469.96969652,3165.09090877,5236.51515099,3189.8181815,4410.72727229,86.5454545368,4343.75757532,2666.42424216,4354.06060563,3725.5757572,4642.03030257,1302.30303017,4611.63636318,4059.39393899,42.0,42.0,?
2017-08-01 19:56:16.272643,5044.87878737,3816.24242386,4313.87878745,2410.90909067,3965.63636324,2711.75757549,4433.90909047,436.848484805,4833.66666618,313.212121181,4949.06060557,296.727272698,4658.51515105,3218.66666634,4973.27272678,3165.09090877,5734.66666609,3189.8181815,4848.60606012,86.5454545368,4571.96969651,2666.42424216,4827.484848,3725.5757572,4887.75757527,1302.30303017,5059.81818131,4059.39393899,42.0,42.0,?
2017-08-01 19:56:16.278597,4053.21212081,3816.24242386,3470.57575723,2410.90909067,3176.93939362,2711.75757549,3428.84848451,436.848484805,3798.21212083,313.212121181,3924.42424203,296.727272698,3714.75757539,3218.66666634,3984.6969693,3165.09090877,4692.51515105,3189.8181815,3804.39393901,86.5454545368,3746.69696932,2666.42424216,3847.66666628,3725.5757572,4167.57575716,1302.30303017,4029.51515111,4059.39393899,42.0,42.0,?
2017-08-01 19:56:16.287432,3534.4545451,3816.24242386,3188.27272695,2410.90909067,2884.84848456,2711.75757549,2957.48484819,436.848484805,3317.06060573,313.212121181,3457.18181784,296.727272698,3210.4242421,3218.66666634,3387.6363633,3165.09090877,4098.03030262,3189.8181815,3254.21212089,86.5454545368,3406.18181784,2666.42424216,3267.60606028,3725.5757572,3830.15151477,1302.30303017,3461.81818147,4059.39393899,42.0,42.0,?
2017-08-01 19:56:16.294608,4078.96969656,3816.24242386,3660.15151479,2410.90909067,3336.12121179,2711.75757549,3517.96969662,436.848484805,3888.87878749,313.212121181,4027.45454505,296.727272698,3722.99999963,3218.66666634,3926.48484809,3165.09090877,4687.87878741,3189.8181815,3834.7878784,86.5454545368,3877.03030264,2666.42424216,3786.8787875,3725.5757572,4239.69696927,1302.30303017,4022.3030299,4059.39393899,42.0,42.0,?
2017-08-01 19:56:16.303332,4441.63636319,3816.24242386,3866.21212083,2410.90909067,3564.33333298,2711.75757549,3863.63636325,436.848484805,4238.66666624,313.212121181,4372.09090865,296.727272698,4068.66666626,3218.66666634,4331.90909048,3165.09090877,5097.93939343,3189.8181815,4212.39393897,86.5454545368,4126.87878747,2666.42424216,4179.42424201,3725.5757572,4480.27272682,1302.30303017,4432.87878744,4059.39393899,42.0,42.0,?
2017-08-01 19:56:16.309632,4490.57575713,3816.24242386,3852.81818143,2410.90909067,3579.27272691,2711.75757549,3894.54545416,436.848484805,4276.78787836,313.212121181,4405.57575714,296.727272698,4111.42424201,3218.66666634,4384.96969653,3165.09090877,5135.54545403,3189.8181815,4245.36363594,86.5454545368,4144.39393898,2666.42424216,4237.1212117,3725.5757572,4504.99999955,1302.30303017,4504.48484803,4059.39393899,42.0,42.0,?
2017-08-01 19:56:16.318851,4609.57575711,3354.66666633,3911.03030264,2410.90909067,3654.99999963,2711.75757549,3992.93939354,436.848484805,4390.12121168,313.212121181,4511.69696925,296.727272698,4218.57575715,3218.66666634,4497.27272682,3165.09090877,5238.06060554,3189.8181815,4376.72727229,86.5454545368,4225.27272685,2666.42424216,4360.24242381,3725.5757572,4573.51515106,1302.30303017,4623.48484802,4059.39393899,42.0,42.0,?
2017-08-01 19:56:16.329150,4628.12121166,3354.66666633,3889.90909052,2254.30303008,3653.9696966,2711.75757549,3991.39393899,436.848484805,4398.87878744,313.212121181,4516.33333288,296.727272698,4229.39393897,3218.66666634,4518.39393894,3165.09090877,5244.24242372,3189.8181815,4418.45454501,86.5454545368,4219.09090867,2666.42424216,4402.48484804,3725.5757572,4572.99999954,1302.30303017,4638.93939348,4059.39393899,42.0,42.0,?
2017-08-01 19:56:16.340676,4596.18181772,3354.66666633,3849.72727234,2254.30303008,3630.27272691,2711.75757549,3950.18181779,436.848484805,4353.03030259,313.212121181,4475.12121167,296.727272698,4194.87878746,3218.66666634,4487.48484804,3165.09090877,5226.7272722,3189.8181815,4372.09090865,86.5454545368,4191.27272685,2666.42424216,4360.75757532,3725.5757572,4555.48484803,1302.30303017,4593.60606015,3573.09090873,42.0,42.0,?
2017-08-01 19:56:16.344080,4624.51515105,3354.66666633,3858.99999961,2254.30303008,3658.09090873,2447.99999976,3996.03030263,436.848484805,4382.39393896,313.212121181,4513.75757531,296.727272698,4225.78787837,3218.66666634,4524.57575712,3165.09090877,5292.15151462,3189.8181815,4377.2424238,86.5454545368,4217.54545412,2666.42424216,4352.51515108,3725.5757572,4570.93939348,1302.30303017,4613.69696924,3573.09090873,42.0,42.0,?
2017-08-01 19:56:16.350037,4789.36363588,3354.66666633,3966.66666627,2254.30303008,3783.78787841,2447.99999976,4173.75757534,53.5757575704,4562.18181773,313.212121181,4694.57575711,296.727272698,4388.57575714,3218.66666634,4697.6666662,3165.09090877,5462.66666612,3189.8181815,4558.57575712,86.5454545368,4354.57575714,2666.42424216,4521.99999955,3725.5757572,4698.18181771,1302.30303017,4796.06060558,3573.09090873,42.0,42.0,?
2017-08-01 19:56:16.357513,4951.63636314,3354.66666633,4051.15151475,2254.30303008,3884.75757537,2447.99999976,4306.66666624,53.5757575704,4718.78787832,4178.90909049,4837.27272679,296.727272698,4541.57575712,3218.66666634,4863.03030254,3165.09090877,5601.24242368,3189.8181815,4736.30302983,86.5454545368,4470.48484804,2666.42424216,4719.81818135,3725.5757572,4812.03030255,1302.30303017,4971.21212072,3573.09090873,42.0,42.0,?
2017-08-01 19:56:16.365160,4929.99999951,3354.66666633,3996.54545415,2254.30303008,3845.60606022,2447.99999976,4253.09090867,53.5757575704,4672.42424196,4178.90909049,4784.72727225,4137.69696928,4507.57575713,3218.66666634,4835.72727224,3165.09090877,5563.63636308,3189.8181815,4693.03030256,86.5454545368,4428.75757531,2666.42424216,4705.39393892,3725.5757572,4770.81818134,1302.30303017,4936.6969692,3573.09090873,42.0,42.0,?
2017-08-01 19:56:16.372429,4868.69696921,3354.66666633,3945.54545415,2254.30303008,3803.8787875,2447.99999976,4195.39393897,53.5757575704,4603.39393893,4178.90909049,4723.93939347,4137.69696928,4445.75757531,2728.24242397,4775.45454498,3165.09090877,5524.99999945,3189.8181815,4626.57575711,86.5454545368,4380.3333329,2666.42424216,4622.96969651,3725.5757572,4720.33333286,1302.30303017,4875.39393891,3573.09090873,42.0,42.0,?
2017-08-01 19:56:16.380543,4866.63636315,3354.66666633,3942.96969658,2254.30303008,3812.12121174,2447.99999976,4202.60606019,53.5757575704,4609.57575711,4178.90909049,4731.15151468,4137.69696928,4455.03030258,2728.24242397,4793.48484801,2588.12121186,5566.72727217,3189.8181815,4651.30302984,86.5454545368,4379.81818138,2666.42424216,4604.93939348,3725.5757572,4714.6666662,1302.30303017,4893.93939345,3573.09090873,42.0,42.0,?
2017-08-01 19:56:16.387865,4654.39393893,3354.66666633,3768.33333296,2254.30303008,3643.15151479,2447.99999976,3987.27272687,53.5757575704,4389.09090865,4178.90909049,4513.75757531,4137.69696928,4261.33333291,2728.24242397,4589.48484803,2588.12121186,5343.66666613,2744.72727245,4428.75757531,86.5454545368,4204.15151473,2666.42424216,4401.96969653,3725.5757572,4566.81818136,1302.30303017,4662.63636317,3573.09090873,42.0,42.0,?
2017-08-01 19:56:16.397644,4152.63636322,3354.66666633,3417.51515117,2254.30303008,3277.90909058,2447.99999976,3498.90909056,53.5757575704,3875.4848481,4178.90909049,4013.54545414,4137.69696928,3786.8787875,2728.24242397,4061.96969656,2588.12121186,4781.63636316,2744.72727245,3893.51515113,3787.39393902,3827.57575719,2666.42424216,3913.0909087,3725.5757572,4231.96969655,1302.30303017,4106.78787838,3573.09090873,42.0,42.0,?
2017-08-01 19:56:16.403617,3749.78787841,3354.66666633,3201.66666635,2254.30303008,3023.42424212,2447.99999976,3133.15151484,53.5757575704,3490.66666632,4178.90909049,3634.39393903,4137.69696928,3412.36363602,2728.24242397,3628.21212085,2588.12121186,4338.09090866,2744.72727245,3489.63636329,3787.39393902,3556.60606025,2254.30303008,3494.27272692,3725.5757572,3970.78787839,1302.30303017,3676.12121175,3573.09090873,42.0,42.0,?
2017-08-01 19:56:16.411637,3664.27272691,3354.66666633,3223.30302998,2254.30303008,3001.78787849,2447.99999976,3076.99999969,53.5757575704,3432.96969663,4178.90909049,3578.7575754,4137.69696928,3336.12121179,2728.24242397,3512.30302995,2588.12121186,4213.93939352,2744.72727245,3399.48484814,3787.39393902,3527.7575754,2254.30303008,3394.84848451,3309.333333,3934.72727233,1302.30303017,3577.72727237,3573.09090873,42.0,42.0,?
2017-08-01 19:56:16.421690,3820.36363598,3354.66666633,3387.12121178,2254.30303008,3139.84848453,2447.99999976,3240.30302998,53.5757575704,3602.45454509,4178.90909049,3752.36363599,4137.69696928,3486.5454542,2728.24242397,3654.99999963,2588.12121186,4356.12121169,2744.72727245,3554.03030267,3787.39393902,3663.24242388,2254.30303008,3561.24242389,3309.333333,4049.09090869,989.090908992,3730.21212084,3573.09090873,42.0,42.0,?
2017-08-01 19:56:16.427492,3964.09090869,3354.66666633,3498.90909056,2254.30303008,3248.03030271,2447.99999976,3387.6363633,53.5757575704,3749.2727269,4178.90909049,3892.4848481,4137.69696928,3631.81818146,2728.24242397,3824.99999962,2588.12121186,4544.66666621,2744.72727245,3721.45454508,3775.03030265,3770.39393902,2254.30303008,3693.63636327,3309.333333,4144.39393898,989.090908992,3897.63636325,3573.09090873,42.0,42.0,?
2017-08-01 19:56:16.435826,3911.03030264,3354.66666633,3450.48484814,2254.30303008,3198.06060574,2447.99999976,3340.75757542,53.5757575704,3700.33333296,4178.90909049,3837.36363598,4137.69696928,3591.12121176,2728.24242397,3795.63636326,2588.12121186,4520.96969652,2744.72727245,3679.21212084,3775.03030265,3726.60606023,2246.06060584,3627.18181782,3309.333333,4109.36363595,989.090908992,3866.21212083,3573.09090873,42.0,42.0,?
2017-08-01 19:56:16.443207,3674.57575721,3354.66666633,3279.45454513,2254.30303008,3008.9999997,2447.99999976,3090.39393908,53.5757575704,3453.06060572,4178.90909049,3594.21212085,4137.69696928,3364.96969663,2728.24242397,3545.78787843,2588.12121186,4249.99999958,2744.72727245,3417.51515117,3775.03030265,3537.03030268,2246.06060584,3409.78787845,3301.09090876,3937.30302991,989.090908992,3606.57575722,3573.09090873,42.0,42.0,?
2017-08-01 19:56:16.450918,3211.45454513,3354.66666633,2970.36363607,2254.30303008,2668.99999973,2447.99999976,2619.03030277,53.5757575704,2969.84848455,4178.90909049,3120.27272696,4137.69696928,2925.54545425,2728.24242397,3052.78787848,2588.12121186,3743.60606023,2744.72727245,2920.3939391,3775.03030265,3178.48484817,2246.06060584,2944.60606031,3301.09090876,3612.24242388,989.090908992,3091.93939363,3573.09090873,42.0,42.0,?
2017-08-01 19:56:16.458216,2746.78787851,3354.66666633,2714.84848458,2254.30303008,2372.78787855,2447.99999976,2197.1212119,53.5757575704,2513.93939369,4178.90909049,2681.87878761,4137.69696928,2508.27272702,2728.24242397,2564.42424217,2588.12121186,3260.39393907,2744.72727245,2443.36363612,3775.03030265,2848.7878785,2246.06060584,2450.57575733,3301.09090876,3297.48484816,989.090908992,2596.87878762,3573.09090873,42.0,42.0,?
2017-08-01 19:56:16.465860,2575.7575755,3354.66666633,2692.69696943,2254.30303008,2303.75757553,2447.99999976,2077.09090888,53.5757575704,2375.36363613,4178.90909049,2553.60606035,4137.69696928,2375.36363613,2728.24242397,2370.72727249,2588.12121186,3062.06060575,2744.72727245,2279.54545432,3775.03030265,2760.18181791,2246.06060584,2288.81818159,3301.09090876,3203.21212089,989.090908992,2416.57575733,3573.09090873,42.0,42.0,?
2017-08-01 19:56:16.475994,2497.96969672,3354.66666633,2700.93939367,2254.30303008,2268.7272725,2447.99999976,2018.87878768,53.5757575704,2324.87878765,4178.90909049,2494.36363611,4137.69696928,2316.6363634,2728.24242397,2279.0303028,2588.12121186,2967.27272698,2744.72727245,2214.1212119,3775.03030265,2721.03030276,2246.06060584,2236.27272705,3301.09090876,3169.72727241,989.090908992,2313.54545431,3573.09090873,42.0,42.0,?
2017-08-01 19:56:16.482596,2415.5454543,3354.66666633,2691.15151488,2254.30303008,2220.8181816,2447.99999976,1954.48484829,53.5757575704,2260.99999977,4178.90909049,2429.96969673,4137.69696928,2249.66666644,2728.24242397,2203.8181816,2588.12121186,2905.96969668,2744.72727245,2134.27272706,3775.03030265,2664.3636361,2246.06060584,2126.03030282,3301.09090876,3112.03030272,989.090908992,2212.06060584,3573.09090873,42.0,42.0,?
2017-08-01 19:56:16.491462,2642.72727246,3354.66666633,2908.03030274,2254.30303008,2407.81818158,2447.99999976,2196.09090887,53.5757575704,2500.5454543,4178.90909049,2676.21212094,4137.69696928,2463.96969672,2728.24242397,2434.60606036,2588.12121186,3143.45454514,2744.72727245,2361.45454522,3775.03030265,2860.63636335,2246.06060584,2318.18181795,3301.09090876,3282.0303027,989.090908992,2458.81818157,3573.09090873,42.0,42.0,?
2017-08-01 19:56:16.497604,2953.36363607,3354.66666633,3126.45454514,2254.30303008,2615.42424216,2447.99999976,2493.8484846,53.5757575704,2805.51515123,4178.90909049,2974.9999997,4137.69696928,2744.21212094,2728.24242397,2750.90909063,2588.12121186,3454.60606026,2744.72727245,2665.39393913,3775.03030265,3088.33333302,2246.06060584,2643.24242398,3301.09090876,3494.27272692,989.090908992,2790.5757573,3573.09090873,42.0,42.0,?
2017-08-01 19:56:16.506165,2913.18181789,3354.66666633,3060.51515121,2254.30303008,2555.66666641,2447.99999976,2433.06060582,53.5757575704,2750.90909063,4178.90909049,2916.27272698,4137.69696928,2699.39393912,2728.24242397,2719.99999973,2588.12121186,3413.90909057,2744.72727245,2614.90909065,3775.03030265,3031.66666636,2246.06060584,2623.15151489,3301.09090876,3455.12121178,989.090908992,2752.96969669,3573.09090873,42.0,42.0,?
2017-08-01 19:56:16.513881,2891.54545426,3354.66666633,3054.84848454,2254.30303008,2549.99999974,2447.99999976,2397.51515128,53.5757575704,2726.18181791,4178.90909049,2895.15151486,4137.69696928,2676.72727246,2728.24242397,2688.06060579,2588.12121186,3369.60606027,2744.72727245,2613.3636361,3775.03030265,3026.51515121,2246.06060584,2607.18181792,3301.09090876,3448.93939359,989.090908992,2739.06060579,3573.09090873,42.0,42.0,?
2017-08-01 19:56:16.521787,3059.99999969,3354.66666633,3181.06060574,2254.30303008,2672.09090882,2447.99999976,2569.0606058,53.5757575704,2906.48484819,4178.90909049,3066.69696939,4137.69696928,2837.96969669,2728.24242397,2861.66666638,2588.12121186,3542.18181783,2744.72727245,2811.1818179,3775.03030265,3154.27272696,2246.06060584,2802.42424214,3301.09090876,3558.1515148,989.090908992,2917.81818153,3573.09090873,42.0,42.0,?
2017-08-01 19:56:16.529501,2906.99999971,3354.66666633,3038.36363606,2254.30303008,2531.4545452,2447.99999976,2435.12121188,53.5757575704,2757.60606033,4178.90909049,2915.24242395,4137.69696928,2706.60606034,2728.24242397,2740.09090882,2588.12121186,3436.06060572,2744.72727245,2631.90909065,3775.03030265,3011.06060576,2246.06060584,2652.51515125,3301.09090876,3439.66666632,989.090908992,2752.96969669,3573.09090873,42.0,42.0,?
2017-08-01 19:56:16.537404,2530.42424217,3354.66666633,2782.33333306,2254.30303008,2273.36363614,2447.99999976,2083.27272706,53.5757575704,2384.6363634,4178.90909049,2554.63636338,4137.69696928,2368.15151491,2728.24242397,2364.54545431,2588.12121186,3072.36363606,2744.72727245,2223.39393917,3775.03030265,2726.18181791,2246.06060584,2233.69696947,3301.09090876,3173.33333302,989.090908992,2366.60606037,3573.09090873,42.0,42.0,?
2017-08-01 19:56:16.544336,2437.18181794,3354.66666633,2768.42424215,2254.30303008,2240.90909069,2447.99999976,1995.18181798,53.5757575704,2297.06060583,4178.90909049,2471.69696945,4137.69696928,2288.81818159,2728.24242397,2250.69696947,2588.12121186,2957.48484819,2744.72727245,2144.57575736,3775.03030265,2678.78787852,2246.06060584,2121.39393918,3301.09090876,3116.66666635,989.090908992,2266.15151492,3573.09090873,42.0,42.0,?
2017-08-01 19:56:16.553842,2318.69696947,3354.66666633,2701.45454518,2254.30303008,2139.42424221,2447.99999976,1868.96969678,53.5757575704,2167.75757554,4178.90909049,2343.42424219,4137.69696928,2175.99999978,2728.24242397,2121.39393918,2588.12121186,2826.63636335,2744.72727245,2021.96969677,3775.03030265,2591.72727247,2246.06060584,2008.06060586,3301.09090876,3046.6060603,989.090908992,2111.60606039,3573.09090873,42.0,42.0,?
2017-08-01 19:56:16.560285,2087.9090907,3354.66666633,2572.15151489,2254.30303008,1975.60606041,2447.99999976,1653.12121196,53.5757575704,1943.66666647,4178.90909049,2123.96969676,4137.69696928,1956.54545435,2728.24242397,1860.21212103,2588.12121186,2557.21212096,2744.72727245,1783.96969679,3775.03030265,2427.39393915,2246.06060584,1790.15151497,3301.09090876,2888.45454517,989.090908992,1862.7878786,3573.09090873,42.0,42.0,?
2017-08-01 19:56:16.568201,2261.51515129,3354.66666633,2759.66666639,2254.30303008,2147.15151494,2447.99999976,1841.15151497,53.5757575704,2136.33333312,4178.90909049,2319.21212098,4137.69696928,2117.27272706,2728.24242397,1994.66666647,2588.12121186,2677.24242397,2744.72727245,1984.36363617,3775.03030265,2593.27272701,2246.06060584,1987.45454526,3301.09090876,3025.48484818,989.090908992,2061.63636343,3573.09090873,42.0,42.0,?
2017-08-01 19:56:16.578262,2657.15151489,3354.66666633,3044.54545424,2254.30303008,2435.63636339,2447.99999976,2232.15151493,53.5757575704,2534.54545429,4178.90909049,2714.84848458,4137.69696928,2489.21212096,2728.24242397,2413.99999976,2588.12121186,3105.84848454,2744.72727245,2389.27272703,3775.03030265,2893.60606032,2246.06060584,2381.54545431,3301.09090876,3305.7272724,989.090908992,2483.5454543,3573.09090873,42.0,42.0,?
2017-08-01 19:56:16.587949,2690.63636337,3354.66666633,3018.78787849,2254.30303008,2416.57575733,2447.99999976,2258.93939371,53.5757575704,2560.30303005,4178.90909049,2736.48484821,4137.69696928,2525.27272702,2728.24242397,2504.1515149,2588.12121186,3217.63636331,2744.72727245,2402.66666643,3775.03030265,2883.81818153,2246.06060584,2391.84848461,3301.09090876,3307.27272694,989.090908992,2520.12121187,3573.09090873,42.0,42.0,?
2017-08-01 19:56:16.593461,2535.06060581,3354.66666633,2896.69696941,2254.30303008,2298.60606038,2447.99999976,2102.33333312,53.5757575704,2400.60606037,4178.90909049,2578.84848459,4137.69696928,2375.36363613,2728.24242397,2345.48484825,2588.12121186,3053.81818151,2744.72727245,2241.93939372,3775.03030265,2760.69696942,2246.06060584,2240.90909069,3301.09090876,3198.06060574,989.090908992,2360.9393937,3573.09090873,42.0,42.0,?
2017-08-01 19:56:16.599091,2701.9696967,3354.66666633,3036.30303,2254.30303008,2439.75757551,2447.99999976,2260.99999977,53.5757575704,2566.48484823,4178.90909049,2744.72727245,4137.69696928,2519.09090884,2728.24242397,2480.45454521,2588.12121186,3177.45454514,2744.72727245,2420.69696945,3775.03030265,2903.90909062,2246.06060584,2419.66666642,3301.09090876,3313.96969664,989.090908992,2531.96969672,3573.09090873,42.0,42.0,?
2017-08-01 19:56:16.608612,3100.69696939,3354.66666633,3305.21212088,2254.30303008,2716.39393912,2447.99999976,2640.15151489,53.5757575704,2962.63636334,4178.90909049,3129.03030272,4137.69696928,2875.57575729,2728.24242397,2886.90909062,2588.12121186,3599.363636,2744.72727245,2818.39393911,3775.03030265,3195.99999968,2246.06060584,2787.99999972,3301.09090876,3576.18181782,989.090908992,2943.57575728,3573.09090873,42.0,42.0,?
2017-08-01 19:56:16.615227,3420.60606026,3354.66666633,3475.72727238,2254.30303008,2915.75757547,2447.99999976,2939.96969668,53.5757575704,3279.96969664,4178.90909049,3431.42424208,4137.69696928,3160.45454514,2728.24242397,3233.60606028,2588.12121186,3953.27272688,2744.72727245,3137.27272696,3775.03030265,3409.27272693,2246.06060584,3092.45454515,3301.09090876,3778.63636326,989.090908992,3288.21212088,3573.09090873,42.0,42.0,?
2017-08-01 19:56:16.623170,3556.09090874,3354.66666633,3507.1515148,2254.30303008,2988.90909061,2447.99999976,3059.48484818,53.5757575704,3410.30302996,4178.90909049,3557.12121177,4137.69696928,3284.09090876,2728.24242397,3388.15151481,2588.12121186,4094.93939353,2744.72727245,3288.21212088,3775.03030265,3489.12121177,2246.06060584,3264.51515119,3301.09090876,3856.42424204,989.090908992,3447.90909056,3573.09090873,42.0,42.0,?
2017-08-01 19:56:16.632829,3659.63636327,3354.66666633,3546.81818146,2254.30303008,3057.93939363,2447.99999976,3150.15151484,53.5757575704,3506.63636329,4178.90909049,3653.9696966,4137.69696928,3378.36363603,2728.24242397,3500.96969662,2588.12121186,4204.66666625,2744.72727245,3398.96969663,3775.03030265,3559.18181783,2246.06060584,3382.99999966,3301.09090876,3926.99999961,989.090908992,3568.96969661,3573.09090873,42.0,42.0,?
2017-08-01 19:56:16.638636,3850.75757537,3354.66666633,3649.84848448,2254.30303008,3182.60606029,2447.99999976,3321.18181785,53.5757575704,3682.30302993,4178.90909049,3829.63636325,4137.69696928,3546.81818146,2728.24242397,3700.33333296,2588.12121186,4408.15151471,2744.72727245,3585.96969661,3775.03030265,3689.51515115,2246.06060584,3571.03030267,3301.09090876,4045.9999996,989.090908992,3769.36363599,3573.09090873,42.0,42.0,?
2017-08-01 19:56:16.647850,3984.18181778,3354.66666633,3691.57575721,2254.30303008,3257.81818149,2447.99999976,3443.27272693,53.5757575704,3803.8787875,4178.90909049,3949.66666627,4137.69696928,3664.27272691,2728.24242397,3841.99999962,2588.12121186,4557.54545409,2744.72727245,3731.75757538,3775.03030265,3779.15151477,2246.06060584,3725.06060569,3301.09090876,4129.45454504,989.090908992,3904.84848446,3573.09090873,42.0,42.0,?
2017-08-01 19:56:16.660743,4103.69696929,3354.66666633,3733.81818144,2254.30303008,3338.69696936,2447.99999976,3559.18181783,53.5757575704,3926.99999961,4178.90909049,4067.12121171,4137.69696928,3773.99999962,2728.24242397,3966.15151475,2588.12121186,4685.30302983,2744.72727245,3865.69696931,3775.03030265,3869.30302992,2246.06060584,3864.15151477,3301.09090876,4217.54545412,989.090908992,4042.9090905,3573.09090873,42.0,42.0,?
2017-08-01 19:56:16.662709,4186.1212117,3354.66666633,3747.72727235,2254.30303008,3384.03030269,2447.99999976,3623.57575721,53.5757575704,4001.18181778,4178.90909049,4137.18181777,4137.69696928,3847.66666628,2728.24242397,4057.84848444,2588.12121186,4770.81818134,2744.72727245,3937.81818142,3775.03030265,3907.93939355,2246.06060584,3950.6969693,3301.09090876,4255.66666624,989.090908992,4152.12121171,3573.09090873,42.0,42.0,?
2017-08-01 19:56:16.671530,4147.48484807,3354.66666633,3680.75757539,2254.30303008,3338.69696936,2447.99999976,3572.0606057,53.5757575704,3945.03030264,4178.90909049,4085.66666626,4137.69696928,3809.54545416,2728.24242397,4032.09090869,2588.12121186,4753.30302983,2744.72727245,3882.69696931,3775.03030265,3863.63636325,2246.06060584,3887.84848446,3301.09090876,4217.03030261,989.090908992,4109.87878747,3573.09090873,42.0,42.0,?
2017-08-01 19:56:16.677115,4113.48484807,3354.66666633,3643.15151479,2254.30303008,3316.0303027,2447.99999976,3539.09090874,53.5757575704,3908.96969658,4178.90909049,4051.15151475,4137.69696928,3779.15151477,2728.24242397,4005.3030299,2588.12121186,4741.45454498,2744.72727245,3855.39393901,3775.03030265,3844.57575719,2246.06060584,3822.93939356,3301.09090876,4197.96969655,989.090908992,4061.45454505,3573.09090873,42.0,42.0,?
2017-08-01 19:56:16.685538,4103.18181777,3354.66666633,3627.18181782,2254.30303008,3312.93939361,2447.99999976,3527.7575754,53.5757575704,3899.18181779,4178.90909049,4037.24242384,4137.69696928,3763.69696932,2728.24242397,3983.66666627,2588.12121186,4713.63636317,2744.72727245,3854.36363598,3775.03030265,3840.45454507,2246.06060584,3818.81818144,3301.09090876,4201.57575716,989.090908992,4053.72727232,3573.09090873,42.0,42.0,?
2017-08-01 19:56:16.694523,4038.78787838,3354.66666633,3573.60606025,2254.30303008,3267.09090876,2447.99999976,3463.87878753,53.5757575704,3829.63636325,4178.90909049,3968.21212082,4137.69696928,3697.24242387,2728.24242397,3908.96969658,2588.12121186,4633.27272681,2744.72727245,3773.99999962,3775.03030265,3793.5757572,2246.06060584,3773.48484811,3301.09090876,4169.1212117,989.090908992,3992.93939354,3573.09090873,42.0,42.0,?
2017-08-01 19:56:16.702735,4058.87878747,3354.66666633,3591.12121176,2254.30303008,3286.15151482,2447.99999976,3483.45454511,53.5757575704,3851.27272689,4178.90909049,3991.90909051,4137.69696928,3718.87878751,2728.24242397,3933.6969693,2588.12121186,4668.30302984,2744.72727245,3782.24242386,3775.03030265,3813.66666629,2246.06060584,3783.27272689,3301.09090876,4179.42424201,989.090908992,4007.87878748,3573.09090873,42.0,42.0,?
2017-08-01 19:56:16.709149,4135.12121171,3354.66666633,3636.45454509,2254.30303008,3333.54545421,2447.99999976,3548.87878752,53.5757575704,3923.90909052,4178.90909049,4064.03030262,4137.69696928,3796.15151477,2728.24242397,4022.3030299,2588.12121186,4756.90909043,2744.72727245,3870.33333295,3775.03030265,3876.51515113,2246.06060584,3854.87878749,3301.09090876,4241.24242382,989.090908992,4075.87878747,3573.09090873,42.0,42.0,?
2017-08-01 19:56:16.722086,3975.42424203,3354.66666633,3504.57575723,2254.30303008,3206.30302998,2447.99999976,3389.18181784,53.5757575704,3758.03030265,4178.90909049,3903.81818143,4137.69696928,3654.99999963,2728.24242397,3870.33333295,2588.12121186,4586.90909045,2744.72727245,3710.12121175,3775.03030265,3752.36363599,2246.06060584,3715.2727269,3301.09090876,4137.69696928,989.090908992,3909.48484809,3573.09090873,42.0,42.0,?
2017-08-01 19:56:16.732178,4017.66666626,3354.66666633,3580.81818146,2254.30303008,3279.45454513,2447.99999976,3443.27272693,53.5757575704,3817.27272689,4178.90909049,3962.03030263,4137.69696928,3691.57575721,2728.24242397,3881.66666628,2588.12121186,4583.30302984,2744.72727245,3768.33333296,3775.03030265,3814.69696932,2246.06060584,3778.12121174,3301.09090876,4184.06060564,989.090908992,3976.96969657,3573.09090873,42.0,42.0,?
2017-08-01 19:56:16.733116,4017.66666626,3354.66666633,3580.81818146,2254.30303008,3279.45454513,2447.99999976,3443.27272693,53.5757575704,3817.27272689,4178.90909049,3962.03030263,4137.69696928,3691.57575721,2728.24242397,3881.66666628,2588.12121186,4583.30302984,2744.72727245,3768.33333296,3775.03030265,3814.69696932,2246.06060584,3778.12121174,3301.09090876,4184.06060564,989.090908992,3976.96969657,3573.09090873,42.0,42.0,?
2017-08-01 19:56:16.746456,4048.57575717,3354.66666633,3577.72727237,2254.30303008,3278.4242421,2447.99999976,3463.36363602,53.5757575704,3832.72727234,4178.90909049,3977.48484809,4137.69696928,3714.75757539,2728.24242397,3918.24242385,2588.12121186,4622.45454499,2744.72727245,3811.09090871,3775.03030265,3818.30302992,2246.06060584,3802.33333295,3301.09090876,4192.30302988,989.090908992,4000.66666627,3573.09090873,42.0,42.0,?
2017-08-01 19:56:16.752204,3853.84848446,3354.66666633,3428.33333299,2254.30303008,3132.12121181,2447.99999976,3296.96969664,53.5757575704,3646.75757539,4178.90909049,3798.21212083,4137.69696928,3548.36363601,2728.24242397,3746.18181781,2588.12121186,4461.72727228,2744.72727245,3584.42424207,3775.03030265,3665.30302994,2246.06060584,3582.87878752,3301.09090876,4057.84848444,989.090908992,3794.09090871,3573.09090873,42.0,42.0,?
2017-08-01 19:56:16.762623,3709.09090872,3354.66666633,3350.54545421,2254.30303008,3043.51515121,2447.99999976,3160.45454514,53.5757575704,3514.36363601,4178.90909049,3665.81818145,4137.69696928,3424.21212087,2728.24242397,3600.39393903,2588.12121186,4309.24242381,2744.72727245,3423.18181784,3775.03030265,3565.87878752,2246.06060584,3429.87878754,3301.09090876,3964.09090869,989.090908992,3637.48484812,3573.09090873,42.0,42.0,?
2017-08-01 19:56:16.766837,3695.69696933,3354.66666633,3368.06060572,2254.30303008,3043.51515121,2447.99999976,3127.99999969,53.5757575704,3497.36363601,4178.90909049,3643.6666663,4137.69696928,3400.51515118,2728.24242397,3556.60606025,2588.12121186,4247.424242,2744.72727245,3427.30302996,3775.03030265,3564.33333298,2246.06060584,3423.69696935,3301.09090876,3954.81818142,989.090908992,3611.21212085,3573.09090873,42.0,42.0,?
2017-08-01 19:56:16.771204,3789.96969659,3354.66666633,3443.27272693,2254.30303008,3115.63636332,2447.99999976,3235.66666634,53.5757575704,3596.78787843,4178.90909049,3744.63636326,4137.69696928,3482.93939359,2728.24242397,3642.12121176,2588.12121186,4343.24242381,2744.72727245,3519.51515116,3775.03030265,3648.81818145,2246.06060584,3514.87878753,3301.09090876,4032.09090869,989.090908992,3703.93939357,3573.09090873,42.0,42.0,?
2017-08-01 19:56:16.778796,3810.57575719,3354.66666633,3446.87878753,2254.30303008,3129.03030272,2447.99999976,3288.21212088,53.5757575704,3635.93939358,4178.90909049,3784.81818144,4137.69696928,3519.51515116,2728.24242397,3697.75757539,2588.12121186,4418.45454501,2744.72727245,3527.7575754,3775.03030265,3663.24242388,2246.06060584,3537.54545419,3301.09090876,4042.9090905,989.090908992,3730.72727235,3573.09090873,42.0,42.0,?
2017-08-01 19:56:16.787562,3597.30302994,3354.66666633,3286.15151482,2254.30303008,2967.78787849,2447.99999976,3066.18181788,53.5757575704,3414.42424208,4178.90909049,3565.87878752,4137.69696928,3328.39393906,2728.24242397,3496.33333298,2588.12121186,4202.09090867,2744.72727245,3308.81818149,3775.03030265,3492.21212086,2246.06060584,3326.333333,3301.09090876,3892.4848481,989.090908992,3503.03030268,3573.09090873,42.0,42.0,?
2017-08-01 19:56:16.794979,3344.36363603,3354.66666633,3136.75757544,2254.30303008,2793.15151487,2447.99999976,2802.42424214,53.5757575704,3147.06060575,4178.90909049,3308.81818149,4137.69696928,3091.93939363,2728.24242397,3214.03030271,2588.12121186,3896.60606022,2744.72727245,3062.06060575,3775.03030265,3308.81818149,2246.06060584,3065.15151485,3301.09090876,3726.60606023,989.090908992,3228.96969665,3573.09090873,42.0,42.0,?
2017-08-01 19:56:16.804748,3384.54545421,3354.66666633,3218.15151483,2254.30303008,2846.21212093,2447.99999976,2856.51515123,53.5757575704,3190.33333301,4178.90909049,3364.96969663,4137.69696928,3133.15151484,2728.24242397,3234.63636331,2588.12121186,3923.90909052,2744.72727245,3114.60606029,3775.03030265,3353.12121179,2246.06060584,3111.5151512,3301.09090876,3755.96969659,989.090908992,3271.7272724,3573.09090873,42.0,42.0,?
2017-08-01 19:56:16.810299,3576.18181782,3354.66666633,3369.60606027,2254.30303008,2989.42424213,2447.99999976,3042.9999997,53.5757575704,3382.99999966,4178.90909049,3550.93939358,4137.69696928,3307.78787846,2728.24242397,3424.72727238,2588.12121186,4118.12121171,2744.72727245,3306.75757543,3775.03030265,3498.90909056,2246.06060584,3322.21212088,3301.09090876,3889.393939,989.090908992,3481.90909056,3573.09090873,42.0,42.0,?
2017-08-01 19:56:16.817858,3445.8484845,3354.66666633,3251.63636331,2254.30303008,2874.54545426,2447.99999976,2903.3939391,53.5757575704,3254.7272724,4178.90909049,3404.6363633,4137.69696928,3184.66666635,2728.24242397,3298.51515119,2588.12121186,3975.42424203,2744.72727245,3159.42424211,3775.03030265,3381.45454512,2246.06060584,3189.30302998,3301.09090876,3788.93939356,989.090908992,3353.12121179,3573.09090873,42.0,42.0,?
2017-08-01 19:56:16.827630,3062.57575727,3490.66666632,2989.42424213,2254.30303008,2597.90909065,2447.99999976,2542.78787853,53.5757575704,2883.81818153,4178.90909049,3038.87878757,4137.69696928,2838.4848482,2728.24242397,2911.12121183,2588.12121186,3590.60606025,2744.72727245,2755.54545427,3775.03030265,3088.33333302,2246.06060584,2773.06060578,3301.09090876,3526.21212086,989.090908992,2940.48484819,3573.09090873,42.0,42.0,?
2017-08-01 19:56:16.834544,2994.57575728,3490.66666632,3000.24242394,2274.90909068,2585.54545429,2447.99999976,2508.27272702,53.5757575704,2837.45454517,4178.90909049,3004.36363606,4137.69696928,2782.33333306,2728.24242397,2831.27272699,2588.12121186,3543.72727237,2744.72727245,2692.18181791,3775.03030265,3066.18181788,2246.06060584,2672.60606034,3301.09090876,3493.75757541,989.090908992,2852.39393911,3573.09090873,42.0,42.0,?
2017-08-01 19:56:16.841887,3210.4242421,3490.66666632,3184.66666635,2274.90909068,2758.63636336,2447.99999976,2725.66666639,53.5757575704,3056.9090906,4178.90909049,3222.27272695,4137.69696928,2981.6969694,2728.24242397,3048.15151485,2588.12121186,3762.66666629,2744.72727245,2930.18181789,3775.03030265,3244.4242421,2246.06060584,2897.21212092,3301.09090876,3641.09090873,989.090908992,3079.06060575,3770.90909053,42.0,42.0,?
2017-08-01 19:56:16.849893,3244.93939361,3490.66666632,3202.69696938,2274.90909068,2766.36363609,2456.242424,2741.63636336,53.5757575704,3071.84848454,4178.90909049,3237.21212089,4137.69696928,3001.78787849,2728.24242397,3068.24242394,2588.12121186,3746.18181781,2744.72727245,2954.90909061,3775.03030265,3261.93939361,2246.06060584,2974.48484819,3301.09090876,3665.81818145,989.090908992,3118.72727242,3770.90909053,42.0,42.0,?
2017-08-01 19:56:16.857585,3299.54545422,3490.66666632,3246.48484816,2274.90909068,2804.4848482,2456.242424,2797.27272699,131.878787866,3127.99999969,4178.90909049,3294.90909058,4137.69696928,3038.87878757,2728.24242397,3093.99999969,2588.12121186,3772.45454508,2744.72727245,3003.33333303,3775.03030265,3303.15151482,2246.06060584,3037.33333303,3301.09090876,3700.84848448,989.090908992,3174.87878756,3770.90909053,42.0,42.0,?
2017-08-01 19:56:16.865536,3641.60606024,3490.66666632,3484.99999965,2274.90909068,3056.9090906,2456.242424,3136.75757544,131.878787866,3482.93939359,4203.63636322,3639.03030267,4137.69696928,3351.57575724,2728.24242397,3449.96969662,2588.12121186,4166.03030261,2744.72727245,3367.03030269,3775.03030265,3562.78787843,2246.06060584,3338.18181785,3301.09090876,3929.06060567,989.090908992,3541.66666631,3770.90909053,42.0,42.0,?
2017-08-01 19:56:16.873058,3795.12121174,3490.66666632,3545.78787843,2274.90909068,3138.8181815,2456.242424,3266.57575725,131.878787866,3621.51515115,4203.63636322,3768.33333296,4215.99999958,3493.75757541,2728.24242397,3646.75757539,2588.12121186,4362.81818138,2744.72727245,3503.5454542,3775.03030265,3653.45454509,2246.06060584,3476.75757541,3301.09090876,4027.45454505,989.090908992,3706.51515114,3770.90909053,42.0,42.0,?
2017-08-01 19:56:16.880901,3528.27272692,3490.66666632,3319.6363633,2274.90909068,2920.3939391,2456.242424,2987.87878758,131.878787866,3337.66666633,4203.63636322,3488.60606026,4215.99999958,3243.90909058,2851.87878759,3389.69696936,2588.12121186,4081.54545414,2744.72727245,3212.99999968,3775.03030265,3427.81818148,2246.06060584,3224.84848453,3301.09090876,3833.24242386,989.090908992,3425.2424239,3770.90909053,42.0,42.0,?
2017-08-01 19:56:16.890990,3381.45454512,3490.66666632,3261.4242421,2274.90909068,2797.78787851,2456.242424,2798.81818154,131.878787866,3194.45454514,4203.63636322,3306.24242391,4215.99999958,3066.69696939,2851.87878759,3175.39393908,2794.1818179,3895.57575719,2744.72727245,3044.03030273,3775.03030265,3304.18181785,2246.06060584,3099.66666636,3301.09090876,3717.84848448,989.090908992,3226.90909059,3770.90909053,42.0,42.0,?
2017-08-01 19:56:16.897977,3381.45454512,3490.66666632,3261.4242421,2274.90909068,2849.30303002,2456.242424,2842.09090881,131.878787866,3194.45454514,4203.63636322,3353.12121179,4215.99999958,3109.96969666,2851.87878759,3204.24242392,2794.1818179,3895.57575719,2888.96969668,3104.30302999,3775.03030265,3360.333333,2246.06060584,3099.66666636,3301.09090876,3762.15151478,989.090908992,3268.63636331,3770.90909053,42.0,42.0,?
2017-08-01 19:56:16.904165,3451.51515117,3490.66666632,3314.48484815,2274.90909068,2905.45454516,2456.242424,2921.93939365,131.878787866,3265.0303027,4203.63636322,3426.78787845,4215.99999958,3172.30302999,2851.87878759,3261.4242421,2794.1818179,3931.12121173,2888.96969668,3160.96969665,3989.33333293,3410.30302996,2246.06060584,3189.8181815,3301.09090876,3805.93939356,989.090908992,3322.72727239,3770.90909053,42.0,42.0,?
2017-08-01 19:56:16.913172,3685.39393903,3490.66666632,3482.42424208,2274.90909068,3082.66666636,2456.242424,3174.36363605,131.878787866,3510.75757541,4203.63636322,3675.09090872,4215.99999958,3392.27272693,2851.87878759,3501.48484813,2794.1818179,4198.99999958,2888.96969668,3398.96969663,3989.33333293,3597.30302994,2283.15151492,3390.21212087,3301.09090876,3973.36363597,989.090908992,3571.54545419,3770.90909053,42.0,42.0,?
2017-08-01 19:56:16.922954,3972.84848445,3490.66666632,3657.06060569,2274.90909068,3273.78787846,2456.242424,3451.51515117,131.878787866,3804.39393901,4203.63636322,3956.36363597,4215.99999958,3664.78787842,2851.87878759,3836.33333295,2794.1818179,4570.93939348,2888.96969668,3694.6666663,3989.33333293,3805.93939356,2283.15151492,3660.6666663,3346.42424209,4163.96969655,989.090908992,3912.06060567,3770.90909053,42.0,42.0,?
2017-08-01 19:56:16.928652,3827.06060568,3490.66666632,3497.87878753,2274.90909068,3133.15151484,2456.242424,3278.4242421,131.878787866,3644.18181782,4203.63636322,3786.36363599,4215.99999958,3528.78787844,2851.87878759,3715.78787842,2794.1818179,4425.66666622,2888.96969668,3544.24242389,3989.33333293,3663.75757539,2283.15151492,3545.27272692,3346.42424209,4052.69696929,1096.24242413,3780.1818178,3770.90909053,42.0,42.0,?
2017-08-01 19:56:16.937564,3426.27272693,3490.66666632,3204.75757544,2274.90909068,2837.96969669,2456.242424,2866.30303002,131.878787866,3216.60606028,4203.63636322,3375.78787845,4215.99999958,3152.72727241,2851.87878759,3280.48484816,2794.1818179,3955.33333294,2888.96969668,3143.96969666,3993.45454506,3354.15151482,2283.15151492,3159.93939362,3346.42424209,3773.48484811,1096.24242413,3332.51515118,3770.90909053,42.0,42.0,?
2017-08-01 19:56:16.943609,3208.87878756,3490.66666632,3085.24242393,2274.90909068,2699.90909064,2456.242424,2658.18181792,131.878787866,2984.78787849,4203.63636322,3163.03030271,4215.99999958,2950.78787849,2851.87878759,3032.18181788,2794.1818179,3711.15151478,2888.96969668,2911.12121183,3993.45454506,3210.4242421,2274.90909068,2939.45454516,3346.42424209,3635.42424206,1096.24242413,3079.06060575,3770.90909053,42.0,42.0,?
2017-08-01 19:56:16.955940,3070.81818151,3490.66666632,3025.9999997,2274.90909068,2621.09090883,2456.242424,2549.48484823,131.878787866,2865.27272699,4203.63636322,3045.06060576,4215.99999958,2829.72727244,2851.87878759,2898.75757547,2794.1818179,3590.09090873,2888.96969668,2760.69696942,3993.45454506,3131.09090878,2274.90909068,2796.75757548,3346.42424209,3563.81818146,1096.24242413,2937.90909062,3770.90909053,42.0,42.0,?
2017-08-01 19:56:16.961273,3028.57575727,3490.66666632,3043.51515121,2274.90909068,2618.51515125,2456.242424,2542.78787853,131.878787866,2861.66666638,4203.63636322,3034.24242394,4215.99999958,2802.42424214,2851.87878759,2858.57575729,2794.1818179,3556.60606025,2888.96969668,2740.60606033,3993.45454506,3114.09090878,2274.90909068,2728.75757548,3346.42424209,3537.54545419,1096.24242413,2891.54545426,3770.90909053,42.0,42.0,?
2017-08-01 19:56:16.966569,3248.03030271,3490.66666632,3228.96969665,2274.90909068,2790.06060578,2456.242424,2762.75757548,131.878787866,3092.45454515,4203.63636322,3258.33333301,4215.99999958,3006.42424212,2851.87878759,3066.18181788,2794.1818179,3768.33333296,2888.96969668,2975.51515122,3993.45454506,3289.24242391,2274.90909068,2939.45454516,3346.42424209,3698.78787842,1096.24242413,3111.5151512,3770.90909053,42.0,42.0,?
2017-08-01 19:56:16.976383,3338.18181785,3490.66666632,3271.7272724,2274.90909068,2831.7878785,2456.242424,2823.54545426,131.878787866,3161.48484817,4203.63636322,3322.72727239,4215.99999958,3079.06060575,2851.87878759,3159.42424211,2794.1818179,3855.39393901,2888.96969668,3061.03030272,3993.45454506,3348.48484815,2274.90909068,3052.78787848,3346.42424209,3764.72727235,1096.24242413,3214.03030271,3770.90909053,42.0,42.0,?
